EEG 1,EEG 2,EEG 3,EEG 4,EEG 5,EEG 6,EEG 7,EEG 8,TRIG
186248.9,208094.4,712015.5,316056.9,711806.4,175931.4,697006.2,187206.2,0.0
186117.4,208012.8,712014.9,316005.2,711800.6,175842.4,696692.1,187073.7,0.0
186330.8,208200.3,712021.5,316091.9,711809.9,176022.5,696801.4,187231.8,0.0
186595.1,208399.5,712023.9,316208.6,711818.4,176228.1,697109.8,187464.0,0.0
186530.0,208320.3,712013.3,316137.3,711808.9,176162.1,697103.0,187434.9,0.0
186229.5,208077.9,712003.9,315975.3,711793.9,175925.0,696722.5,187192.3,0.0
186089.6,208003.8,712001.8,315907.5,711785.4,175831.0,696395.0,187054.3,0.0
186321.3,208204.8,712009.4,316030.6,711795.9,176023.6,696513.8,187229.9,0.0
186589.8,208399.1,712014.9,316151.9,711808.4,176234.0,696841.1,187473.6,0.0
186536.6,208326.0,712012.0,316078.8,711807.1,176176.7,696864.7,187455.9,0.0
186230.1,208076.1,712001.0,315894.9,711790.1,175925.0,696484.5,187200.5,0.0
186089.7,207994.3,712000.8,315822.8,711782.9,175826.8,696162.4,187058.5,0.0
186311.5,208194.1,712008.1,315947.4,711793.8,176016.0,696273.5,187225.5,0.0
186583.1,208394.6,712014.7,316069.1,711807.8,176229.0,696597.9,187466.3,0.0
186538.6,208328.5,712009.4,316014.0,711803.8,176174.0,696622.8,187454.2,0.0
186233.9,208076.2,711998.1,315841.9,711786.1,175921.8,696240.1,187200.3,0.0
186089.8,207987.3,711996.7,315766.5,711777.5,175822.9,695913.8,187055.3,0.0
186302.3,208176.0,712003.1,315871.0,711787.7,176003.7,696017.5,187214.6,0.0
186586.4,208393.9,712011.2,316005.2,711803.7,176227.7,696352.0,187466.1,0.0
186540.6,208327.8,712004.1,315959.9,711797.5,176171.0,696372.4,187454.8,0.0
186227.9,208074.1,711992.3,315772.1,711778.8,175916.8,695983.8,187197.4,0.0
186083.2,207985.2,711990.6,315681.4,711769.8,175816.8,695657.7,187048.4,0.0
186318.6,208194.7,712002.5,315808.3,711785.4,176013.7,695782.9,187220.6,0.0
186593.3,208405.8,712009.8,315935.5,711801.3,176225.5,696109.9,187466.2,0.0
186536.9,208334.3,712001.4,315870.4,711794.4,176161.9,696123.1,187447.6,0.0
186228.0,208085.3,711990.6,315691.0,711776.1,175912.2,695736.8,187191.3,0.0
186102.7,208000.3,711992.6,315636.7,711769.9,175825.2,695421.8,187057.1,0.0
186320.4,208188.5,711999.9,315749.7,711781.3,176009.7,695531.2,187217.0,0.0
186586.8,208384.8,712006.4,315873.6,711796.8,176216.3,695855.4,187459.0,0.0
186542.4,208322.8,712002.1,315815.8,711794.6,176164.3,695881.6,187450.6,0.0
186238.9,208079.0,711989.0,315643.5,711773.8,175917.7,695497.1,187196.9,0.0
186103.2,208002.0,711990.6,315567.6,711766.7,175829.7,695181.2,187059.9,0.0
186336.6,208210.6,712004.8,315700.2,711785.4,176029.0,695309.6,187236.2,0.0
186605.3,208414.4,712011.1,315821.8,711801.3,176238.5,695636.1,187478.0,0.0
186551.8,208335.6,712003.8,315760.4,711795.8,176177.2,695654.9,187460.8,0.0
186248.5,208083.9,711993.1,315584.6,711777.4,175924.7,695271.1,187204.5,0.0
186110.6,207997.6,711992.3,315513.8,711766.8,175821.6,694941.5,187056.2,0.0
186322.9,208185.9,711999.6,315617.7,711778.4,176001.5,695041.6,187210.1,0.0
186594.8,208388.7,712003.9,315738.3,711792.3,176210.3,695357.5,187446.6,0.0
186545.3,208319.1,711993.8,315675.9,711783.9,176151.3,695367.8,187424.4,0.0
186240.8,208074.0,711980.7,315501.4,711762.3,175903.2,694980.7,187170.8,0.0
186102.3,207989.6,711976.9,315443.8,711747.2,175805.5,694646.5,187028.2,0.0
186329.4,208177.7,711987.4,315578.1,711763.2,175995.2,694758.3,187197.8,0.0
186614.8,208395.0,711995.3,315724.8,711782.7,176216.2,695085.6,187446.8,0.0
186563.0,208322.4,711988.8,315644.0,711778.2,176162.1,695111.9,187437.6,0.0
186253.9,208065.2,711977.6,315454.6,711757.6,175912.3,694736.4,187185.0,0.0
186110.3,207976.8,711978.1,315384.4,711745.8,175811.3,694412.3,187038.6,0.0
186331.6,208176.9,711988.1,315507.9,711762.4,176002.7,694528.8,187206.6,0.0
186599.8,208382.1,711993.8,315631.6,711780.5,176211.0,694851.2,187452.7,0.0
186539.9,208299.2,711982.9,315577.2,711770.8,176143.5,694857.4,187433.1,0.0
186226.1,208045.9,711967.8,315395.2,711745.5,175892.9,694467.1,187175.2,0.0
186081.5,207959.1,711967.3,315318.1,711730.4,175796.5,694140.9,187029.1,0.0
186301.2,208149.6,711975.9,315449.2,711746.4,175981.7,694250.5,187190.3,0.0
186569.5,208355.2,711982.7,315559.7,711767.1,176195.3,694578.4,187430.9,0.0
186521.7,208292.0,711978.8,315496.1,711766.1,176147.9,694616.5,187429.6,0.0
186215.1,208044.1,711972.6,315324.4,711749.4,175901.3,694246.8,187181.0,0.0
186070.1,207954.0,711973.2,315260.6,711733.8,175802.0,693920.1,187032.8,0.0
186291.9,208152.3,711983.4,315382.8,711751.8,175990.5,694029.2,187193.1,0.0
186558.5,208350.7,711986.6,315499.4,711770.3,176196.5,694344.9,187426.5,0.0
186512.1,208282.1,711979.4,315450.4,711765.5,176145.4,694367.8,187415.4,0.0
186210.7,208039.4,711968.3,315277.5,711741.8,175902.3,693987.9,187166.2,0.0
186079.5,207961.6,711970.9,315224.1,711725.6,175807.6,693672.1,187032.1,0.0
186290.1,208150.8,711980.3,315334.0,711744.2,175988.0,693777.3,187189.7,0.0
186549.7,208343.7,711986.6,315444.0,711768.2,176191.2,694095.4,187424.7,0.0
186508.6,208284.2,711979.4,315391.5,711763.9,176140.9,694123.3,187416.1,0.0
186211.0,208038.8,711968.8,315223.4,711740.2,175899.4,693754.4,187169.7,0.0
186066.1,207948.2,711965.9,315158.5,711713.6,175794.0,693422.8,187020.3,0.0
186279.0,208147.1,711973.4,315280.5,711731.9,175977.8,693518.3,187178.4,0.0
186548.0,208344.1,711979.2,315404.9,711759.7,176190.4,693839.1,187420.6,0.0
186512.3,208284.7,711974.7,315354.8,711758.5,176143.6,693879.4,187418.7,0.0
186209.8,208036.6,711964.6,315186.9,711733.5,175896.2,693507.4,187172.3,0.0
186068.4,207950.8,711965.9,315119.0,711706.3,175797.5,693179.3,187026.1,0.0
186284.6,208141.3,711975.3,315237.9,711728.8,175981.5,693280.9,187186.1,0.0
186563.4,208349.9,711983.8,315366.3,711763.1,176200.3,693614.9,187438.1,0.0
186519.3,208287.0,711976.7,315309.2,711759.7,176149.5,693643.9,187428.1,0.0
186211.8,208033.9,711964.2,315127.4,711729.4,175901.0,693268.0,187173.4,0.0
186060.5,207939.3,711960.5,315057.7,711685.8,175794.1,692925.7,187018.4,0.0
186279.2,208139.0,711974.1,315183.4,711718.4,175983.4,693035.3,187182.5,0.0
186546.1,208344.5,711981.1,315305.9,711758.1,176193.0,693358.8,187424.4,0.0
186503.1,208278.8,711975.2,315252.2,711756.0,176143.5,693394.6,187421.5,0.0
186197.4,208027.1,711965.9,315071.8,711725.1,175897.8,693027.4,187172.3,0.0
186042.6,207927.2,711960.9,314996.2,711661.3,175785.9,692687.0,187014.9,0.0
186255.6,208116.6,711969.5,315119.3,711694.6,175967.5,692785.0,187175.2,0.0
186537.1,208331.0,711975.9,315266.9,711749.4,176186.4,693111.3,187426.3,0.0
186495.7,208265.3,711970.7,315210.1,711749.3,176140.3,693147.6,187424.6,0.0
186186.1,208015.1,711957.4,315019.6,711705.4,175888.7,692768.8,187170.3,0.0
186041.9,207932.8,711958.7,314952.1,711613.5,175791.8,692442.7,187023.8,0.0
186251.6,208111.7,711966.4,315070.2,711662.3,175964.7,692538.8,187175.8,0.0
186518.2,208307.5,711969.7,315193.0,711739.6,176170.5,692854.1,187414.6,0.0
186483.2,208248.7,711966.3,315143.4,711743.1,176125.4,692896.3,187414.4,0.0
186188.6,208010.8,711958.2,314977.6,711697.2,175890.5,692537.3,187174.5,0.0
186034.4,207913.2,711956.6,314903.2,711570.3,175781.2,692199.9,187018.1,0.0
186238.3,208096.5,711963.4,315018.3,711627.0,175951.9,692282.6,187162.4,0.0
186509.7,208303.0,711967.0,315147.5,711731.4,176166.7,692599.9,187404.9,0.0
186481.8,208253.2,711964.9,315100.4,711739.1,176131.6,692651.8,187413.7,0.0
186175.1,208001.2,711951.4,314919.2,711671.0,175880.9,692275.3,187157.7,0.0
186023.8,207907.1,711949.6,314850.3,711505.1,175774.0,691939.9,187006.7,0.0
186234.8,208095.7,711961.7,314971.4,711591.0,175950.2,692042.1,187164.3,0.0
186503.5,208297.6,711965.9,315094.2,711726.7,176160.5,692361.3,187401.9,0.0
186471.9,208245.0,711963.6,315048.3,711737.1,176122.3,692408.7,187407.9,0.0
186184.6,208011.5,711958.8,314885.3,711677.3,175891.0,692060.1,187175.6,0.0
186027.7,207911.4,711957.6,314811.9,711505.9,175783.3,691722.9,187020.5,0.0
186236.7,208103.8,711967.4,314934.1,711585.6,175962.5,691818.0,187174.7,0.0
186520.5,208322.6,711978.9,315069.8,711737.1,176188.5,692158.1,187429.0,0.0
186476.9,208252.5,711970.0,315013.3,711741.4,176130.5,692184.3,187416.8,0.0
186175.1,208002.9,711955.8,314834.1,711647.5,175876.6,691803.1,187160.8,0.0
186015.3,207899.0,711948.6,314761.2,711415.0,175758.9,691447.1,186997.8,0.0
186224.3,208088.4,711954.8,314887.5,711502.4,175942.1,691531.6,187152.3,0.0
186506.2,208304.2,711964.2,315021.3,711707.5,176168.2,691861.9,187405.1,0.0
186480.5,208251.9,711961.8,314977.0,711728.8,176132.6,691915.3,187415.7,0.0
186176.7,208003.2,711953.4,314801.0,711610.6,175885.7,691547.0,187165.5,0.0
186002.6,207886.0,711943.1,314718.5,711320.3,175760.2,691172.6,186984.9,0.0
186226.8,208087.8,711954.1,314849.5,711431.5,175952.0,691267.4,187145.1,0.0
186520.1,208312.3,711964.3,314991.0,711688.6,176180.4,691607.4,187405.2,0.0
186482.3,208252.2,711959.1,314942.1,711717.3,176134.2,691648.3,187406.0,0.0
186176.8,208004.5,711948.1,314768.5,711559.1,175886.6,691275.2,187156.0,0.0
186031.9,207915.1,711945.6,314704.3,711269.9,175782.9,690936.4,187002.6,0.0
186253.2,208112.5,711957.8,314832.9,711403.5,175971.5,691035.8,187162.0,0.0
186541.4,208332.2,711966.9,314969.9,711680.8,176189.5,691368.8,187415.5,0.0
186514.9,208288.9,711964.3,314928.6,711723.0,176150.6,691422.9,187428.3,0.0
186219.2,208056.0,711956.1,314757.8,711580.2,175915.7,691063.8,187189.5,0.0
186052.8,207926.4,711950.3,314678.0,711291.4,175790.6,690703.2,187020.0,0.0
186259.9,208113.1,711954.4,314793.4,711399.6,175962.4,690776.8,187160.0,0.0
186550.6,208339.4,711964.5,314934.9,711682.0,176199.1,691114.4,187422.3,0.0
186527.8,208294.9,711963.4,314890.5,711723.6,176168.0,691173.0,187438.3,0.0
186225.8,208045.8,711954.8,314717.3,711577.5,175919.2,690810.1,187191.6,0.0
186064.3,207937.7,711949.3,314641.6,711253.2,175795.0,690449.4,187021.6,0.0
186268.2,208117.0,711956.4,314759.7,711331.7,175964.9,690520.6,187161.3,0.0
186545.5,208324.6,711964.3,314890.9,711645.0,176184.4,690843.8,187408.0,0.0
186507.3,208261.8,711959.3,314836.1,711700.3,176137.0,690884.8,187408.0,0.0
186208.0,208016.9,711950.4,314663.3,711473.9,175895.5,690526.1,187164.2,0.0
186047.1,207915.7,711950.1,314586.8,711121.3,175780.6,690190.3,187002.6,0.0
186249.7,208101.0,711962.6,314700.3,711247.6,175953.6,690284.5,187149.9,0.0
186530.5,208320.4,711969.8,314829.8,711613.5,176174.3,690619.7,187398.6,0.0
186495.5,208257.8,711960.3,314775.5,711687.6,176124.4,690658.6,187395.3,0.0
186201.3,208019.2,711949.4,314605.6,711433.1,175881.7,690298.3,187151.9,0.0
186044.4,207917.2,711946.6,314533.7,711088.1,175771.0,689961.8,186996.0,0.0
186245.7,208098.5,711954.8,314650.2,711203.7,175939.4,690045.3,187143.0,0.0
186530.1,208319.0,711965.1,314789.3,711592.3,176165.3,690379.4,187395.6,0.0
186520.0,208280.4,711964.9,314755.2,711684.1,176139.5,690452.6,187415.2,0.0
186211.3,208022.3,711951.4,314575.4,711396.3,175883.4,690076.2,187154.7,0.0
186047.5,207912.6,711945.0,314495.6,711000.9,175760.5,689718.8,186983.4,0.0
186248.8,208096.4,711948.6,314613.3,711095.5,175933.4,689791.8,187123.4,0.0
186534.6,208318.3,711956.8,314754.9,711513.2,176160.5,690120.3,187377.2,0.0
186519.4,208278.3,711955.9,314721.6,711633.6,176134.8,690192.8,187398.5,0.0
186219.0,208031.6,711944.1,314548.3,711299.9,175889.8,689834.6,187152.5,0.0
186057.5,207931.4,711942.8,314476.0,710905.3,175773.3,689489.8,186988.8,0.0
186265.0,208119.4,711953.3,314597.8,711023.9,175949.9,689579.4,187138.5,0.0
186544.4,208330.4,711959.3,314726.1,711451.9,176168.2,689908.9,187385.8,0.0
186535.0,208292.2,711960.3,314691.4,711596.9,176146.0,689983.9,187409.1,0.0
186228.6,208037.3,711950.8,314514.7,711234.3,175896.8,689623.9,187158.0,0.0
186063.8,207932.2,711946.6,314439.3,710828.3,175778.2,689274.6,186990.3,0.0
186271.3,208124.5,711959.8,314560.0,710951.7,175958.0,689369.9,187141.2,0.0
186540.8,208324.7,711964.9,314685.8,711389.8,176165.0,689689.8,187381.3,0.0
186511.3,208265.0,711955.3,314640.4,711505.5,176117.6,689725.3,187378.3,0.0
186229.7,208035.9,711950.8,314485.4,711153.9,175894.0,689389.8,187152.3,0.0
186069.9,207937.8,711948.9,314410.1,710751.0,175782.3,689049.1,186989.0,0.0
186273.7,208125.8,711957.6,314529.7,710875.1,175961.8,689132.4,187135.3,0.0
186548.4,208333.3,711962.0,314658.7,711316.7,176176.1,689452.3,187377.3,0.0
186540.4,208298.2,711962.6,314629.2,711481.4,176152.8,689528.9,187405.2,0.0
186252.2,208060.9,711956.9,314466.5,711130.5,175919.2,689194.7,187173.8,0.0
186082.0,207948.0,711953.9,314388.7,710730.0,175794.6,688844.5,187002.4,0.0
186260.9,208110.8,711952.9,314491.7,710811.4,175939.8,688887.3,187121.8,0.0
186539.0,208322.2,711953.7,314625.2,711251.9,176161.2,689197.2,187360.9,0.0
186530.1,208288.1,711954.3,314591.2,711410.4,176142.6,689274.4,187387.3,0.0
186242.5,208055.8,711948.9,314428.2,711055.3,175910.4,688935.8,187155.0,0.0
186073.3,207946.2,711947.3,314350.2,710645.3,175787.7,688585.7,186988.4,0.0
186269.2,208126.6,711954.5,314469.8,710756.8,175960.1,688657.4,187128.2,0.0
186549.3,208338.0,711960.3,314603.8,711219.5,176181.1,688986.2,187378.2,0.0
186528.9,208291.4,711955.3,314562.7,711366.8,176151.3,689046.8,187386.8,0.0
186233.9,208049.8,711946.2,314393.4,711006.4,175914.6,688698.8,187149.6,0.0
186067.8,207945.5,711942.8,314319.2,710585.4,175794.5,688347.1,186982.5,0.0
186267.1,208127.5,711951.4,314439.1,710702.4,175964.7,688423.1,187127.5,0.0
186551.6,208342.9,711956.6,314573.5,711160.1,176184.8,688753.9,187380.0,0.0
186525.1,208291.8,711948.8,314532.8,711312.3,176149.1,688802.2,187385.6,0.0
186229.1,208050.3,711940.6,314367.1,710939.9,175910.7,688452.9,187145.9,0.0
186062.8,207943.9,711938.5,314291.0,710547.5,175792.5,688108.1,186983.4,0.0
186259.0,208121.5,711948.3,314404.9,710674.3,175960.0,688184.7,187127.1,0.0
186549.6,208348.7,711957.4,314546.7,711155.9,176190.9,688519.1,187385.2,0.0
186530.3,208302.0,711951.8,314504.0,711326.6,176159.7,688581.8,187399.5,0.0
186232.2,208056.0,711941.0,314331.8,710963.3,175914.1,688228.1,187153.3,0.0
186063.6,207943.6,711938.5,314255.3,710560.4,175789.7,687878.1,186985.4,0.0
186256.3,208121.1,711945.5,314368.7,710673.4,175953.3,687942.9,187120.4,0.0
186549.6,208347.5,711954.1,314510.1,711152.4,176183.4,688277.8,187378.3,0.0
186544.5,208310.2,711952.6,314475.3,711331.2,176159.3,688358.9,187404.3,0.0
186251.9,208067.4,711948.3,314309.7,710982.2,175923.3,688021.5,187171.8,0.0
186067.5,207940.6,711942.1,314218.9,710546.2,175787.0,687651.8,186986.1,0.0
186243.0,208102.3,711939.4,314320.2,710620.0,175931.8,687685.1,187098.1,0.0
186533.2,208325.5,711947.3,314464.6,711079.7,176165.3,688015.3,187356.7,0.0
186516.9,208282.9,711944.9,314426.3,711249.1,176146.9,688087.7,187380.3,0.0
186204.9,208023.3,711933.9,314245.5,710858.4,175899.4,687727.6,187135.0,0.0
186015.4,207895.2,711930.6,314152.3,710423.5,175759.6,687368.9,186959.1,0.0
186191.4,208055.8,711939.1,314258.5,710518.7,175913.5,687428.8,187088.4,0.0
186484.5,208284.0,711950.9,314405.7,710971.3,176147.3,687775.4,187353.6,0.0
186458.9,208233.2,711942.2,314361.8,711120.3,176109.6,687829.6,187363.1,0.0
186153.7,207985.9,711927.9,314187.4,710750.6,175863.4,687471.8,187119.3,0.0
185990.5,207892.1,711930.0,314111.1,710389.1,175749.9,687132.3,186962.4,0.0
186180.7,208065.7,711940.6,314214.2,710554.5,175916.5,687212.4,187099.1,0.0
186471.3,208287.8,711949.4,314346.8,711081.4,176150.6,687555.6,187354.3,0.0
186460.0,208246.8,711947.9,314311.2,711285.6,176127.6,687632.3,187377.5,0.0
186165.9,208003.3,711942.9,314147.4,710926.4,175889.7,687294.2,187146.4,0.0
185992.7,207890.4,711939.4,314067.2,710498.3,175756.2,686940.1,186975.9,0.0
186183.9,208064.2,711948.8,314179.8,710584.8,175917.8,687007.2,187108.5,0.0
186479.3,208285.5,711958.0,314321.7,711048.0,176152.0,687344.6,187362.1,0.0
186466.8,208242.6,711954.5,314283.2,711218.3,176126.8,687418.4,187379.4,0.0
186161.2,207991.0,711941.6,314106.2,710831.9,175875.2,687059.1,187128.2,0.0
185990.2,207880.3,711937.9,314030.6,710398.6,175750.3,686706.7,186959.4,0.0
186186.4,208062.0,711950.4,314149.8,710510.5,175920.7,686786.5,187103.2,0.0
186466.5,208275.0,711955.5,314281.7,710971.9,176142.8,687112.7,187345.7,0.0
186458.5,208239.3,711951.6,314247.6,711141.6,176121.3,687190.3,187367.6,0.0
186162.6,207997.4,711941.3,314080.0,710768.8,175882.7,686849.0,187132.9,0.0
185983.8,207879.1,711937.5,313996.8,710323.3,175751.3,686491.5,186961.7,0.0
186177.6,208055.9,711948.1,314111.9,710421.6,175916.2,686559.9,187097.2,0.0
186484.5,208292.5,711963.3,314265.4,710904.1,176160.0,686913.8,187363.0,0.0
186470.9,208247.1,711955.9,314227.6,711054.2,176132.3,686983.5,187374.5,0.0
186163.4,207993.5,711939.9,314052.4,710649.7,175878.2,686620.3,187120.1,0.0
185992.7,207882.7,711937.4,313983.6,710205.8,175753.2,686268.3,186953.8,0.0
186182.8,208057.9,711944.4,314099.6,710298.1,175924.2,686336.2,187088.5,0.0
186470.3,208277.0,711949.9,314229.4,710765.1,176149.8,686656.2,187332.9,0.0
186474.0,208249.3,711948.5,314209.8,710945.2,176135.0,686741.1,187364.0,0.0
186188.3,208016.3,711943.9,314051.5,710576.2,175902.3,686416.8,187138.6,0.0
186012.8,207905.4,711942.7,313975.6,710145.4,175773.3,686074.1,186970.8,0.0
186202.9,208078.6,711951.9,314092.4,710251.2,175933.1,686142.5,187102.7,0.0
186485.1,208289.8,711955.3,314230.9,710712.6,176153.6,686459.5,187345.2,0.0
186488.8,208265.7,711951.0,314203.9,710889.1,176135.8,686540.9,187373.9,0.0
186198.1,208030.5,711941.8,314041.5,710514.4,175901.4,686206.9,187146.2,0.0
186018.7,207914.1,711938.7,313964.0,710072.3,175776.7,685856.9,186978.7,0.0
186202.7,208091.4,711946.8,314083.8,710172.2,175941.4,685919.9,187111.1,0.0
186497.7,208322.8,711959.7,314232.6,710637.8,176174.9,686253.2,187364.8,0.0
186501.1,208288.9,711957.3,314208.4,710818.4,176158.1,686339.1,187393.4,0.0
186213.3,208049.5,711945.9,314042.6,710430.6,175916.9,685998.3,187159.3,0.0
186026.8,207921.8,711934.2,313949.2,709980.4,175773.4,685644.1,186974.0,0.0
186213.1,208093.8,711941.2,314057.0,710080.9,175935.6,685702.8,187102.3,0.0
186518.3,208333.4,711960.5,314209.5,710592.2,176179.3,686044.9,187372.1,0.0
186519.3,208304.9,711961.8,314183.1,710778.0,176161.1,686135.4,187404.3,0.0
186214.7,208052.8,711947.9,314011.2,710383.1,175919.1,685832.1,187164.4,0.0
186030.3,207930.3,711942.4,313924.5,709930.5,175783.9,685698.9,186982.8,0.0
186204.2,208088.0,711946.2,314022.1,710027.2,175927.8,685734.6,187092.9,0.0
186499.3,208313.7,711956.8,314169.0,710534.0,176163.0,686007.4,187346.0,0.0
186497.5,208285.0,711954.4,314141.4,710727.2,176150.9,686094.3,187377.5,0.0
186197.7,208035.1,711942.4,313972.6,710341.6,175905.1,685801.1,187140.1,0.0
186026.7,207921.1,711943.0,313900.3,709895.6,175782.0,685689.3,186975.0,0.0
186212.2,208089.5,711952.6,314015.3,709997.3,175944.5,685727.9,187101.6,0.0
186483.4,208293.4,711957.9,314134.4,710460.1,176157.4,685978.8,187333.6,0.0
186460.5,208242.0,711946.1,314092.2,710621.7,176123.7,686035.9,187347.1,0.0
186181.7,208015.9,711935.8,313944.4,710232.6,175899.9,685779.6,187131.6,0.0
186004.3,207898.0,711934.9,313861.9,709780.3,175768.0,685670.6,186961.8,0.0
186190.6,208069.2,711945.0,313976.1,709880.2,175925.8,685715.6,187091.4,0.0
186484.2,208296.0,711955.3,314121.1,710369.5,176159.4,685991.7,187345.5,0.0
186478.6,208262.0,711949.4,314090.0,710560.4,176137.2,686070.6,187374.6,0.0
186180.7,208017.5,711936.1,313916.9,710159.4,175891.9,685777.8,187137.0,0.0
185998.4,207896.1,711937.1,313834.3,709720.3,175761.3,685664.5,186966.6,0.0
186175.6,208060.0,711945.9,313941.3,709834.2,175916.0,685708.8,187089.8,0.0
186465.1,208283.8,711955.9,314075.2,710345.0,176145.1,685984.6,187339.3,0.0
186475.6,208262.7,711953.5,314058.2,710540.4,176136.5,686072.6,187376.1,0.0
186183.0,208020.0,711942.7,313896.7,710154.9,175899.8,685790.9,187148.8,0.0
185994.2,207894.1,711938.1,313805.2,709687.4,175757.0,685661.8,186967.0,0.0
186184.6,208070.6,711949.7,313919.9,709800.8,175923.0,685713.0,187098.6,0.0
186475.8,208290.9,711960.1,314063.9,710310.3,176152.8,685986.5,187348.6,0.0
186466.0,208247.6,711949.4,314026.7,710466.7,176123.1,686049.6,187362.2,0.0
186175.6,208008.3,711937.9,313862.1,710078.4,175889.5,685781.8,187136.0,0.0
186003.5,207896.8,711940.6,313790.7,709615.8,175765.7,685684.9,186966.9,0.0
186179.4,208063.1,711949.9,313892.5,709711.6,175915.7,685718.3,187080.9,0.0
186473.6,208290.5,711962.8,314032.2,710206.4,176147.8,685990.6,187330.5,0.0
186483.5,208266.7,711957.9,314023.5,710378.1,176135.2,686073.3,187361.6,0.0
186185.2,208019.7,711942.2,313854.1,709953.1,175891.5,685785.4,187128.7,0.0
186006.8,207900.4,711939.4,313770.0,709459.4,175759.1,685672.9,186955.6,0.0
186181.6,208060.6,711943.9,313874.0,709540.9,175910.0,685708.0,187067.0,0.0
186483.2,208299.8,711954.7,314024.9,710048.4,176156.9,685979.2,187323.9,0.0
186488.9,208277.0,711953.7,314000.7,710230.5,176146.1,686071.9,187364.3,0.0
186184.8,208018.9,711937.9,313828.4,709795.3,175896.4,685784.1,187128.6,0.0
186000.1,207894.1,711936.4,313742.6,709319.6,175760.2,685673.4,186951.3,0.0
186174.5,208055.7,711943.1,313845.3,709428.6,175913.1,685717.5,187067.5,0.0
186472.2,208289.1,711956.1,313996.0,709943.2,176146.2,685991.9,187322.6,0.0
186470.5,208257.8,711953.7,313963.6,710151.9,176128.5,686082.7,187352.5,0.0
186177.8,208015.9,711939.6,313793.1,709745.3,175889.4,685796.4,187122.5,0.0
185994.2,207894.8,711935.4,313713.7,709267.4,175754.8,685665.9,186944.7,0.0
186174.8,208061.9,711944.3,313825.4,709376.2,175911.8,685710.7,187066.4,0.0
186471.6,208293.6,711957.1,313972.2,709904.9,176147.9,685984.9,187318.6,0.0
186484.9,208274.1,711959.8,313945.2,710123.6,176138.6,686092.4,187363.2,0.0
186186.4,208025.5,711946.8,313782.5,709721.5,175891.2,685808.6,187132.8,0.0
185996.2,207898.6,711941.6,313699.7,709232.6,175749.1,685678.0,186951.5,0.0
186173.9,208065.9,711948.3,313806.4,709320.1,175904.5,685711.3,187067.6,0.0
186479.8,208306.0,711959.5,313962.5,709843.8,176146.3,685984.1,187321.3,0.0
186500.5,208294.6,711958.7,313951.6,710035.1,176144.8,686078.7,187361.5,0.0
186206.5,208047.7,711945.0,313787.1,709625.3,175905.7,685812.4,187136.3,0.0
186031.5,207926.5,711946.8,313714.7,709145.9,175772.8,685706.8,186971.4,0.0
186204.5,208085.9,711949.3,313825.2,709225.7,175918.0,685710.9,187081.3,0.0
186499.8,208312.6,711953.0,313961.4,709719.9,176143.0,685964.9,187318.5,0.0
186521.2,208297.3,711951.1,313941.3,709924.0,176140.5,686060.8,187360.6,0.0
186232.0,208057.0,711939.7,313778.8,709525.7,175903.7,685783.8,187138.8,0.0
186057.5,207948.5,711943.1,313704.4,709068.0,175781.2,685689.1,186979.8,0.0
186216.7,208102.0,711944.3,313802.1,709149.3,175918.4,685716.6,187079.3,0.0
186496.5,208313.7,711946.6,313932.2,709644.1,176134.0,685943.8,187301.6,0.0
186528.8,208311.5,711946.1,313925.7,709880.1,176143.7,686052.6,187355.0,0.0
186246.3,208075.3,711936.4,313769.0,709492.8,175917.0,685792.3,187141.9,0.0
186048.2,207938.2,711932.5,313680.0,709004.1,175772.6,685667.5,186957.9,0.0
186226.1,208104.2,711941.6,313791.9,709091.0,175925.0,685701.8,187070.3,0.0
186527.9,208336.9,711952.4,313937.8,709617.9,176162.9,685961.1,187318.0,0.0
186566.4,208337.9,711957.6,313944.6,709868.1,176173.7,686081.8,187376.6,0.0
186264.3,208094.8,711945.4,313768.3,709585.6,175931.2,685807.4,187148.8,0.0
186060.8,207955.5,711939.1,313663.7,709278.1,175782.6,685675.4,186957.6,0.0
186238.0,208117.4,711948.9,313772.4,709378.3,175934.5,685727.9,187072.9,0.0
186533.4,208344.7,711960.6,313918.1,709877.3,176168.0,685993.5,187321.1,0.0
186539.1,208315.9,711954.5,313896.4,710103.3,176152.6,686076.4,187350.5,0.0
186241.5,208064.9,711937.3,313732.1,709681.3,175906.0,685785.1,187117.7,0.0
186045.8,207931.6,711931.6,313646.7,709202.9,175762.0,685673.6,186939.5,0.0
186221.4,208099.0,711943.6,313755.1,709301.0,175918.8,685734.8,187059.7,0.0
186521.5,208333.6,711958.6,313899.6,709838.8,176159.3,686000.4,187314.2,0.0
186527.6,208306.9,711956.6,313872.3,710053.3,176147.4,686094.2,187350.1,0.0
186211.0,208040.2,711937.8,313691.6,709621.7,175888.4,685799.6,187106.8,0.0
186004.0,207898.9,711927.5,313593.3,709121.0,175734.8,685669.0,186916.6,0.0
186170.0,208056.0,711936.1,313691.6,709198.9,175884.4,685721.1,187029.5,0.0
186466.4,208287.7,711949.1,313839.6,709721.8,176121.7,685977.8,187278.9,0.0
186480.6,208268.0,711947.7,313824.7,709934.9,176115.5,686074.1,187321.4,0.0
186193.7,208029.8,711938.9,313665.9,709535.9,175882.5,685809.1,187107.2,0.0
185991.0,207889.5,711933.5,313573.8,709049.1,175734.1,685680.3,186920.6,0.0
186153.7,208045.8,711939.3,313676.9,709140.8,175877.9,685717.4,187026.0,0.0
186452.5,208279.7,711953.4,313816.2,709691.0,176118.9,685984.8,187283.6,0.0
186466.9,208261.0,711948.5,313792.5,709908.3,176110.2,686078.7,187320.9,0.0
186184.9,208025.4,711937.5,313637.6,709520.5,175880.9,685813.8,187104.3,0.0
185992.3,207892.8,711935.9,313554.7,709028.3,175737.1,685695.8,186924.5,0.0
186158.1,208050.0,711943.3,313658.6,709106.1,175883.1,685727.3,187031.1,0.0
186456.4,208283.1,711954.4,313807.3,709634.1,176118.0,685984.4,187282.5,0.0
186472.2,208263.8,711949.3,313790.2,709845.7,176115.3,686076.8,187325.5,0.0
186183.2,208019.7,711936.6,313626.2,709445.0,175876.9,685801.4,187102.8,0.0
185990.2,207887.2,711934.4,313542.5,708954.8,175735.6,685678.5,186922.3,0.0
186160.8,208047.3,711941.6,313649.4,709045.8,175884.3,685711.4,187035.2,0.0
186440.3,208261.9,711946.6,313778.1,709566.6,176105.7,685954.3,187271.7,0.0
186463.0,208252.6,711944.6,313765.7,709797.3,176113.5,686055.6,187320.9,0.0
186183.8,208020.8,711937.1,313613.3,709420.9,175889.9,685795.9,187109.0,0.0
185982.7,207883.0,711932.0,313519.5,708921.3,175739.3,685669.1,186922.2,0.0
186144.9,208035.2,711935.4,313618.5,708988.8,175875.0,685715.2,187023.4,0.0
186448.2,208270.2,711947.4,313770.6,709526.2,176112.9,685966.8,187276.7,0.0
186474.7,208258.0,711945.6,313757.6,709750.4,176115.1,686071.4,187326.0,0.0
186193.3,208020.8,711933.9,313599.2,709361.6,175885.5,685798.4,187107.9,0.0
185997.4,207885.9,711933.7,313510.0,708861.1,175739.3,685677.9,186928.4,0.0
186151.1,208036.5,711940.9,313605.3,708930.6,175877.0,685719.3,187028.8,0.0
186443.7,208267.8,711949.7,313751.4,709460.6,176107.4,685964.3,187277.0,0.0
186469.4,208257.3,711946.1,313740.4,709683.0,176112.2,686062.8,187322.5,0.0
186181.5,208011.5,711930.9,313576.9,709286.9,175875.0,685795.6,187096.6,0.0
185991.1,207882.0,711930.2,313495.3,708779.1,175733.5,685677.7,186918.5,0.0
186154.3,208042.3,711939.8,313600.8,708872.3,175880.6,685704.4,187026.7,0.0
186453.1,208276.5,711951.2,313739.5,709404.7,176118.9,685970.3,187276.7,0.0
186477.8,208267.3,711950.3,313722.4,709652.2,176123.8,686085.7,187329.9,0.0
186182.1,208019.1,711935.2,313556.5,709251.4,175880.9,685806.9,187104.5,0.0
185985.2,207881.6,711934.5,313467.8,708749.8,175734.7,685684.1,186923.9,0.0
186155.8,208042.8,711944.1,313573.5,708849.7,175882.8,685716.8,187032.8,0.0
186460.4,208279.2,711955.1,313727.4,709368.8,176121.1,685979.4,187284.1,0.0
186480.4,208266.3,711951.1,313709.9,709616.5,176125.0,686079.6,187329.9,0.0
186204.3,208036.9,711943.7,313556.9,709219.8,175901.4,685822.4,187122.2,0.0
186000.2,207893.5,711940.3,313463.7,708711.0,175747.1,685693.5,186935.3,0.0
186152.0,208039.4,711943.1,313557.6,708762.5,175880.4,685732.3,187024.8,0.0
186456.1,208279.3,711953.0,313713.4,709286.3,176127.5,685979.1,187278.2,0.0
186488.6,208276.6,711951.2,313699.0,709539.9,176136.1,686090.5,187333.7,0.0
186205.1,208038.3,711936.9,313538.5,709130.9,175899.6,685827.9,187116.6,0.0
186006.0,207900.4,711932.9,313452.1,708630.9,175749.5,685695.7,186929.3,0.0
186175.6,208059.3,711943.4,313564.8,708709.1,175895.4,685716.6,187041.3,0.0
186484.7,208300.2,711956.1,313717.0,709254.5,176136.8,685988.4,187298.8,0.0
186502.3,208282.1,711948.0,313693.1,709486.7,176130.3,686083.2,187335.2,0.0
186228.6,208057.9,711936.7,313543.8,709096.1,175909.8,685818.3,187124.3,0.0
186024.2,207915.6,711933.1,313450.9,708592.9,175756.5,685683.7,186936.9,0.0
186185.8,208067.7,711941.4,313549.1,708654.9,175894.7,685711.9,187039.4,0.0
186494.7,208307.9,711955.7,313703.1,709212.3,176144.8,685982.5,187297.3,0.0
186526.8,208302.3,711952.3,313694.2,709451.6,176154.6,686091.6,187347.2,0.0
186246.2,208068.6,711939.7,313540.1,709051.4,175925.5,685819.9,187127.4,0.0
186039.1,207925.1,711939.2,313446.5,708532.8,175770.1,685683.0,186939.4,0.0
186200.0,208078.8,711947.9,313541.0,708607.4,175909.7,685717.3,187045.8,0.0
186500.9,208313.2,711958.7,313692.9,709152.4,176147.1,685978.0,187298.3,0.0
186542.0,208320.9,711961.4,313691.0,709419.6,176170.3,686109.3,187362.5,0.0
186242.6,208071.8,711942.8,313519.4,709005.7,175930.3,685826.8,187127.7,0.0
186035.6,207927.2,711933.6,313421.4,708468.9,175770.8,685687.7,186929.7,0.0
186185.8,208067.3,711938.3,313515.5,708513.5,175895.2,685732.8,187021.3,0.0
186491.3,208305.5,711951.4,313669.1,709047.3,176137.7,685977.9,187277.4,0.0
186533.6,208309.6,711952.9,313668.9,709309.1,176150.2,686104.1,187346.1,0.0
186254.3,208072.6,711940.6,313516.7,708917.7,175917.5,685843.8,187133.0,0.0
186044.8,207922.9,711933.9,313423.1,708394.9,175761.3,685701.1,186940.1,0.0
186196.6,208075.0,711944.1,313511.5,708459.7,175899.8,685729.8,187040.1,0.0
186501.7,208315.4,711955.7,313665.3,709000.8,176139.7,685989.4,187295.6,0.0
186542.8,208318.1,711958.3,313666.7,709262.8,176158.0,686114.1,187360.8,0.0
186262.5,208080.6,711948.0,313509.7,708878.2,175930.0,685843.8,187147.6,0.0
186060.5,207938.9,711945.9,313426.4,708370.6,175780.5,685698.8,186960.8,0.0
186198.7,208075.2,711951.6,313501.0,708413.9,175906.5,685710.3,187044.9,0.0
186490.4,208306.3,711957.0,313633.3,708932.4,176138.8,685951.2,187284.2,0.0
186528.1,208305.8,711954.9,313633.3,709192.6,176154.3,686072.1,187345.6,0.0
186246.2,208070.1,711942.4,313478.2,708800.3,175924.6,685807.0,187130.9,0.0
186042.4,207928.0,711940.0,313389.9,708289.9,175777.3,685684.1,186946.3,0.0
186184.1,208068.6,711943.1,313473.8,708335.4,175905.8,685722.6,187031.0,0.0
186481.4,208306.7,711954.4,313619.1,708874.3,176141.5,685970.3,187283.9,0.0
186514.8,208305.0,711952.1,313614.1,709127.0,176147.0,686083.9,187340.1,0.0
186224.5,208059.8,711934.5,313452.4,708713.5,175906.5,685809.8,187114.9,0.0
186021.0,207918.4,711931.8,313363.8,708186.2,175754.8,685672.9,186926.0,0.0
186188.3,208077.6,711943.4,313479.7,708258.3,175906.7,685714.3,187038.5,0.0
186492.1,208313.0,711953.9,313626.6,708804.7,176143.6,685973.8,187294.6,0.0
186530.6,208312.1,711953.1,313613.6,709070.1,176152.7,686096.9,187355.0,0.0
186244.7,208073.4,711938.9,313452.2,708669.3,175915.5,685822.4,187130.4,0.0
186039.5,207933.2,711936.4,313363.7,708152.5,175764.8,685691.0,186939.1,0.0
186190.8,208079.5,711943.6,313459.3,708213.8,175901.1,685726.9,187033.9,0.0
186497.8,208320.4,711955.8,313610.6,708765.7,176142.4,685983.2,187287.6,0.0
186530.6,208313.3,711949.1,313598.9,709014.3,176147.0,686088.4,187338.3,0.0
186254.3,208078.9,711938.8,313444.9,708627.5,175922.9,685826.5,187126.7,0.0
186040.4,207926.8,711934.9,313344.3,708097.3,175764.7,685685.8,186930.2,0.0
186180.0,208060.4,711936.9,313433.0,708123.4,175886.3,685706.3,187010.7,0.0
186481.8,208298.2,711946.1,313585.6,708655.0,176126.3,685946.8,187262.9,0.0
186542.0,208320.1,711950.8,313597.8,708941.3,176164.0,686091.2,187345.5,0.0
186263.9,208085.0,711940.9,313444.1,708558.9,175937.3,685833.3,187137.8,0.0
186042.3,207928.2,711935.4,313335.8,708025.3,175769.0,685682.1,186937.8,0.0
186194.0,208074.0,711945.8,313425.1,708083.3,175902.9,685715.9,187035.7,0.0
186500.4,208312.7,711959.5,313578.0,708628.5,176145.4,685972.0,187290.7,0.0
186540.3,208315.0,711957.3,313575.0,708899.4,176160.2,686097.9,187353.0,0.0
186258.0,208075.9,711945.5,313411.0,708511.1,175925.1,685834.7,187136.9,0.0
186049.0,207927.9,711940.8,313313.9,707986.6,175765.9,685691.6,186941.1,0.0
186195.5,208069.5,711946.4,313407.8,708034.4,175891.6,685712.4,187029.8,0.0
186495.0,208303.2,711956.6,313558.6,708574.5,176127.0,685961.8,187278.8,0.0
186540.6,208306.0,711956.5,313562.3,708849.6,176144.8,686090.9,187342.8,0.0
186259.4,208069.8,711942.3,313413.6,708462.6,175920.2,685824.6,187129.8,0.0
186033.2,207912.2,711937.0,313294.6,707933.1,175753.7,685675.1,186928.9,0.0
186188.8,208062.8,711944.4,313390.3,707986.9,175885.1,685702.6,187025.6,0.0
186498.8,208305.2,711955.9,313551.3,708534.5,176129.3,685959.7,187284.5,0.0
186541.2,208308.7,711953.4,313544.4,708804.1,176144.6,686084.1,187348.5,0.0
186264.2,208075.9,711942.7,313385.9,708430.6,175920.5,685828.4,187144.1,0.0
186046.1,207919.4,711939.1,313283.8,707898.9,175758.3,685679.8,186945.6,0.0
186180.8,208049.5,711944.1,313369.3,707920.8,175874.2,685695.3,187024.1,0.0
186477.2,208283.6,711949.9,313521.8,708437.5,176109.3,685927.8,187265.3,0.0
186532.8,208302.9,711951.4,313527.4,708716.1,176143.4,686063.3,187338.8,0.0
186262.8,208076.4,711942.7,313377.6,708336.6,175924.2,685815.8,187135.3,0.0
186043.5,207922.5,711937.2,313275.0,707793.6,175757.4,685670.9,186934.9,0.0
186195.9,208074.9,711949.4,313379.9,707846.9,175898.2,685711.3,187039.5,0.0
186500.4,208313.4,711960.1,313535.5,708389.3,176141.7,685966.5,187294.6,0.0
186546.3,208317.7,711959.3,313530.4,708667.1,176164.0,686097.8,187358.1,0.0
186258.5,208070.5,711944.9,313362.2,708265.8,175925.5,685828.2,187135.6,0.0
186038.1,207916.0,711938.3,313257.3,707720.0,175757.9,685678.9,186934.7,0.0
186177.4,208056.2,711943.4,313347.9,707749.8,175886.6,685696.7,187023.1,0.0
186485.9,208299.8,711952.2,313502.5,708285.6,176131.4,685942.8,187275.7,0.0
186538.6,208312.3,711953.2,313510.2,708572.9,176160.4,686083.7,187350.8,0.0
186263.3,208078.1,711944.1,313357.5,708200.7,175935.4,685831.9,187146.3,0.0
186044.1,207922.5,711941.7,313253.3,707667.0,175769.8,685685.8,186947.1,0.0
186182.2,208055.6,711945.5,313347.0,707689.7,175890.4,685715.0,187027.1,0.0
186488.7,208295.4,711952.6,313498.3,708219.7,176128.6,685947.4,187278.2,0.0
186544.5,208311.1,711951.9,313506.5,708507.8,176158.8,686082.6,187353.7,0.0
186259.2,208070.7,711940.4,313344.1,708128.9,175929.6,685827.4,187142.5,0.0
186034.4,207913.4,711935.8,313236.8,707593.5,175760.9,685686.4,186941.1,0.0
186179.1,208055.3,711942.1,313336.0,707629.8,175888.8,685721.1,187029.2,0.0
186492.9,208302.9,711953.6,313489.3,708178.9,176136.5,685969.5,187286.4,0.0
186544.2,208316.8,711955.5,313489.8,708471.8,176163.9,686110.7,187361.0,0.0
186269.3,208084.1,711946.0,313337.9,708098.6,175941.0,685850.1,187155.5,0.0
186052.7,207927.0,711941.7,313246.0,707565.7,175777.4,685692.4,186960.5,0.0
186177.2,208050.9,711944.9,313316.2,707580.7,175886.6,685721.7,187029.2,0.0
186483.1,208292.3,711956.4,313470.0,708122.0,176126.6,685965.4,187282.2,0.0
186528.3,208298.8,711952.2,313468.8,708400.5,176149.5,686093.4,187346.8,0.0
186251.1,208064.7,711935.6,313306.9,708008.9,175916.6,685824.9,187130.0,0.0
186032.4,207908.1,711931.0,313205.7,707471.1,175749.6,685675.2,186928.9,0.0
186174.6,208052.4,711940.0,313300.5,707507.5,175885.5,685707.1,187019.6,0.0
186490.7,208304.7,711956.2,313469.1,708062.8,176143.3,685967.9,187286.9,0.0
186540.9,208313.5,711955.9,313469.7,708354.6,176167.4,686109.4,187362.3,0.0
186257.5,208075.6,711941.6,313301.0,707969.0,175936.7,685841.9,187145.7,0.0
186030.5,207913.5,711935.4,313194.6,707426.3,175767.3,685679.3,186941.7,0.0
186170.5,208050.4,711944.3,313288.0,707459.7,175891.5,685701.3,187027.9,0.0
186478.3,208291.3,711954.9,313443.5,708003.3,176134.2,685950.9,187282.5,0.0
186528.6,208299.8,711952.9,313446.9,708290.4,176159.0,686083.3,187353.3,0.0
186252.7,208064.7,711938.4,313286.8,707912.3,175929.4,685821.8,187141.9,0.0
186028.7,207906.3,711931.8,313184.5,707373.9,175759.1,685669.8,186938.6,0.0
186166.0,208042.9,711938.7,313275.4,707403.4,175884.5,685694.8,187023.9,0.0
186475.1,208288.9,711951.9,313425.7,707949.3,176131.0,685946.4,187279.8,0.0
186533.0,208305.2,711949.5,313433.5,708238.9,176159.6,686084.7,187351.9,0.0
186261.3,208072.6,711938.5,313288.4,707867.6,175936.9,685831.1,187146.8,0.0
186032.6,207910.1,711934.5,313177.4,707330.8,175768.4,685681.4,186941.7,0.0
186160.5,208039.0,711938.4,313246.2,707341.4,175881.5,685703.6,187010.7,0.0
186471.9,208286.1,711948.5,313408.2,707884.9,176128.3,685949.1,187266.3,0.0
186531.0,208301.8,711948.5,313417.3,708181.6,176157.7,686089.1,187339.8,0.0
186260.8,208070.0,711938.1,313258.8,707813.6,175932.5,685830.1,187132.8,0.0
186039.1,207911.0,711934.8,313156.0,707283.4,175768.2,685676.9,186934.8,0.0
186172.1,208041.5,711940.0,313244.3,707301.3,175884.6,685699.3,187012.0,0.0
186476.2,208283.2,711949.8,313394.8,707834.8,176124.7,685938.8,187264.4,0.0
186542.8,208309.6,711954.5,313406.3,708149.6,176163.1,686098.0,187353.5,0.0
186277.1,208082.6,711947.9,313260.2,707802.2,175948.8,685856.1,187158.0,0.0
186049.3,207916.3,711941.4,313153.7,707266.4,175770.7,685692.4,186948.5,0.0
186171.8,208040.0,711944.9,313236.4,707266.8,175879.2,685710.8,187014.8,0.0
186485.3,208290.0,711957.8,313396.3,707808.0,176129.5,685957.8,187273.9,0.0
186532.0,208296.5,711950.1,313395.8,708081.4,176149.9,686079.1,187335.3,0.0
186266.5,208073.9,711940.0,313247.9,707717.7,175933.6,685834.7,187133.4,0.0
186035.5,207908.1,711930.9,313135.7,707163.4,175757.1,685673.1,186922.8,0.0
186168.2,208042.8,711937.1,313222.5,707179.2,175877.2,685692.8,187001.8,0.0
186469.5,208279.1,711944.5,313371.6,707699.4,176115.8,685924.9,187248.3,0.0
186536.4,208304.3,711945.9,313386.1,708000.8,176153.6,686072.5,187334.1,0.0
186264.5,208073.5,711932.6,313235.2,707630.7,175931.1,685816.6,187130.4,0.0
186041.2,207914.0,711928.6,313131.0,707097.6,175764.7,685667.9,186931.8,0.0
186173.5,208047.7,711936.8,313219.0,707115.9,175882.8,685698.6,187014.4,0.0
186481.2,208290.3,711949.9,313373.1,707649.4,176128.2,685940.5,187270.6,0.0
186544.2,208310.1,711949.1,313384.9,707949.9,176162.9,686084.8,187349.0,0.0
186276.9,208085.0,711936.6,313233.4,707594.1,175945.4,685834.1,187148.2,0.0
186045.0,207916.0,711932.0,313116.5,707057.1,175767.5,685672.4,186940.7,0.0
186163.3,208033.3,711936.6,313194.3,707063.6,175872.5,685684.4,187008.8,0.0
186464.6,208269.4,711947.6,313345.2,707595.8,176113.7,685926.2,187257.9,0.0
186534.8,208297.6,711947.7,313357.3,707906.3,176153.7,686078.1,187342.5,0.0
186266.3,208069.0,711935.8,313207.2,707553.6,175931.1,685828.0,187143.5,0.0
186027.6,207898.6,711929.6,313088.2,707016.8,175751.2,685665.6,186934.6,0.0
186150.3,208022.8,711937.5,313168.3,707030.3,175863.4,685686.4,187007.7,0.0
186456.7,208264.9,711949.1,313324.9,707566.5,176109.8,685931.6,187263.5,0.0
186517.5,208281.3,711947.8,313333.8,707872.1,176140.3,686080.4,187342.6,0.0
186237.0,208040.8,711931.9,313174.8,707499.4,175907.1,685818.9,187130.1,0.0
186014.9,207884.4,711927.1,313082.4,706965.3,175737.2,685666.3,186930.2,0.0
186135.7,208007.7,711932.4,313155.9,706975.3,175849.3,685687.3,187002.2,0.0
186445.8,208253.2,711946.4,313303.3,707517.8,176098.1,685936.9,187260.4,0.0
186513.5,208274.8,711948.1,313317.5,707825.6,176132.3,686087.2,187341.2,0.0
186240.0,208041.7,711936.1,313161.3,707469.1,175909.1,685839.9,187136.2,0.0
185994.6,207863.1,711924.2,313040.4,706903.6,175720.8,685659.8,186913.7,0.0
186123.9,207993.5,711927.9,313131.0,706904.3,175839.3,685674.8,186987.8,0.0
186439.1,208243.4,711939.3,313298.4,707438.4,176089.9,685917.3,187243.9,0.0
186513.5,208273.7,711941.7,313316.7,707751.1,176133.5,686072.2,187329.3,0.0
186241.5,208042.7,711929.5,313159.7,707395.6,175916.0,685824.9,187127.5,0.0
186011.6,207877.8,711922.5,313049.8,706854.8,175745.4,685667.5,186921.1,0.0
186142.2,208010.2,711931.4,313139.1,706864.0,175863.3,685693.2,187000.0,0.0
186448.1,208253.5,711944.1,313297.3,707392.0,176109.2,685929.8,187251.9,0.0
186520.0,208285.1,711944.6,313314.3,707712.3,176152.9,686087.8,187340.9,0.0
186241.1,208045.0,711930.4,313145.6,707356.4,175921.0,685830.6,187132.5,0.0
186015.5,207886.0,711926.7,313049.2,706829.5,175752.4,685672.1,186930.0,0.0
186139.0,208013.3,711931.7,313130.3,706835.3,175863.6,685684.1,187000.7,0.0
186448.4,208257.7,711942.4,313284.8,707368.3,176105.5,685924.4,187254.4,0.0
186512.6,208278.8,711943.3,313294.1,707683.4,176145.4,686076.6,187339.0,0.0
186236.9,208042.7,711927.7,313133.9,707329.4,175915.8,685820.3,187131.8,0.0
186005.4,207875.6,711922.3,313028.7,706797.1,175738.8,685660.1,186927.1,0.0
186134.5,208008.1,711931.6,313120.8,706807.3,175857.1,685689.8,187005.6,0.0
186457.8,208267.4,711948.4,313288.0,707356.1,176118.8,685940.1,187274.6,0.0
186540.3,208302.8,711953.0,313307.6,707691.3,176173.0,686109.7,187373.4,0.0
186239.1,208040.6,711929.4,313132.6,707303.6,175922.0,685835.9,187144.5,0.0
185993.7,207863.5,711918.6,313015.3,706751.4,175737.3,685672.9,186927.8,0.0
186115.1,207987.9,711927.5,313093.7,706752.4,175849.0,685681.4,187001.9,0.0
186423.7,208238.1,711940.4,313246.0,707285.9,176095.5,685922.7,187260.7,0.0
186522.2,208295.6,711953.7,313276.0,707655.8,176166.2,686123.6,187377.9,0.0
186270.8,208081.6,711953.2,313140.0,707350.1,175963.6,685895.3,187197.4,0.0
186030.1,207902.3,711944.6,313021.1,706808.1,175776.5,685698.9,186977.6,0.0
186144.1,208013.8,711946.0,313098.6,706789.2,175870.2,685716.3,187032.3,0.0
186437.4,208244.0,711950.5,313243.7,707288.7,176096.3,685926.2,187269.9,0.0
186485.1,208250.2,711938.7,313237.4,707555.1,176113.3,686038.9,187330.4,0.0
186211.1,208012.0,711917.9,313081.6,707161.7,175882.7,685771.6,187115.5,0.0
185997.9,207863.2,711919.6,312988.4,706631.8,175723.5,685644.1,186925.5,0.0
186141.9,208012.3,711938.9,313090.7,706669.3,175863.9,685707.3,187025.3,0.0
186446.7,208248.6,711950.1,313247.8,707193.9,176103.9,685946.6,187278.2,0.0
186497.2,208253.7,711946.6,313236.1,707487.8,176125.4,686085.3,187348.6,0.0
186216.1,208014.6,711927.9,313069.2,707117.4,175896.3,685822.0,187133.0,0.0
185983.8,207851.5,711919.4,312966.3,706565.6,175723.3,685657.6,186921.8,0.0
186109.7,207985.2,711927.9,313058.3,706567.4,175843.5,685678.1,186999.7,0.0
186429.3,208238.2,711941.2,313218.5,707102.1,176100.5,685921.5,187262.8,0.0
186510.2,208274.1,711943.6,313240.9,707429.5,176151.3,686088.1,187358.4,0.0
186246.1,208051.2,711931.2,313091.7,707092.2,175934.1,685841.5,187158.2,0.0
186003.9,207875.9,711925.1,312982.4,706555.6,175751.3,685670.3,186944.8,0.0
186109.0,207982.9,711929.1,313045.7,706542.9,175847.8,685691.8,187004.4,0.0
186418.6,208227.8,711939.7,313202.6,707075.4,176095.7,685924.8,187263.2,0.0
186496.1,208259.2,711940.4,313223.4,707406.1,176137.7,686085.6,187355.2,0.0
186231.0,208029.1,711929.1,313074.3,707068.9,175916.0,685839.3,187151.1,0.0
185993.2,207860.7,711924.3,312957.6,706539.3,175738.9,685674.9,186937.7,0.0
186114.5,207985.8,711931.8,313036.1,706541.0,175849.6,685698.3,187008.5,0.0
186425.3,208229.8,711943.9,313195.7,707074.5,176094.1,685937.9,187270.5,0.0
186506.8,208269.0,711948.6,313220.3,707413.0,176148.1,686111.3,187370.8,0.0
186235.3,208035.1,711937.6,313061.1,707075.6,175922.3,685859.4,187165.5,0.0
185990.6,207853.6,711927.3,312938.1,706521.6,175731.4,685667.9,186937.8,0.0
186106.7,207970.8,711935.2,313016.3,706509.8,175836.8,685706.5,187003.5,0.0
186421.0,208219.6,711945.2,313182.5,707033.8,176083.0,685935.6,187261.7,0.0
186492.8,208244.6,711940.6,313201.6,707343.4,176117.3,686080.9,187344.4,0.0
186223.8,208009.6,711922.8,313038.3,706983.8,175886.1,685821.8,187131.7,0.0
185985.9,207836.9,711915.3,312932.8,706433.1,175703.3,685655.3,186917.9,0.0
186094.2,207950.6,711921.3,313003.7,706411.6,175809.7,685673.7,186982.6,0.0
186405.4,208197.6,711929.8,313158.8,706925.7,176056.6,685899.6,187237.7,0.0
186491.0,208234.8,711931.8,313179.3,707258.6,176107.3,686069.7,187340.8,0.0
186224.5,208004.5,711918.6,313027.3,706914.3,175888.9,685822.8,187138.8,0.0
185989.2,207834.4,711914.2,312917.2,706369.4,175710.5,685658.7,186924.1,0.0
186108.8,207961.4,711923.6,312997.1,706356.9,175820.5,685695.6,186992.5,0.0
186425.9,208214.6,711936.4,313164.1,706886.3,176075.1,685933.6,187256.8,0.0
186505.3,208246.4,711936.4,313184.3,707217.2,176126.7,686097.6,187350.3,0.0
186249.0,208026.2,711926.9,313038.4,706901.3,175918.9,685864.9,187156.2,0.0
186003.1,207846.6,711921.7,312914.1,706361.9,175727.5,685690.6,186935.1,0.0
186111.8,207961.6,711928.4,312991.1,706344.1,175828.0,685710.6,186994.4,0.0
186417.0,208207.1,711940.6,313155.2,706860.2,176077.1,685935.1,187248.9,0.0
186501.7,208248.5,711937.9,313172.7,707183.4,176127.5,686092.8,187343.9,0.0
186242.4,208023.8,711924.2,313016.3,706853.7,175913.3,685846.1,187147.0,0.0
186008.8,207855.5,711923.1,312907.4,706331.2,175738.3,685674.6,186938.1,0.0
186123.3,207974.3,711932.0,312990.9,706322.9,175843.3,685702.0,187004.3,0.0
186439.4,208227.4,711946.1,313158.5,706853.7,176098.4,685949.7,187271.5,0.0
186508.4,208252.1,711943.3,313166.8,707168.8,176137.3,686102.8,187356.4,0.0
186238.6,208020.7,711925.3,313006.3,706816.4,175913.2,685841.3,187145.4,0.0
186001.8,207850.1,711919.1,312895.4,706268.3,175732.2,685663.3,186929.9,0.0
186108.6,207963.1,711925.9,312973.5,706239.9,175832.3,685682.2,186988.8,0.0
186413.4,208205.3,711934.2,313130.6,706739.5,176073.5,685901.7,187240.8,0.0
186502.8,208250.3,711936.4,313150.5,707077.3,176129.3,686079.1,187348.2,0.0
186243.1,208024.7,711926.6,312994.3,706759.3,175914.8,685843.4,187155.3,0.0
186006.6,207853.3,711922.9,312892.8,706222.6,175734.2,685669.4,186941.0,0.0
186115.5,207971.5,711929.4,312979.1,706196.3,175833.8,685698.8,187001.8,0.0
186414.9,208207.8,711937.9,313114.8,706703.3,176070.9,685918.8,187252.5,0.0
186492.3,208243.3,711935.6,313134.2,707026.1,176119.3,686079.4,187349.1,0.0
186237.3,208025.1,711924.0,312986.5,706707.6,175908.5,685845.4,187157.5,0.0
185997.2,207850.0,711918.5,312871.2,706167.4,175724.1,685671.8,186937.3,0.0
186103.6,207963.6,711926.1,312949.2,706143.4,175828.1,685693.5,186996.7,0.0
186414.4,208211.3,711937.6,313113.4,706655.9,176074.4,685922.1,187253.6,0.0
186495.6,208249.3,711937.3,313131.1,706984.3,176123.6,686088.4,187353.6,0.0
186235.0,208025.7,711924.4,312978.7,706657.9,175911.7,685849.6,187159.0,0.0
185989.6,207845.9,711918.4,312859.4,706111.9,175724.2,685672.0,186936.0,0.0
186096.7,207955.6,711925.3,312933.2,706078.3,175820.2,685688.4,186991.8,0.0
186411.1,208206.2,711936.3,313098.1,706592.9,176070.9,685921.3,187251.7,0.0
186505.9,208251.8,711939.5,313131.3,706935.1,176131.0,686099.6,187356.4,0.0
186248.5,208029.0,711928.9,312975.8,706615.4,175915.7,685855.3,187160.0,0.0
186006.0,207849.2,711923.9,312863.7,706069.8,175726.7,685660.2,186939.1,0.0
186108.2,207954.7,711930.6,312935.0,706033.8,175824.5,685676.6,186995.2,0.0
186422.5,208204.4,711943.0,313096.5,706545.5,176073.5,685913.4,187258.0,0.0
186511.8,208250.0,711942.9,313125.3,706874.5,176129.4,686085.3,187358.1,0.0
186249.1,208023.6,711926.4,312973.5,706532.9,175909.0,685832.8,187152.6,0.0
185996.6,207836.5,711917.4,312847.0,705970.1,175713.8,685643.8,186921.8,0.0
186098.9,207946.1,711922.9,312917.7,705917.6,175811.1,685660.7,186970.4,0.0
186414.3,208199.3,711936.0,313083.0,706424.9,176065.1,685889.1,187234.6,0.0
186507.3,208245.0,711939.2,313111.5,706764.3,176123.8,686069.9,187343.0,0.0
186258.8,208029.2,711928.9,312970.8,706452.9,175914.9,685847.1,187154.6,0.0
186011.0,207842.9,711920.6,312845.4,705899.9,175721.6,685668.8,186926.1,0.0
186112.1,207951.4,711926.2,312914.5,705858.8,175818.7,685682.6,186980.3,0.0
186420.0,208195.8,711935.3,313077.1,706360.3,176064.5,685906.8,187238.2,0.0
186510.8,208242.5,711936.4,313099.9,706701.9,176128.0,686087.6,187346.2,0.0
186252.5,208018.8,711925.2,312948.1,706386.9,175914.0,685851.5,187151.8,0.0
186001.3,207834.2,711919.4,312826.2,705839.1,175720.8,685660.0,186925.4,0.0
186098.8,207944.2,711926.1,312899.8,705795.8,175815.8,685676.8,186978.9,0.0
186404.4,208193.9,711936.7,313060.4,706295.6,176060.6,685898.9,187237.9,0.0
186496.1,208239.5,711935.4,313090.2,706628.4,176122.2,686069.7,187345.0,0.0
186248.1,208026.6,711925.7,312953.8,706325.7,175919.7,685842.7,187160.4,0.0
185993.9,207843.5,711919.2,312819.3,705781.5,175726.2,685656.4,186934.0,0.0
186096.0,207953.1,711925.7,312895.6,705740.8,175822.5,685674.3,186986.3,0.0
186406.5,208199.7,711935.4,313055.8,706245.3,176071.6,685898.3,187243.8,0.0
186490.8,208238.1,711937.6,313072.0,706588.6,176127.6,686077.7,187348.0,0.0
186243.1,208024.8,711927.6,312926.4,706288.4,175919.1,685852.5,187156.6,0.0
186000.3,207847.6,711921.7,312807.0,705748.8,175730.1,685664.6,186934.0,0.0
186104.0,207960.9,711930.6,312879.8,705714.2,175829.7,685675.2,186992.1,0.0
186419.8,208211.9,711943.0,313046.8,706218.0,176080.4,685908.0,187252.6,0.0
186507.1,208247.5,711939.1,313072.1,706544.5,176133.5,686075.6,187353.5,0.0
186248.9,208022.7,711926.4,312919.9,706229.6,175917.6,685843.9,187159.6,0.0
185999.0,207839.9,711920.7,312795.2,705685.3,175725.9,685669.2,186932.8,0.0
186097.5,207947.9,711927.5,312869.8,705641.6,175819.1,685694.0,186984.5,0.0
186409.4,208200.1,711938.3,313033.8,706145.2,176071.9,685917.8,187247.1,0.0
186501.4,208246.4,711940.4,313056.9,706488.9,176132.9,686094.9,187355.2,0.0
186242.3,208018.0,711925.8,312904.4,706173.9,175915.5,685858.1,187158.1,0.0
185992.5,207834.5,711916.8,312787.4,705621.6,175724.0,685667.9,186930.4,0.0
186084.6,207938.8,711920.9,312853.4,705563.3,175815.3,685665.8,186980.3,0.0
186398.9,208189.9,711934.9,313023.2,706062.6,176066.4,685897.6,187246.5,0.0
186499.8,208243.1,711936.6,313052.1,706411.6,176135.0,686088.0,187360.7,0.0
186241.2,208016.5,711923.8,312895.8,706107.1,175919.2,685853.9,187166.9,0.0
185996.1,207838.2,711918.0,312783.3,705571.0,175733.0,685663.1,186946.3,0.0
186086.6,207939.1,711920.9,312848.8,705510.4,175820.5,685662.5,186989.6,0.0
186388.4,208180.0,711929.3,313002.0,705994.4,176061.5,685876.4,187238.3,0.0
186487.4,208230.3,711932.9,313034.8,706342.8,176128.6,686062.8,187351.2,0.0
186225.7,208005.0,711919.1,312878.8,706039.1,175918.2,685834.6,187159.8,0.0
185979.0,207825.5,711913.4,312757.5,705502.2,175729.8,685658.5,186940.7,0.0
186080.3,207933.7,711922.4,312839.4,705453.4,175823.4,685666.8,186996.1,0.0
186401.8,208193.5,711937.6,313012.6,705959.7,176082.0,685904.9,187262.7,0.0
186514.7,208257.7,711942.4,313049.2,706316.1,176156.9,686102.8,187382.5,0.0
186260.8,208034.3,711929.8,312895.9,706007.9,175942.9,685862.5,187185.5,0.0
186008.4,207848.7,711922.7,312775.0,705462.1,175749.8,685663.3,186956.8,0.0
186078.2,207926.4,711920.8,312824.1,705375.8,175818.5,685669.4,186980.8,0.0
186394.7,208182.5,711932.8,312994.4,705875.1,176076.5,685894.4,187244.1,0.0
186506.4,208246.9,711940.0,313034.8,706236.5,176152.7,686092.4,187368.7,0.0
186251.0,208025.8,711928.9,312880.4,705943.5,175941.6,685864.4,187176.5,0.0
185987.9,207829.0,711916.7,312748.0,705385.4,175735.1,685650.2,186931.5,0.0
186073.3,207924.6,711920.6,312808.1,705306.8,175814.7,685677.0,186962.3,0.0
186401.0,208190.5,711933.1,312988.9,705806.1,176075.9,685904.4,187230.3,0.0
186525.7,208265.6,711940.2,313048.2,706178.4,176161.3,686105.5,187361.4,0.0
186262.8,208032.5,711925.3,312874.2,705874.6,175944.2,685868.6,187161.0,0.0
185945.9,207781.0,711897.8,312684.3,705259.1,175683.9,685614.4,186868.2,0.0
185988.1,207831.8,711889.9,312712.9,705152.6,175716.5,685619.1,186866.0,0.0
186310.7,208087.4,711902.0,312882.3,705644.4,175962.6,685840.3,187130.1,0.0
186459.1,208185.0,711914.7,312964.1,706020.8,176072.4,686051.3,187287.4,0.0
186307.7,208062.7,711927.9,312910.5,705816.8,175962.2,685895.9,187193.5,0.0
186105.6,207919.0,711932.3,312830.9,705316.4,175810.3,685690.8,187009.0,0.0
186189.4,208013.8,711939.8,312893.5,705251.5,175891.9,685691.8,187050.5,0.0
186497.4,208257.1,711956.2,313056.1,705742.0,176141.0,685941.2,187315.0,0.0
186589.8,208294.8,711959.9,313076.4,706075.4,176194.9,686134.4,187423.7,0.0
186326.0,208055.9,711945.6,312921.0,705765.6,175961.2,685895.4,187220.4,0.0
186033.8,207828.5,711921.3,312768.7,705152.4,175720.4,685659.1,186944.7,0.0
186100.6,207910.2,711912.3,312821.4,705013.6,175783.6,685661.3,186958.0,0.0
186405.0,208159.7,711914.8,312983.8,705455.6,176025.8,685847.3,187210.7,0.0
186526.3,208227.5,711921.9,313035.3,705793.4,176110.7,686046.7,187346.9,0.0
186292.7,208022.3,711913.1,312904.7,705494.7,175912.2,685830.6,187169.9,0.0
186035.4,207832.2,711907.2,312769.6,704921.4,175712.3,685643.8,186931.8,0.0
186122.4,207933.4,711913.0,312835.8,704834.1,175798.4,685638.1,186971.7,0.0
186437.3,208192.5,711926.0,313009.6,705328.8,176053.9,685868.1,187236.5,0.0
186548.4,208258.5,711928.2,313046.8,705678.5,176131.2,686072.6,187356.7,0.0
186296.1,208037.1,711917.7,312890.6,705385.9,175922.5,685850.0,187163.1,0.0
186015.7,207823.8,711906.1,312737.5,704830.9,175704.1,685636.8,186904.6,0.0
186074.9,207891.7,711902.8,312783.9,704725.8,175760.8,685630.6,186919.9,0.0
186378.1,208127.2,711910.9,312948.3,705204.4,176000.2,685838.6,187180.5,0.0
186452.5,208149.6,711899.0,312962.8,705517.3,176034.4,685988.8,187271.2,0.0
186187.0,207916.7,711884.3,312784.3,705215.9,175810.9,685763.6,187067.4,0.0
185940.7,207740.7,711884.3,312665.0,704690.9,175627.8,685605.0,186841.9,0.0
186085.8,207898.0,711907.1,312795.3,704686.1,175772.1,685661.1,186945.9,0.0
186484.7,208236.1,711944.4,313053.3,705261.9,176112.5,685963.6,187303.2,0.0
186588.6,208288.0,711946.1,313088.7,705613.3,176181.0,686150.9,187427.3,0.0
186305.7,208036.5,711926.2,312911.2,705291.4,175944.7,685882.9,187207.1,0.0
186031.9,207834.9,711916.1,312762.6,704722.2,175736.5,685659.4,186957.4,0.0
186117.0,207930.6,711925.3,312829.8,704657.9,175813.7,685677.2,187004.4,0.0
186432.5,208184.5,711944.3,313003.4,705165.3,176062.2,685929.1,187288.0,0.0
186541.7,208246.1,711948.9,313039.9,705528.8,176131.1,686140.4,187417.5,0.0
186277.6,208017.1,711931.4,312880.8,705207.7,175907.9,685898.0,187203.6,0.0
185988.0,207801.8,711912.4,312724.9,704593.0,175686.3,685651.9,186922.5,0.0
186060.2,207887.7,711910.7,312786.8,704467.4,175756.6,685643.6,186941.3,0.0
186377.7,208139.5,711916.8,312962.3,704918.6,176006.8,685853.6,187213.3,0.0
186496.2,208206.2,711920.2,313001.4,705258.4,176083.6,686058.1,187345.4,0.0
186255.2,208000.4,711910.9,312850.6,704971.0,175884.0,685840.8,187148.8,0.0
186002.5,207818.1,711906.8,312725.4,704421.0,175694.4,685647.9,186898.4,0.0
186086.4,207910.3,711913.9,312795.3,704345.6,175775.8,685656.6,186929.3,0.0
186412.9,208171.5,711927.9,312980.8,704841.1,176035.5,685888.9,187212.5,0.0
186532.8,208242.3,711931.6,313020.7,705210.4,176119.5,686097.9,187350.1,0.0
186281.8,208021.5,711918.6,312869.4,704926.3,175910.1,685864.3,187143.5,0.0
185986.6,207797.9,711902.1,312704.6,704345.6,175673.2,685626.8,186853.3,0.0
185984.5,207810.1,711884.6,312684.1,704190.3,175669.3,685596.7,186808.5,0.0
186222.9,207981.9,711870.3,312783.3,704600.9,175839.5,685731.7,187011.3,0.0
186299.0,208005.3,711857.1,312791.5,704925.1,175881.4,685883.3,187110.0,0.0
186200.4,207946.2,711891.0,312784.6,704811.9,175844.9,685795.0,187065.2,0.0
186139.3,207958.0,711945.4,312855.9,704489.4,175849.9,685668.8,187016.4,0.0
186265.7,208098.0,711967.8,312960.8,704470.3,175979.7,685679.7,187106.6,0.0
186524.6,208291.4,711964.5,313073.1,704909.6,176171.8,685920.2,187345.3,0.0
186616.8,208323.8,711965.6,313080.3,705272.9,176212.2,686139.7,187472.2,0.0
186376.4,208111.9,711965.3,312930.9,705031.0,176010.0,685948.2,187294.5,0.0
186086.8,207897.3,711958.3,312770.5,704482.6,175777.0,685694.7,187023.2,0.0
186105.8,207935.8,711936.4,312797.7,704302.9,175786.8,685687.9,186997.0,0.0
186379.5,208149.6,711921.3,312948.0,704666.6,175991.0,685837.8,187238.3,0.0
186501.5,208218.8,711922.6,312999.4,704996.1,176077.8,686043.6,187390.9,0.0
186265.4,208017.3,711914.8,312852.3,704683.8,175889.5,685845.9,187202.0,0.0
186012.8,207839.0,711913.2,312722.1,704112.4,175703.0,685660.2,186945.3,0.0
186092.0,207930.3,711919.0,312787.9,703998.4,175782.5,685662.9,186971.3,0.0
186408.5,208187.6,711928.9,312969.3,704463.0,176031.1,685883.6,187254.0,0.0
186529.3,208261.1,711932.3,313018.1,704874.2,176119.1,686095.5,187395.8,0.0
186281.1,208044.3,711923.3,312860.1,704587.2,175921.5,685876.4,187187.6,0.0
186015.3,207847.5,711916.9,312715.8,704022.1,175724.0,685664.2,186913.6,0.0
186097.8,207937.7,711922.6,312794.7,703942.4,175806.4,685675.8,186943.6,0.0
186423.5,208190.6,711935.1,312981.6,704435.6,176059.0,685907.8,187237.5,0.0
186536.8,208250.1,711936.1,313012.9,704823.5,176132.3,686118.5,187378.4,0.0
186289.3,208041.9,711925.6,312854.5,704553.1,175929.3,685894.9,187175.6,0.0
186020.2,207848.8,711919.2,312712.5,704019.3,175732.5,685672.3,186906.5,0.0
186098.6,207939.6,711928.2,312787.2,703954.6,175816.3,685668.8,186945.0,0.0
186416.6,208189.1,711940.8,312976.1,704468.8,176067.3,685904.3,187241.7,0.0
186506.2,208221.3,711932.9,312976.0,704833.1,176109.6,686087.2,187352.6,0.0
186205.8,207957.0,711907.6,312769.7,704521.5,175852.6,685836.5,187092.1,0.0
185878.3,207707.9,711884.3,312580.2,703921.2,175591.9,685591.9,186755.9,0.0
185979.8,207825.0,711897.8,312676.2,703874.3,175695.3,685634.5,186809.1,0.0
186433.9,208210.4,711944.9,312984.2,704528.6,176083.3,685994.8,187240.6,0.0
186620.9,208345.2,711966.7,313096.0,705003.1,176236.9,686277.0,187459.4,0.0
186331.8,208098.4,711946.2,312906.8,704711.0,176003.3,686007.8,187220.5,0.0
186026.8,207870.0,711926.3,312728.5,704125.3,175762.1,685699.9,186909.2,0.0
186112.6,207968.4,711940.2,312793.7,704067.4,175838.6,685719.4,186951.0,0.0
186456.7,208240.2,711968.6,312990.7,704624.8,176112.2,686019.6,187278.2,0.0
186584.5,208310.3,711976.1,313042.8,705026.2,176194.2,686258.1,187431.5,0.0
186297.2,208057.1,711949.3,312853.6,704687.8,175943.4,685983.4,187173.8,0.0
185973.0,207812.0,711913.6,312673.9,704002.8,175687.7,685664.8,186827.2,0.0
186057.8,207912.3,711914.3,312747.7,703869.9,175769.7,685654.6,186855.8,0.0
186390.4,208173.8,711926.1,312942.8,704337.8,176030.3,685882.8,187165.4,0.0
186523.3,208247.5,711927.6,312998.5,704692.7,176119.1,686095.6,187324.0,0.0
186276.6,208038.5,711918.6,312833.6,704412.3,175928.6,685880.8,187128.7,0.0
186006.5,207848.3,711917.1,312696.5,703854.1,175736.1,685664.0,186860.7,0.0
186089.5,207945.7,711925.1,312766.7,703768.3,175816.5,685676.4,186893.4,0.0
186431.1,208215.7,711941.2,312968.1,704284.0,176083.8,685927.9,187205.8,0.0
186528.7,208256.5,711933.4,312984.2,704646.4,176137.1,686117.8,187328.5,0.0
186222.5,207984.6,711906.1,312777.2,704330.3,175883.5,685843.9,187070.1,0.0
185890.2,207727.2,711882.5,312574.6,703724.8,175626.6,685571.9,186734.9,0.0
185929.9,207776.8,711879.3,312593.1,703603.8,175663.6,685584.3,186728.1,0.0
186382.2,208158.8,711926.4,312904.0,704237.7,176039.6,685938.1,187156.4,0.0
186555.8,208273.6,711943.0,313003.3,704681.6,176170.3,686197.4,187359.0,0.0
186317.4,208073.1,711937.6,312855.5,704436.4,175980.9,685979.8,187167.8,0.0
186062.9,207897.7,711937.8,312729.9,703908.4,175798.8,685712.7,186914.5,0.0
186132.3,207979.2,711944.6,312793.1,703815.9,175872.1,685720.6,186945.4,0.0
186441.6,208215.5,711953.3,312964.5,704294.9,176110.1,685954.0,187234.3,0.0
186569.4,208285.1,711952.4,313017.6,704680.9,176192.5,686180.0,187391.5,0.0
186309.8,208064.3,711938.4,312841.3,704403.8,175979.7,685948.2,187178.6,0.0
186021.8,207857.0,711930.9,312680.3,703832.6,175755.2,685697.8,186889.6,0.0
186097.4,207946.0,711940.6,312749.7,703740.9,175825.4,685699.4,186923.0,0.0
186432.7,208209.7,711956.8,312950.9,704248.9,176089.6,685957.4,187238.1,0.0
186542.2,208264.4,711952.9,312988.7,704616.2,176156.7,686167.8,187378.6,0.0
186276.9,208033.4,711932.0,312817.0,704313.7,175937.5,685919.6,187151.5,0.0
185989.6,207826.6,711917.1,312648.2,703716.9,175720.6,685662.7,186850.4,0.0
186062.9,207919.3,711923.1,312716.2,703603.1,175797.5,685670.0,186877.8,0.0
186397.5,208179.1,711936.3,312911.8,704088.4,176056.8,685902.5,187185.0,0.0
186532.6,208252.4,711939.4,312966.1,704475.0,176141.2,686134.4,187346.5,0.0
186289.5,208043.3,711930.4,312811.7,704210.2,175942.2,685921.8,187143.6,0.0
185993.3,207829.5,711921.7,312649.9,703628.4,175723.5,685667.8,186847.9,0.0
186029.8,207884.1,711917.3,312682.0,703476.2,175758.9,685660.1,186838.3,0.0
186367.0,208148.5,711930.8,312880.5,703967.7,176018.0,685898.9,187152.0,0.0
186517.8,208239.4,711937.8,312953.1,704371.8,176121.8,686141.6,187332.8,0.0
186266.7,208026.3,711926.9,312793.3,704105.8,175922.3,685921.0,187124.3,0.0
185976.3,207819.0,711917.1,312637.8,703529.1,175713.3,685667.1,186829.2,0.0
186022.5,207881.0,711918.8,312675.9,703396.6,175768.7,685671.6,186836.8,0.0
186412.6,208193.8,711943.7,312924.6,703933.1,176079.5,685953.9,187199.8,0.0
186613.3,208328.5,711964.6,313038.6,704390.8,176229.1,686248.1,187430.7,0.0
186342.7,208087.2,711948.1,312847.6,704106.9,175996.8,685997.1,187201.4,0.0
186046.8,207868.8,711939.2,312683.9,703543.4,175772.5,685716.4,186901.7,0.0
186114.6,207949.8,711949.6,312744.9,703460.8,175837.6,685727.8,186927.6,0.0
186440.6,208203.1,711965.5,312937.8,703968.9,176095.4,685980.5,187245.7,0.0
186553.0,208255.1,711960.4,312973.3,704319.1,176161.3,686190.9,187392.7,0.0
186273.5,208011.0,711928.7,312784.4,703974.6,175925.6,685910.9,187145.2,0.0
185989.0,207808.1,711913.2,312635.9,703364.6,175714.3,685655.4,186850.4,0.0
186060.0,207896.4,711917.4,312710.3,703228.8,175787.2,685671.2,186877.8,0.0
186392.6,208157.5,711929.6,312901.2,703708.6,176048.1,685901.5,187197.2,0.0
186529.3,208233.5,711932.1,312952.5,704091.1,176138.7,686133.6,187368.1,0.0
186292.8,208036.3,711922.9,312800.3,703834.6,175950.8,685928.5,187167.7,0.0
186017.0,207844.5,711917.3,312656.9,703268.3,175749.4,685688.8,186878.0,0.0
186077.0,207924.1,711921.5,312711.1,703150.1,175810.8,685680.8,186888.2,0.0
186411.4,208184.5,711936.9,312916.7,703648.3,176069.8,685921.7,187203.0,0.0
186523.3,208233.4,711934.0,312934.8,704019.1,176131.0,686131.6,187347.5,0.0
186254.1,207999.4,711914.7,312749.0,703734.3,175905.6,685893.5,187118.2,0.0
185971.1,207800.2,711908.3,312602.0,703164.8,175701.1,685657.5,186826.5,0.0
186071.0,207918.6,711926.5,312702.7,703088.1,175806.5,685679.9,186883.4,0.0
186428.4,208200.0,711945.4,312930.7,703603.7,176086.0,685939.4,187220.1,0.0
186542.0,208249.2,711937.8,312958.7,703978.3,176148.1,686145.2,187365.0,0.0
186275.3,208021.3,711920.5,312775.2,703698.8,175928.4,685909.6,187143.1,0.0
185986.2,207819.0,711912.8,312621.5,703127.4,175717.9,685655.4,186850.2,0.0
186086.5,207937.9,711932.1,312712.5,703064.1,175821.9,685675.4,186910.4,0.0
186417.0,208191.0,711944.8,312908.2,703554.1,176074.4,685917.5,187228.8,0.0
186542.8,208254.6,711943.5,312956.3,703944.0,176152.2,686144.6,187393.7,0.0
186322.6,208074.3,711940.3,312815.2,703718.9,175983.6,685956.1,187212.8,0.0
186047.1,207881.3,711934.0,312663.2,703154.4,175782.3,685707.4,186919.6,0.0
186091.9,207941.5,711936.9,312717.4,703012.3,175830.0,685693.3,186926.4,0.0
186418.1,208193.5,711945.9,312906.2,703478.8,176074.6,685922.3,187237.8,0.0
186556.0,208256.9,711947.7,312952.6,703882.2,176155.5,686159.3,187413.8,0.0
186312.2,208043.4,711935.4,312796.0,703628.5,175958.2,685941.9,187212.3,0.0
186034.4,207853.9,711933.9,312663.3,703068.2,175761.5,685700.7,186924.4,0.0
186084.8,207926.5,711938.9,312703.7,702944.8,175815.0,685694.1,186933.5,0.0
186408.7,208176.7,711945.2,312891.0,703382.0,176058.8,685915.4,187240.0,0.0
186550.3,208253.3,711943.8,312951.3,703768.9,176145.9,686142.5,187410.7,0.0
186302.3,208042.9,711929.4,312785.8,703501.6,175946.3,685923.4,187197.8,0.0
186008.1,207836.8,711921.3,312618.6,702911.8,175735.3,685683.8,186886.3,0.0
186047.5,207893.9,711921.0,312662.6,702772.7,175780.2,685671.7,186876.2,0.0
186361.6,208130.7,711925.3,312842.5,703228.2,176016.3,685881.2,187175.2,0.0
186495.7,208202.6,711924.6,312905.2,703616.7,176110.2,686104.0,187349.6,0.0
186289.6,208035.5,711926.3,312780.0,703419.2,175952.8,685932.5,187180.7,0.0
186005.1,207833.8,711922.5,312614.9,702856.4,175736.0,685681.2,186881.3,0.0
186046.4,207892.3,711922.8,312658.8,702715.0,175777.3,685674.3,186877.7,0.0
186391.1,208158.6,711938.5,312877.2,703213.6,176042.4,685922.1,187211.9,0.0
186565.4,208267.9,711950.4,312971.5,703647.8,176172.8,686201.6,187434.4,0.0
186351.6,208096.7,711948.1,312839.4,703434.1,176010.7,686016.6,187270.6,0.0
186040.2,207879.5,711933.7,312657.4,702867.1,175782.2,685699.9,186955.0,0.0
186086.9,207945.8,711933.6,312701.9,702765.3,175832.3,685685.5,186967.1,0.0
186422.8,208202.7,711947.4,312902.3,703257.7,176081.3,685931.4,187303.4,0.0
186571.8,208277.5,711950.7,312966.4,703639.6,176164.9,686198.9,187501.3,0.0
186326.8,208069.8,711940.6,312808.7,703387.6,175964.4,686004.2,187306.1,0.0
186027.9,207862.7,711934.5,312645.3,702780.2,175749.0,685704.1,187003.5,0.0
186085.5,207940.3,711943.1,312683.8,702672.4,175808.3,685719.0,187023.0,0.0
186420.4,208194.3,711956.8,312890.8,703138.4,176058.3,685974.7,187348.7,0.0
186562.7,208271.7,711955.5,312959.0,703535.9,176144.5,686210.3,187521.4,0.0
186301.6,208051.2,711933.5,312781.8,703250.6,175931.8,685965.3,187286.0,0.0
185995.2,207837.8,711921.5,312612.7,702643.1,175715.9,685681.9,186960.5,0.0
186061.1,207925.4,711930.2,312686.3,702529.3,175789.9,685694.3,186971.2,0.0
186408.2,208191.7,711941.6,312900.1,703001.8,176051.8,685935.4,187293.2,0.0
186542.7,208260.9,711941.0,312943.7,703396.9,176137.5,686173.0,187459.0,0.0
186290.9,208046.4,711929.0,312773.7,703152.0,175938.5,685961.4,187237.7,0.0
185984.8,207827.0,711917.9,312597.6,702560.5,175713.7,685685.3,186904.2,0.0
186034.5,207896.4,711921.9,312655.0,702421.8,175768.5,685670.3,186905.0,0.0
186377.3,208160.7,711935.6,312864.0,702906.9,176031.3,685911.5,187236.2,0.0
186556.9,208271.2,711945.2,312959.3,703341.2,176155.3,686188.4,187451.0,0.0
186349.8,208096.6,711942.5,312832.9,703131.4,175992.1,686010.6,187271.6,0.0
186049.8,207881.8,711933.1,312660.6,702556.4,175771.6,685718.9,186947.2,0.0
186098.7,207946.4,711936.2,312709.0,702407.8,175820.2,685699.3,186944.2,0.0
186447.7,208212.9,711947.8,312928.3,702886.9,176078.7,685940.9,187279.5,0.0
186599.6,208293.5,711950.6,312987.2,703293.0,176172.2,686190.2,187471.7,0.0
186350.6,208080.4,711939.8,312816.1,703045.4,175969.8,685984.3,187263.2,0.0
186044.8,207859.5,711927.5,312645.6,702459.4,175742.6,685697.4,186939.9,0.0
186099.4,207930.5,711931.2,312715.5,702315.4,175795.6,685689.6,186947.2,0.0
186439.1,208194.8,711943.9,312920.8,702790.4,176054.1,685933.9,187284.2,0.0
186586.5,208276.3,711945.2,312968.5,703188.3,176145.9,686183.2,187473.5,0.0
186346.8,208074.1,711933.5,312809.1,702950.5,175953.7,685977.8,187268.4,0.0
186049.8,207866.6,711923.3,312649.4,702385.9,175741.8,685688.8,186950.6,0.0
186098.1,207933.2,711927.5,312701.5,702258.1,175801.9,685679.6,186953.9,0.0
186453.4,208202.1,711948.9,312921.6,702758.4,176072.2,685942.7,187303.1,0.0
186602.3,208281.8,711953.5,312989.1,703177.3,176165.3,686195.6,187495.3,0.0
186350.0,208071.8,711941.4,312815.7,702924.5,175970.5,685987.1,187278.8,0.0
186045.6,207860.7,711931.9,312638.7,702349.0,175753.5,685707.6,186946.7,0.0
186081.0,207920.7,711929.3,312680.1,702184.4,175794.3,685685.8,186918.9,0.0
186416.3,208175.9,711935.2,312890.7,702630.2,176044.1,685896.7,187234.8,0.0
186581.3,208272.1,711941.3,312974.4,703058.9,176154.4,686153.4,187437.7,0.0
186345.6,208073.4,711931.4,312815.5,702836.9,175973.9,685958.8,187235.8,0.0
186036.2,207853.6,711921.8,312633.4,702260.6,175754.9,685687.0,186901.9,0.0
186081.7,207919.8,711924.8,312688.2,702122.7,175809.0,685690.7,186892.6,0.0
186426.4,208183.9,711936.0,312899.5,702600.8,176064.1,685919.3,187219.9,0.0
186584.5,208272.7,711941.0,312974.9,703023.8,176165.1,686173.8,187420.5,0.0
186343.4,208072.1,711930.9,312815.1,702804.6,175980.8,685975.4,187214.0,0.0
186032.6,207856.1,711920.4,312645.7,702232.6,175761.3,685693.4,186878.0,0.0
186080.4,207926.7,711928.9,312689.6,702101.1,175817.8,685685.7,186877.9,0.0
186417.5,208180.0,711941.2,312892.2,702582.9,176066.1,685912.9,187205.3,0.0
186575.6,208267.6,711942.3,312968.8,702996.6,176164.0,686156.9,187398.3,0.0
186326.0,208059.6,711929.6,312792.9,702766.9,175969.4,685949.8,187183.3,0.0
186012.5,207842.4,711919.6,312614.4,702195.6,175746.5,685673.6,186847.9,0.0
186063.4,207913.1,711926.8,312671.8,702055.8,175801.8,685682.5,186846.6,0.0
186423.0,208187.1,711944.7,312892.5,702550.3,176071.9,685926.9,187193.5,0.0
186598.1,208288.0,711953.8,312981.8,702982.1,176187.6,686193.1,187407.8,0.0
186364.3,208089.8,711939.6,312819.8,702747.6,175999.0,685989.6,187202.2,0.0
186061.1,207876.2,711929.4,312645.2,702169.7,175781.2,685710.9,186878.3,0.0
186108.2,207939.7,711935.6,312705.2,702018.2,175833.8,685700.1,186884.2,0.0
186454.6,208201.8,711946.8,312917.9,702483.6,176082.9,685929.6,187220.3,0.0
186617.9,208293.5,711949.4,312991.4,702897.7,176177.2,686186.2,187425.0,0.0
186384.1,208095.0,711940.1,312831.3,702673.7,175993.5,685991.4,187228.6,0.0
186071.0,207876.5,711929.2,312647.2,702089.2,175770.2,685699.7,186898.3,0.0
186111.2,207941.7,711932.4,312700.8,701927.1,175819.0,685689.3,186898.2,0.0
186458.9,208207.4,711946.8,312927.9,702398.9,176074.4,685925.2,187240.5,0.0
186608.5,208290.0,711947.1,312982.5,702797.8,176167.2,686168.3,187435.4,0.0
186373.8,208092.9,711937.3,312818.3,702567.6,175985.7,685975.1,187241.0,0.0
186069.9,207880.8,711928.4,312641.7,701998.3,175775.5,685710.3,186917.3,0.0
186105.5,207940.6,711933.8,312689.2,701843.8,175822.6,685697.9,186910.5,0.0
186439.8,208196.9,711944.3,312899.5,702304.0,176071.0,685918.4,187240.9,0.0
186595.3,208281.9,711945.0,312966.9,702708.3,176166.7,686161.8,187432.7,0.0
186366.0,208086.6,711937.2,312811.9,702499.6,175986.8,685978.8,187236.3,0.0
186060.5,207870.2,711927.1,312646.8,701925.8,175769.3,685693.9,186907.0,0.0
186096.4,207929.3,711930.8,312688.5,701764.7,175815.4,685681.6,186898.6,0.0
186434.5,208184.9,711944.4,312885.2,702234.0,176065.2,685913.8,187231.3,0.0
186592.5,208268.7,711945.5,312953.4,702646.4,176161.2,686167.8,187429.3,0.0
186354.9,208068.7,711934.6,312798.3,702423.4,175971.7,685974.9,187233.3,0.0
186047.5,207853.2,711926.7,312620.8,701851.3,175750.2,685694.4,186911.9,0.0
186091.6,207920.9,711933.5,312675.5,701699.8,175804.6,685695.9,186913.3,0.0
186431.5,208181.5,711946.0,312888.0,702163.4,176060.3,685930.8,187250.3,0.0
186593.1,208272.7,711948.8,312964.1,702572.5,176161.3,686187.4,187454.6,0.0
186351.1,208070.9,711938.4,312797.8,702348.3,175973.4,685998.3,187254.5,0.0
186040.1,207855.0,711929.8,312618.1,701769.2,175753.4,685708.6,186925.7,0.0
186088.4,207927.5,711936.9,312675.5,701620.6,175810.6,685701.8,186925.8,0.0
186425.5,208185.9,711951.0,312883.8,702077.6,176064.3,685932.4,187253.1,0.0
186595.0,208286.5,711956.5,312963.7,702503.4,176178.3,686205.4,187463.5,0.0
186359.8,208085.7,711945.0,312808.3,702286.8,175994.3,686017.3,187265.9,0.0
186050.5,207866.1,711934.8,312635.8,701708.8,175771.6,685717.1,186931.3,0.0
186077.3,207922.3,711937.3,312670.2,701564.3,175811.1,685693.4,186911.0,0.0
186401.0,208182.1,711948.1,312872.6,702093.6,176057.3,685907.7,187227.6,0.0
186565.4,208279.5,711953.3,312945.5,702588.9,176167.7,686163.6,187427.9,0.0
186330.0,208072.2,711939.6,312784.2,702338.6,175981.5,685961.3,187217.8,0.0
186023.3,207851.4,711928.6,312612.1,701757.6,175755.2,685688.2,186882.1,0.0
186062.1,207912.0,711933.7,312658.3,701601.6,175799.1,685689.7,186875.7,0.0
186407.2,208173.3,711949.7,312877.6,702063.7,176058.3,685921.2,187213.6,0.0
186578.6,208272.9,711957.2,312959.4,702495.4,176171.7,686187.9,187432.9,0.0
186346.6,208077.1,711945.9,312800.0,702272.4,175983.0,685999.6,187244.1,0.0
186039.6,207859.3,711935.2,312623.0,701700.3,175758.5,685717.6,186915.4,0.0
186070.1,207910.0,711936.4,312657.8,701529.3,175797.0,685686.1,186901.5,0.0
186389.3,208151.8,711941.3,312852.1,701967.0,176031.3,685884.3,187214.6,0.0
186566.8,208256.7,711944.3,312944.6,702389.1,176146.8,686150.1,187431.7,0.0
186337.1,208060.2,711935.8,312782.6,702184.6,175967.0,685966.2,187237.1,0.0
186027.1,207842.0,711928.6,312605.5,701618.7,175747.4,685696.0,186906.3,0.0
186068.5,207905.2,711936.9,312657.7,701465.6,175801.5,685688.1,186904.0,0.0
186402.3,208159.5,711947.4,312863.0,701930.4,176053.6,685906.3,187228.2,0.0
186567.8,208255.7,711949.7,312935.2,702352.3,176160.0,686163.6,187429.6,0.0
186339.2,208062.3,711937.9,312780.6,702143.8,175977.5,685975.8,187231.3,0.0
186028.5,207843.9,711930.0,312602.4,701573.6,175756.7,685698.7,186899.4,0.0
186063.8,207904.1,711935.2,312647.3,701409.7,175803.7,685688.7,186882.9,0.0
186396.2,208154.3,711944.8,312853.3,701862.9,176050.2,685901.1,187201.1,0.0
186558.1,208244.2,711947.5,312929.9,702282.4,176152.0,686157.6,187402.0,0.0
186318.0,208043.7,711937.2,312757.9,702068.7,175967.8,685967.6,187202.9,0.0
186020.1,207839.8,711929.3,312595.9,701505.9,175761.7,685700.5,186882.9,0.0
186059.1,207904.2,711933.9,312649.3,701350.8,175809.8,685668.3,186873.5,0.0
186387.8,208157.2,711943.9,312851.6,701805.1,176056.5,685881.8,187190.3,0.0
186545.2,208244.0,711946.2,312922.2,702225.1,176147.9,686134.6,187387.9,0.0
186316.5,208050.2,711936.0,312763.0,702019.6,175964.9,685949.3,187193.5,0.0
186019.5,207841.5,711929.8,312606.3,701460.6,175754.8,685688.9,186876.4,0.0
186058.6,207904.8,711932.8,312656.8,701295.4,175800.9,685681.8,186863.4,0.0
186394.5,208163.3,711945.4,312849.6,701752.6,176050.5,685900.1,187189.6,0.0
186568.2,208264.3,711948.8,312938.7,702178.8,176163.0,686162.1,187406.3,0.0
186333.8,208067.6,711937.9,312777.6,701966.9,175981.9,685973.9,187213.8,0.0
186018.0,207847.4,711929.8,312593.3,701394.9,175758.1,685691.2,186887.6,0.0
186053.2,207908.0,711936.8,312643.3,701232.2,175802.3,685680.8,186883.2,0.0
186389.7,208166.1,711947.9,312854.5,701684.1,176053.5,685898.1,187211.6,0.0
186562.2,208267.2,711950.8,312938.7,702103.8,176164.3,686155.6,187421.4,0.0
186330.8,208069.2,711939.1,312783.6,701893.4,175983.0,685969.8,187229.6,0.0
186009.1,207838.2,711924.8,312596.7,701304.4,175753.5,685688.8,186889.1,0.0
186042.8,207896.8,711930.4,312639.4,701138.7,175802.4,685671.0,186876.1,0.0
186392.6,208165.7,711945.4,312867.0,701604.1,176070.2,685895.3,187211.9,0.0
186562.6,208258.0,711949.1,312948.8,702022.9,176176.4,686149.9,187418.0,0.0
186337.0,208064.7,711937.0,312796.0,701819.9,175994.8,685962.6,187219.9,0.0
186025.2,207844.8,711927.5,312606.9,701256.8,175773.6,685694.7,186884.5,0.0
186054.7,207898.8,711933.7,312644.2,701101.2,175813.3,685676.6,186863.0,0.0
186389.2,208153.8,711947.4,312853.5,701559.4,176058.8,685889.1,187177.5,0.0
186555.5,208248.3,711949.1,312926.9,701986.0,176161.6,686146.1,187377.5,0.0
186327.2,208055.0,711937.5,312770.6,701789.8,175981.9,685963.2,187180.8,0.0
186020.7,207841.3,711930.6,312594.6,701228.7,175763.8,685696.8,186850.6,0.0
186049.7,207895.2,711935.3,312642.3,701060.6,175800.4,685683.9,186829.1,0.0
186384.3,208150.5,711947.5,312856.8,701515.1,176050.0,685894.6,187153.0,0.0
186551.2,208243.3,711949.9,312919.3,701935.8,176153.8,686146.8,187354.7,0.0
186327.4,208053.6,711940.1,312759.2,701738.3,175976.9,685969.0,187162.7,0.0
186022.7,207839.4,711934.3,312588.2,701174.8,175758.7,685704.1,186832.5,0.0
186048.0,207891.4,711937.2,312635.9,700997.5,175794.6,685686.8,186807.5,0.0
186390.8,208154.7,711948.3,312846.1,701453.3,176051.8,685903.4,187136.2,0.0
186567.9,208257.7,711953.3,312928.2,701883.9,176169.0,686166.7,187349.7,0.0
186343.9,208065.0,711942.3,312779.3,701681.8,175987.9,685981.1,187160.0,0.0
186025.9,207842.0,711932.1,312587.3,701108.6,175762.0,685690.6,186823.8,0.0
186056.9,207900.0,711937.0,312630.8,700938.3,175803.8,685680.5,186804.6,0.0
186395.1,208162.8,711948.9,312847.1,701396.3,176060.7,685896.7,187134.1,0.0
186568.1,208263.4,711953.0,312931.0,701829.5,176175.0,686156.4,187349.2,0.0
186332.7,208060.9,711939.1,312766.1,701625.3,175985.7,685962.8,187149.6,0.0
186027.0,207848.1,711931.1,312591.6,701067.5,175768.8,685696.1,186823.3,0.0
186058.3,207905.5,711936.0,312637.8,700902.8,175811.0,685682.2,186804.1,0.0
186391.8,208160.1,711948.1,312846.0,701355.9,176060.9,685887.9,187125.1,0.0
186568.9,208262.2,711954.7,312930.0,701799.1,176175.3,686155.8,187343.6,0.0
186345.0,208070.3,711942.9,312770.0,701611.8,175995.0,685978.9,187155.4,0.0
186029.2,207847.9,711930.9,312593.5,701041.4,175767.8,685704.6,186815.4,0.0
186059.6,207907.3,711937.2,312641.1,700877.4,175814.5,685693.8,186794.8,0.0
186391.8,208162.6,711950.3,312839.1,701337.8,176066.1,685906.3,187118.5,0.0
186567.7,208264.7,711953.2,312923.6,701780.1,176180.4,686168.2,187335.2,0.0
186341.2,208073.9,711941.6,312767.2,701595.0,176000.6,685987.7,187145.4,0.0
186031.7,207855.7,711931.6,312589.7,701034.9,175778.1,685706.1,186812.7,0.0
186052.0,207902.6,711935.4,312630.2,700863.5,175812.0,685678.5,186785.7,0.0
186379.8,208148.9,711945.2,312823.5,701312.1,176055.5,685879.9,187101.8,0.0
186560.3,208255.7,711948.4,312912.0,701754.6,176168.0,686144.9,187322.6,0.0
186341.4,208071.0,711938.6,312761.6,701575.3,175994.3,685971.8,187137.2,0.0
186029.9,207847.9,711927.5,312589.0,701011.0,175767.0,685692.0,186799.4,0.0
186050.9,207895.6,711933.9,312623.4,700837.9,175802.7,685687.1,186777.3,0.0
186385.4,208153.7,711946.1,312815.9,701287.9,176050.2,685901.1,187100.9,0.0
186562.5,208255.5,711949.1,312905.9,701714.8,176160.3,686159.3,187317.3,0.0
186340.2,208064.4,711940.0,312756.2,701519.8,175981.7,685981.3,187130.8,0.0
186027.4,207842.1,711930.6,312575.2,700952.6,175756.6,685706.1,186800.1,0.0
186048.0,207889.7,711933.9,312610.5,700768.9,175790.0,685704.4,186773.2,0.0
186381.6,208150.6,711946.8,312820.4,701213.9,176043.2,685911.9,187096.5,0.0
186570.7,208264.3,711952.2,312912.6,701656.2,176171.4,686178.6,187322.3,0.0
186359.1,208081.6,711943.6,312764.3,701478.3,176003.7,686009.3,187145.4,0.0
186042.9,207857.9,711932.1,312590.3,700910.9,175777.9,685714.9,186814.5,0.0
186061.3,207905.5,711936.4,312620.3,700728.0,175811.1,685691.6,186785.0,0.0
186393.4,208157.7,711948.6,312824.9,701166.2,176060.5,685895.1,187104.1,0.0
186570.8,208262.3,711951.3,312908.4,701602.0,176178.3,686160.1,187322.7,0.0
186351.6,208076.3,711939.5,312754.0,701417.6,176002.4,685983.4,187140.8,0.0
186038.9,207854.3,711929.6,312574.2,700853.3,175773.1,685697.3,186806.0,0.0
186056.0,207898.1,711933.3,312607.6,700672.6,175803.0,685678.5,186772.7,0.0
186396.0,208160.1,711948.6,312827.3,701129.0,176057.7,685893.5,187100.1,0.0
186583.0,208270.5,711952.6,312934.5,701577.8,176178.5,686166.3,187326.7,0.0
186351.7,208071.6,711938.5,312760.7,701390.0,175995.0,685982.6,187137.8,0.0
186035.5,207849.4,711931.1,312569.9,700834.6,175772.1,685700.9,186808.1,0.0
186055.6,207897.9,711935.4,312613.4,700656.4,175805.4,685681.9,186778.7,0.0
186384.0,208152.2,711945.8,312821.9,701100.1,176050.5,685881.8,187095.6,0.0
186557.0,208252.1,711948.1,312897.5,701535.6,176162.0,686140.6,187310.7,0.0
186341.3,208069.2,711938.6,312750.9,701362.8,175993.1,685972.8,187136.2,0.0
186029.6,207851.0,711930.4,312575.8,700804.2,175773.8,685697.4,186809.0,0.0
186050.0,207900.3,711934.8,312609.2,700621.6,175807.9,685680.0,186776.9,0.0
186387.8,208161.8,711947.2,312822.2,701073.6,176062.5,685890.1,187100.1,0.0
186566.7,208263.6,711949.1,312905.8,701509.9,176175.8,686150.7,187315.8,0.0
186350.2,208077.2,711941.3,312745.4,701334.6,176005.8,685983.2,187137.1,0.0
186033.8,207855.5,711932.4,312563.2,700768.7,175781.3,685696.4,186803.9,0.0
186046.7,207901.1,711934.8,312598.7,700576.4,175808.0,685694.3,186770.3,0.0
186383.7,208162.8,711946.4,312816.6,701020.8,176064.1,685898.7,187096.1,0.0
186574.9,208278.9,711953.9,312911.6,701474.8,176192.5,686172.3,187327.7,0.0
186358.0,208088.4,711945.3,312754.8,701300.8,176012.2,686005.6,187148.1,0.0
186033.7,207854.1,711935.9,312561.3,700730.1,175775.0,685714.1,186807.8,0.0
186037.4,207889.5,711936.0,312590.9,700522.3,175796.1,685688.0,186765.5,0.0
186373.4,208149.1,711946.4,312795.3,700955.8,176046.2,685886.9,187084.8,0.0
186565.8,208266.3,711951.0,312889.7,701404.4,176174.3,686161.7,187314.1,0.0
186356.3,208083.2,711941.8,312744.9,701232.8,176006.0,685998.7,187139.6,0.0
186041.0,207857.6,711932.3,312562.3,700667.4,175781.5,685713.8,186805.9,0.0
186056.3,207902.5,711935.6,312597.6,700477.0,175817.2,685689.9,186775.3,0.0
186391.1,208162.3,711949.4,312815.7,700919.6,176071.3,685898.6,187099.4,0.0
186569.2,208265.2,711953.5,312893.5,701363.9,176190.0,686169.4,187320.0,0.0
186358.8,208083.2,711942.5,312741.5,701193.7,176019.3,686004.1,187144.4,0.0
186044.9,207857.2,711930.6,312570.8,700627.4,175790.3,685714.7,186810.9,0.0
186047.6,207890.1,711930.9,312585.5,700423.9,175805.5,685676.3,186767.3,0.0
186385.9,208151.7,711945.2,312797.0,700872.3,176056.0,685884.4,187091.4,0.0
186570.2,208264.8,711949.3,312883.8,701317.1,176177.4,686153.1,187316.8,0.0
186358.2,208085.0,711940.8,312737.0,701154.4,176012.5,685991.3,187147.5,0.0
186037.6,207855.7,711932.0,312545.9,700591.3,175779.7,685702.6,186809.7,0.0
186046.8,207896.6,711936.4,312572.0,700398.0,175803.5,685686.8,186769.8,0.0
186384.8,208159.5,711950.8,312785.8,700849.1,176061.7,685898.0,187097.0,0.0
186574.5,208273.1,711955.3,312880.8,701296.6,176181.9,686166.8,187324.0,0.0
186358.5,208084.8,711944.1,312727.0,701117.8,176007.8,685993.1,187143.5,0.0
186039.2,207858.8,711933.9,312547.9,700553.4,175783.4,685708.6,186811.9,0.0
186048.6,207898.4,711938.3,312579.9,700356.8,175814.3,685694.4,186776.7,0.0
186380.4,208153.7,711949.6,312781.0,700790.5,176062.1,685893.4,187094.3,0.0
186568.0,208265.0,711954.9,312871.6,701238.4,176183.5,686163.8,187319.7,0.0
186357.3,208082.3,711944.1,312727.8,701072.9,176015.1,686000.0,187148.3,0.0
186035.6,207853.9,711930.9,312535.3,700506.0,175786.0,685709.4,186812.5,0.0
186045.6,207890.6,711936.6,312572.6,700308.7,175811.0,685692.3,186777.1,0.0
186382.2,208149.6,711950.8,312801.6,700747.9,176063.6,685895.9,187100.1,0.0
186567.4,208261.1,711953.9,312869.7,701190.8,176181.9,686160.3,187318.9,0.0
186358.1,208081.3,711943.9,312717.2,701029.7,176013.2,686000.0,187146.6,0.0
186041.9,207857.4,711935.2,312540.7,700469.1,175786.1,685713.6,186812.1,0.0
186042.5,207887.6,711937.8,312562.3,700268.1,175803.5,685690.6,186766.5,0.0
186376.1,208145.5,711948.9,312769.2,700705.6,176052.0,685887.6,187082.4,0.0
186565.5,208255.1,711950.8,312860.0,701155.8,176172.8,686156.6,187306.5,0.0
186358.0,208072.7,711940.9,312716.9,700993.3,176004.5,685993.8,187134.4,0.0
186052.3,207859.1,711934.4,312541.3,700442.3,175784.5,685710.7,186808.2,0.0
186055.0,207892.8,711938.3,312562.3,700237.6,175802.4,685682.6,186764.8,0.0
186392.0,208153.0,711949.8,312778.1,700670.7,176051.9,685879.7,187086.2,0.0
186587.1,208276.3,711954.5,312876.9,701123.2,176184.6,686156.2,187321.9,0.0
186371.9,208096.5,711941.9,312724.9,700955.8,176019.9,685991.9,187149.9,0.0
186053.7,207874.3,711932.8,312538.8,700397.9,175793.3,685708.9,186818.0,0.0
186060.1,207914.5,711937.6,312568.3,700200.5,175817.4,685674.9,186779.0,0.0
186392.4,208170.2,711950.7,312777.6,700636.6,176065.7,685870.9,187096.0,0.0
186582.0,208284.4,711955.9,312870.8,701086.2,176190.9,686143.9,187323.1,0.0
186372.8,208101.1,711945.3,312723.7,700928.9,176026.8,685986.1,187154.8,0.0
186051.6,207871.5,711935.4,312535.0,700370.3,175796.9,685709.2,186822.1,0.0
186060.3,207912.8,711940.9,312557.7,700175.8,175825.4,685699.8,186784.6,0.0
186396.8,208174.1,711954.5,312768.2,700617.3,176077.6,685903.6,187105.5,0.0
186592.8,208293.1,711958.0,312866.6,701076.2,176209.2,686179.8,187339.5,0.0
186381.6,208111.7,711947.5,312719.2,700920.6,176043.8,686021.4,187172.6,0.0
186059.8,207880.1,711940.8,312530.7,700363.2,175812.5,685722.4,186837.5,0.0
186063.8,207913.3,711946.4,312567.1,700159.3,175831.9,685701.8,186794.3,0.0
186384.6,208160.2,711953.9,312761.2,700577.6,176071.3,685889.8,187099.8,0.0
186567.6,208267.8,711953.1,312839.6,701012.2,176188.0,686144.9,187315.9,0.0
186362.7,208091.3,711941.2,312697.1,700850.0,176024.3,685982.5,187149.5,0.0
186045.7,207863.0,711931.2,312512.8,700287.5,175794.9,685696.4,186817.9,0.0
186041.3,207892.8,711933.3,312532.8,700072.8,175810.7,685676.4,186769.7,0.0
186369.7,208149.8,711945.0,312741.0,700501.6,176056.3,685866.0,187083.5,0.0
186571.5,208273.5,711951.0,312845.3,700965.6,176190.1,686145.2,187319.3,0.0
186363.6,208090.9,711940.0,312696.0,700812.9,176025.6,685991.7,187152.3,0.0
186037.2,207857.4,711926.2,312493.7,700239.9,175787.9,685699.3,186806.8,0.0
186052.6,207902.9,711935.1,312532.7,700053.0,175819.9,685695.3,186774.8,0.0
186387.5,208159.8,711949.1,312747.5,700489.9,176070.6,685895.9,187093.5,0.0
186578.3,208273.1,711954.3,312834.5,700943.7,176195.9,686165.7,187322.4,0.0
186380.1,208102.2,711944.9,312696.4,700797.1,176035.1,686014.7,187162.0,0.0
186056.9,207874.7,711935.0,312507.3,700235.9,175799.6,685719.4,186823.1,0.0
186053.7,207904.8,711938.9,312526.0,700026.3,175816.8,685685.3,186772.9,0.0
186380.6,208159.6,711949.1,312731.6,700450.4,176063.4,685873.9,187082.6,0.0
186583.4,208285.1,711955.8,312834.3,700916.7,176200.2,686161.6,187322.6,0.0
186382.5,208110.5,711948.1,312693.7,700770.1,176039.2,686012.4,187161.4,0.0
186062.3,207884.1,711937.2,312504.1,700208.4,175811.4,685717.9,186826.0,0.0
186060.5,207918.7,711940.3,312534.4,699993.6,175833.8,685697.1,186779.3,0.0
186388.3,208171.3,711953.3,312742.1,700420.9,176081.1,685892.4,187091.2,0.0
186584.5,208289.4,711958.2,312829.8,700881.3,176208.9,686170.4,187321.6,0.0
186382.7,208114.2,711949.3,312687.3,700738.3,176049.1,686022.4,187162.3,0.0
186052.1,207874.6,711937.7,312492.1,700171.8,175808.8,685720.4,186819.8,0.0
186047.3,207904.1,711940.0,312511.3,699961.8,175823.3,685685.2,186768.1,0.0
186370.9,208155.4,711952.6,312709.5,700393.3,176068.5,685877.6,187077.9,0.0
186561.3,208271.9,711955.4,312805.3,700845.3,176191.8,686145.8,187306.7,0.0
186361.1,208097.4,711943.8,312680.2,700697.1,176030.4,685993.3,187150.5,0.0
186039.5,207867.6,711933.3,312482.5,700133.8,175798.4,685697.3,186812.6,0.0
186044.6,207908.7,711939.6,312513.6,699926.9,175821.3,685683.9,186768.7,0.0
186371.7,208161.3,711951.6,312708.9,700350.8,176062.5,685873.9,187076.2,0.0
186567.3,208277.0,711955.3,312805.4,700808.5,176190.2,686150.5,187312.3,0.0
186355.4,208093.3,711943.6,312650.7,700655.9,176022.7,685994.1,187145.2,0.0
186031.0,207862.4,711934.3,312462.0,700092.6,175790.9,685698.6,186805.4,0.0
186032.4,207896.4,711937.9,312491.4,699874.9,175810.9,685688.0,186755.5,0.0
186362.3,208151.4,711951.4,312696.9,700298.8,176056.3,685879.8,187070.8,0.0
186566.2,208274.8,711955.5,312796.1,700759.9,176190.3,686156.1,187309.5,0.0
186373.0,208099.9,711948.3,312663.2,700623.5,176034.9,686015.2,187154.1,0.0
186051.3,207868.5,711936.1,312474.4,700056.5,175795.9,685714.3,186809.9,0.0
186039.8,207895.5,711936.9,312484.8,699835.5,175805.2,685686.4,186753.4,0.0
186369.0,208152.7,711952.1,312689.8,700266.7,176053.9,685884.3,187070.6,0.0
186564.8,208271.1,711953.1,312788.6,700717.5,176182.3,686152.8,187299.7,0.0
186373.1,208102.9,711944.9,312655.8,700579.9,176031.4,686010.6,187146.3,0.0
186052.6,207873.6,711936.8,312459.2,700025.8,175802.8,685722.4,186816.3,0.0
186045.6,207901.1,711941.4,312478.5,699808.8,175816.4,685697.8,186765.9,0.0
186382.7,208162.6,711956.2,312699.3,700240.3,176068.6,685897.1,187090.0,0.0
186581.9,208283.8,711962.1,312807.4,700701.1,176204.4,686175.7,187331.3,0.0
186377.2,208102.6,711952.6,312640.5,700558.3,176042.7,686028.1,187167.2,0.0
186048.2,207863.6,711941.4,312450.2,699989.3,175798.8,685720.5,186822.1,0.0
186045.0,207895.7,711942.4,312469.9,699766.8,175810.3,685686.4,186766.5,0.0
186379.8,208160.5,711953.7,312681.2,700187.1,176061.8,685876.8,187080.8,0.0
186584.5,208286.4,711960.9,312786.2,700652.2,176202.8,686166.9,187325.2,0.0
186381.6,208106.1,711952.1,312641.1,700504.7,176040.7,686020.3,187164.2,0.0
186058.0,207874.2,711942.0,312458.0,699935.5,175807.4,685725.1,186829.1,0.0
186045.6,207896.0,711944.7,312475.1,699703.1,175816.1,685694.8,186770.6,0.0
186367.3,208146.6,711957.0,312673.9,700113.8,176061.9,685880.6,187078.3,0.0
186566.7,208271.3,711960.3,312769.7,700567.9,176194.6,686158.4,187314.9,0.0
186370.1,208095.2,711948.9,312630.8,700420.6,176037.3,686012.6,187156.7,0.0
186046.9,207865.1,711937.4,312443.3,699855.4,175805.8,685725.9,186821.4,0.0
186042.2,207896.8,711941.4,312468.7,699632.5,175819.6,685691.2,186769.2,0.0
186368.8,208151.7,711953.9,312671.3,700052.0,176065.9,685879.1,187080.1,0.0
186566.7,208271.9,711958.4,312771.5,700510.5,176199.1,686159.0,187317.3,0.0
186371.6,208101.0,711947.5,312631.7,700372.9,176041.1,686014.1,187161.2,0.0
186049.8,207869.8,711937.9,312439.9,699816.5,175807.8,685715.9,186826.4,0.0
186041.7,207899.0,711941.9,312461.8,699591.4,175820.3,685693.5,186770.4,0.0
186374.6,208161.1,711955.7,312679.6,700019.9,176073.3,685888.5,187089.3,0.0
186574.8,208278.9,711961.4,312777.7,700482.5,176202.2,686165.7,187325.9,0.0
186369.5,208096.4,711949.7,312621.4,700342.7,176035.3,686019.3,187162.4,0.0
186043.2,207861.0,711939.1,312427.4,699776.2,175798.8,685726.4,186819.8,0.0
186034.6,207888.0,711940.2,312444.3,699543.1,175807.8,685694.9,186760.5,0.0
186361.1,208144.9,711952.1,312655.5,699960.2,176057.6,685882.8,187072.1,0.0
186563.0,208267.7,711957.0,312758.8,700423.9,176192.5,686163.1,187311.7,0.0
186368.0,208094.0,711946.4,312619.8,700285.9,176034.9,686017.4,187156.7,0.0
186052.2,207866.9,711937.8,312445.3,699731.3,175805.2,685723.8,186828.4,0.0
186040.2,207889.4,711941.6,312449.5,699501.0,175811.3,685689.8,186766.6,0.0
186367.3,208143.8,711955.3,312656.2,699916.6,176057.7,685879.1,187078.0,0.0
186564.7,208264.4,711958.0,312752.9,700374.6,176187.6,686157.4,187314.3,0.0
186373.7,208097.0,711948.1,312623.4,700240.7,176031.7,686016.6,187162.3,0.0
186048.4,207864.8,711938.7,312430.6,699679.8,175798.2,685721.1,186827.0,0.0
186037.1,207888.7,711941.9,312434.5,699454.9,175806.8,685690.5,186769.1,0.0
186365.0,208145.4,711953.8,312644.7,699872.7,176052.1,685878.8,187077.8,0.0
186570.6,208275.4,711959.4,312749.9,700337.9,176191.6,686162.8,187316.4,0.0
186378.8,208105.1,711949.9,312607.7,700202.9,176035.5,686020.1,187159.4,0.0
186058.5,207875.1,711939.2,312421.5,699642.6,175804.3,685720.4,186823.1,0.0
186041.7,207895.0,711941.0,312437.4,699400.7,175812.5,685685.4,186757.0,0.0
186368.1,208151.3,711954.3,312644.9,699819.8,176061.0,685876.6,187068.6,0.0
186570.2,208274.3,711958.1,312745.3,700286.6,176192.0,686155.6,187307.5,0.0
186375.4,208100.7,711947.6,312601.9,700158.1,176034.1,686015.4,187153.5,0.0
186052.4,207866.5,711934.9,312409.6,699598.1,175798.1,685712.6,186817.3,0.0
186042.3,207890.9,711940.3,312429.2,699374.6,175812.3,685693.3,186763.9,0.0
186368.2,208145.4,711955.3,312639.8,699793.6,176061.8,685882.9,187074.8,0.0
186567.3,208262.8,711958.3,312731.3,700256.4,176192.7,686157.1,187309.9,0.0
186374.7,208091.9,711946.6,312594.0,700129.4,176036.0,686016.2,187155.5,0.0
186050.0,207858.1,711938.8,312407.4,699573.3,175798.4,685715.9,186819.3,0.0
186035.6,207879.4,711940.8,312422.4,699339.1,175799.5,685672.5,186753.7,0.0
186367.3,208139.1,711954.9,312633.4,699759.2,176052.7,685864.3,187068.6,0.0
186574.0,208266.8,711959.7,312737.5,700226.2,176192.9,686150.9,187313.7,0.0
186382.6,208097.8,711948.1,312600.6,700092.3,176040.1,686010.6,187160.1,0.0
186062.0,207868.5,711939.4,312411.7,699530.0,175808.1,685717.6,186824.7,0.0
186049.8,207895.6,711944.9,312428.8,699294.6,175816.8,685695.1,186762.8,0.0
186373.4,208150.3,711957.4,312635.0,699704.5,176064.1,685883.7,187070.8,0.0
186583.8,208278.0,711962.3,312744.2,700171.4,176205.4,686166.6,187317.9,0.0
186388.8,208103.5,711949.7,312604.4,700036.6,176047.4,686023.7,187165.7,0.0
186061.4,207866.9,711938.7,312412.9,699472.8,175813.3,685713.2,186828.0,0.0
186043.3,207890.0,711943.6,312428.5,699238.0,175822.0,685695.4,186766.4,0.0
186358.5,208138.8,711954.9,312638.6,699639.7,176062.5,685873.3,187067.8,0.0
186563.3,208266.0,711956.6,312729.0,700099.1,176197.3,686144.4,187307.8,0.0
186390.8,208112.3,711949.1,312609.7,699991.9,176057.6,686024.1,187174.7,0.0
186062.7,207876.9,711937.6,312404.9,699429.7,175817.0,685717.9,186832.0,0.0
186044.2,207895.2,711940.9,312416.5,699190.6,175820.3,685671.8,186763.8,0.0
186366.1,208146.9,711953.3,312620.5,699600.7,176065.7,685852.9,187067.7,0.0
186578.6,208279.7,711960.4,312725.6,700077.8,176207.0,686146.6,187316.5,0.0
186394.9,208113.3,711951.4,312590.8,699960.2,176056.1,686016.6,187172.4,0.0
186072.9,207881.3,711939.7,312408.4,699402.6,175819.4,685716.9,186836.8,0.0
186047.4,207897.1,711942.6,312410.0,699160.2,175819.0,685682.9,186768.2,0.0
186368.4,208150.2,711955.9,312609.4,699567.0,176062.1,685863.3,187073.7,0.0
186579.8,208283.5,711960.8,312717.4,700039.9,176205.0,686150.6,187322.6,0.0
186390.7,208114.2,711949.9,312581.2,699919.0,176051.8,686020.9,187173.4,0.0
186064.7,207878.5,711938.8,312393.3,699357.4,175815.3,685734.6,186833.0,0.0
186044.4,207896.8,711942.1,312407.8,699116.2,175821.0,685696.7,186767.1,0.0
186368.9,208152.2,711954.3,312616.8,699520.8,176067.4,685874.9,187071.9,0.0
186577.8,208281.7,711958.8,312718.7,699988.6,176207.5,686157.1,187316.2,0.0
186396.6,208121.3,711950.2,312589.0,699875.0,176063.5,686031.8,187177.1,0.0
186071.8,207886.8,711941.6,312399.5,699323.4,175829.7,685729.8,186843.8,0.0
186045.6,207896.1,711946.0,312409.5,699084.8,175823.8,685691.1,186773.4,0.0
186368.5,208153.0,711959.1,312616.3,699490.4,176067.6,685870.8,187075.8,0.0
186583.1,208289.3,711963.8,312731.0,699962.0,176213.9,686159.2,187322.9,0.0
186395.2,208118.9,711952.3,312597.9,699832.1,176058.9,686017.8,187167.4,0.0
186062.7,207877.0,711940.1,312385.8,699266.7,175817.3,685711.8,186822.1,0.0
186031.4,207887.6,711942.8,312384.3,699018.8,175817.9,685687.8,186750.3,0.0
186353.3,208140.6,711956.6,312593.8,699422.3,176065.3,685873.9,187057.3,0.0
186565.2,208273.7,711962.9,312704.2,699900.8,176211.5,686161.1,187309.5,0.0
186369.8,208100.5,711951.8,312562.7,699774.1,176050.8,686019.7,187157.3,0.0
186046.5,207866.2,711938.5,312366.7,699215.9,175814.5,685715.9,186820.2,0.0
186028.3,207884.8,711942.0,312382.6,698979.5,175818.6,685697.2,186753.4,0.0
186355.1,208140.9,711956.5,312595.3,699391.9,176064.4,685884.6,187060.7,0.0
186563.0,208272.3,711962.8,312695.8,699871.5,176207.9,686170.5,187308.4,0.0
186373.7,208102.6,711951.9,312550.7,699757.0,176051.1,686038.4,187161.7,0.0
186053.8,207871.6,711942.1,312365.7,699204.6,175813.1,685741.2,186827.6,0.0
186031.3,207886.1,711945.0,312385.1,698959.0,175813.8,685701.6,186758.4,0.0
186347.8,208136.1,711956.6,312584.9,699357.9,176055.9,685877.8,187060.2,0.0
186563.1,208272.5,711961.8,312691.3,699834.3,176200.1,686166.3,187310.2,0.0
186371.5,208099.6,711950.6,312550.3,699714.6,176045.6,686031.1,187162.7,0.0
186043.8,207861.9,711941.4,312357.5,699160.2,175812.0,685727.1,186828.0,0.0
186018.6,207875.7,711944.3,312370.3,698914.6,175812.8,685699.6,186758.3,0.0
186335.3,208124.5,711956.2,312569.4,699316.6,176054.8,685877.4,187059.8,0.0
186547.9,208260.4,711961.1,312678.0,699794.8,176203.3,686167.1,187308.2,0.0
186372.9,208104.4,711952.0,312552.2,699685.8,176058.4,686042.3,187166.6,0.0
186047.3,207868.0,711941.9,312360.4,699130.8,175821.5,685735.6,186830.8,0.0
186022.0,207881.6,711945.5,312368.8,698886.7,175821.6,685697.0,186762.3,0.0
186333.4,208125.3,711955.9,312554.2,699279.9,176057.2,685866.1,187056.9,0.0
186548.9,208263.1,711960.5,312671.5,699752.9,176204.0,686154.7,187308.7,0.0
186371.8,208104.3,711951.4,312543.1,699648.7,176061.3,686035.5,187172.6,0.0
186044.0,207866.2,711941.2,312349.8,699092.6,175822.9,685742.5,186836.7,0.0
186021.8,207881.5,711945.9,312369.3,698852.0,175824.5,685714.6,186768.9,0.0
186339.8,208126.8,711957.9,312559.8,699254.8,176063.9,685889.5,187065.9,0.0
186555.5,208260.9,711964.0,312671.9,699735.3,176207.0,686176.9,187314.5,0.0
186370.8,208098.4,711953.6,312527.8,699626.7,176058.5,686048.9,187172.4,0.0
186036.1,207855.9,711941.8,312331.0,699069.4,175820.4,685738.4,186834.5,0.0
186003.0,207864.3,711944.1,312334.0,698814.9,175815.2,685690.3,186759.9,0.0
186321.4,208114.2,711956.1,312535.4,699211.1,176053.9,685865.2,187058.5,0.0
186533.5,208245.2,711960.7,312647.8,699681.6,176194.0,686151.2,187306.3,0.0
186349.5,208078.2,711948.1,312512.3,699562.1,176042.4,686018.7,187159.8,0.0
186028.6,207846.9,711939.1,312324.3,699008.6,175812.0,685733.5,186831.9,0.0
186011.6,207867.8,711944.5,312349.0,698764.0,175822.1,685693.3,186771.0,0.0
186331.4,208121.0,711957.3,312545.4,699162.4,176069.3,685868.8,187073.0,0.0
186548.4,208257.7,711962.3,312657.3,699632.5,176212.5,686157.1,187320.9,0.0
186370.9,208099.8,711953.9,312529.8,699524.9,176066.1,686035.5,187182.9,0.0
186047.7,207867.9,711943.6,312340.3,698967.9,175825.7,685723.9,186845.5,0.0
186017.3,207876.5,711945.6,312343.8,698710.9,175818.5,685685.1,186768.1,0.0
186336.0,208122.5,711958.1,312545.4,699103.1,176063.2,685858.9,187065.7,0.0
186562.7,208269.8,711966.3,312663.0,699588.9,176218.1,686158.9,187324.7,0.0
186378.2,208101.3,711954.6,312526.0,699477.6,176060.2,686029.9,187178.2,0.0
186043.8,207856.7,711938.7,312329.3,698904.9,175814.9,685714.0,186830.9,0.0
186019.2,207872.2,711941.3,312347.1,698651.1,175819.0,685685.1,186758.6,0.0
186332.7,208119.9,711953.7,312548.3,699040.8,176056.0,685854.4,187053.6,0.0
186549.3,208258.1,711958.0,312641.8,699520.9,176199.9,686140.8,187304.9,0.0
186376.9,208102.9,711949.3,312513.3,699426.7,176055.7,686025.8,187171.5,0.0
186053.8,207867.4,711941.7,312319.7,698879.1,175822.0,685725.4,186836.3,0.0
186025.0,207879.6,711946.8,312327.3,698626.6,175820.1,685689.9,186761.3,0.0
186339.0,208131.1,711957.2,312529.0,699018.8,176062.5,685859.0,187059.3,0.0
186557.8,208269.6,711962.9,312644.1,699503.5,176212.3,686152.3,187315.9,0.0
186381.3,208108.3,711954.3,312523.5,699404.4,176063.2,686033.6,187179.7,0.0
186053.1,207870.6,711945.2,312318.8,698856.5,175824.3,685739.4,186843.3,0.0
186019.8,207878.9,711947.6,312316.3,698600.9,175815.8,685692.9,186765.9,0.0
186330.3,208122.1,711957.0,312515.0,698983.7,176050.8,685851.6,187056.2,0.0
186551.6,208261.9,711962.6,312631.7,699464.9,176203.4,686146.1,187310.2,0.0
186379.6,208108.3,711955.7,312507.2,699371.1,176065.2,686031.8,187180.1,0.0
186054.4,207869.7,711944.3,312320.7,698815.2,175829.4,685716.9,186848.0,0.0
186023.3,207877.8,711946.1,312318.9,698553.9,175823.4,685685.8,186772.2,0.0
186341.9,208129.6,711957.1,312519.5,698946.6,176064.6,685859.2,187071.1,0.0
186558.3,208263.2,711962.4,312628.4,699424.3,176209.1,686144.9,187323.1,0.0
186384.8,208102.4,711954.6,312493.4,699325.6,176060.8,686029.9,187183.9,0.0
186056.6,207865.3,711943.3,312301.8,698766.3,175817.0,685734.9,186844.1,0.0
186015.3,207870.9,711942.0,312301.4,698499.1,175807.1,685698.4,186760.8,0.0
186331.8,208122.0,711955.1,312507.9,698892.9,176054.2,685875.0,187061.0,0.0
186564.0,208276.1,711964.9,312635.1,699386.9,176217.5,686177.1,187328.3,0.0
186390.4,208118.2,711956.6,312506.7,699287.7,176072.3,686058.5,187195.6,0.0
186064.1,207878.1,711946.8,312315.5,698740.1,175833.7,685746.0,186865.9,0.0
186037.9,207888.3,711951.9,312328.9,698483.8,175830.0,685718.9,186791.4,0.0
186348.1,208130.4,711965.7,312512.1,698868.8,176066.3,685892.2,187082.1,0.0
186569.0,208272.0,711970.7,312623.8,699347.3,176215.8,686184.1,187336.8,0.0
186388.6,208106.9,711953.9,312492.2,699232.7,176065.0,686051.7,187192.8,0.0
186061.1,207869.7,711941.2,312299.4,698668.7,175824.3,685737.3,186850.7,0.0
186027.2,207876.5,711943.9,312305.7,698403.9,175816.5,685682.1,186771.1,0.0
186351.5,208131.3,711956.9,312521.8,698796.3,176063.5,685855.6,187073.2,0.0
186572.2,208271.0,711963.0,312623.9,699275.2,176210.8,686150.7,187327.2,0.0
186392.3,208105.1,711951.8,312488.1,699168.1,176056.8,686026.8,187187.9,0.0
186064.7,207865.5,711940.6,312292.2,698611.4,175814.2,685725.7,186849.1,0.0
186033.5,207874.7,711944.3,312297.3,698351.3,175810.8,685679.8,186769.3,0.0
186354.4,208131.3,711960.1,312506.3,698743.2,176058.9,685854.6,187071.6,0.0
186582.0,208277.6,711967.4,312632.0,699230.9,176217.0,686158.1,187333.8,0.0
186411.1,208117.0,711957.9,312498.9,699138.3,176072.7,686046.5,187201.1,0.0
186079.5,207871.5,711943.9,312297.7,698570.9,175825.7,685722.7,186853.8,0.0
186044.7,207876.7,711945.2,312307.0,698301.7,175818.0,685674.6,186771.8,0.0
186362.4,208129.7,711957.8,312511.8,698689.3,176065.0,685845.1,187068.3,0.0
186578.5,208267.0,711960.7,312621.3,699160.3,176212.1,686128.5,187318.0,0.0
186405.2,208111.7,711948.3,312490.0,699060.3,176065.5,686009.7,187185.4,0.0
186082.8,207878.8,711939.8,312301.4,698518.8,175831.3,685728.8,186855.9,0.0
186045.8,207884.6,711943.0,312299.0,698256.2,175820.5,685684.3,186773.3,0.0
186358.2,208134.6,711954.6,312494.3,698641.2,176062.4,685851.3,187063.9,0.0
186583.1,208278.6,711960.1,312611.2,699123.4,176217.9,686148.4,187321.3,0.0
186417.2,208123.3,711951.3,312487.9,699041.1,176075.5,686036.3,187192.6,0.0
186089.2,207880.5,711939.8,312296.6,698491.0,175833.9,685739.7,186857.9,0.0
186044.7,207879.6,711941.2,312292.8,698210.9,175820.9,685680.8,186773.2,0.0
186365.2,208137.9,711955.3,312496.2,698610.3,176067.0,685850.8,187073.9,0.0
186594.6,208285.4,711963.8,312617.2,699104.1,176222.4,686153.1,187336.9,0.0
186419.6,208123.5,711952.7,312485.8,699013.3,176078.8,686039.3,187204.5,0.0
186088.0,207881.3,711941.0,312285.9,698457.9,175838.8,685722.9,186862.7,0.0
186049.4,207885.4,711945.2,312286.4,698185.8,175829.2,685686.8,186778.9,0.0
186363.6,208131.5,711956.6,312489.9,698564.2,176066.1,685851.9,187074.0,0.0
186590.3,208278.8,711964.2,312604.5,699053.2,176223.2,686152.2,187336.7,0.0
186421.9,208122.3,711953.3,312480.4,698960.9,176080.0,686039.6,187206.2,0.0
186090.3,207882.1,711942.8,312281.4,698403.8,175838.4,685739.3,186868.5,0.0
186049.8,207889.2,711946.1,312283.0,698134.8,175831.9,685687.4,186783.8,0.0
186363.7,208138.8,711957.6,312484.5,698512.9,176073.7,685848.9,187075.5,0.0
186587.6,208280.2,711964.1,312600.3,698999.3,176227.2,686147.9,187335.1,0.0
186419.3,208124.2,711954.4,312483.9,698912.4,176087.4,686037.8,187208.7,0.0
186095.9,207889.2,711945.0,312286.7,698365.9,175851.4,685736.3,186873.5,0.0
186055.0,207890.5,711947.7,312281.4,698097.3,175841.7,685691.0,186788.4,0.0
186358.8,208130.2,711955.9,312474.8,698463.1,176072.2,685843.8,187071.5,0.0
186587.8,208278.3,711960.1,312593.3,698948.3,176226.5,686140.3,187330.5,0.0
186433.9,208132.8,711953.3,312479.5,698871.3,176094.7,686041.1,187211.5,0.0
186107.7,207891.3,711943.4,312288.2,698318.3,175853.3,685736.6,186874.0,0.0
186063.2,207892.1,711946.4,312282.4,698042.8,175837.0,685694.9,186781.8,0.0
186378.5,208145.3,711956.6,312480.1,698423.5,176078.9,685860.3,187072.4,0.0
186612.3,208298.0,711962.8,312601.8,698919.7,176240.0,686159.4,187336.6,0.0
186448.3,208144.1,711954.3,312475.5,698837.3,176098.0,686051.4,187207.1,0.0
186121.4,207903.3,711943.8,312287.3,698284.2,175855.1,685730.0,186869.4,0.0
186073.2,207898.7,711945.0,312280.1,698002.9,175838.0,685676.9,186778.3,0.0
186377.0,208137.4,711953.3,312470.9,698368.4,176072.2,685830.9,187063.3,0.0
186609.3,208286.3,711959.1,312591.7,698855.9,176226.8,686129.6,187326.8,0.0
186448.1,208138.7,711952.0,312468.1,698784.3,176094.6,686037.6,187210.5,0.0
186129.5,207906.3,711946.4,312284.8,698246.1,175861.1,685750.8,186883.8,0.0
186085.0,207903.1,711950.3,312283.0,697966.1,175840.5,685711.7,186790.3,0.0
186395.5,208148.0,711962.6,312486.6,698339.7,176076.1,685877.7,187080.0,0.0
186613.8,208285.3,711965.6,312600.4,698814.4,176223.5,686163.1,187334.1,0.0
186446.8,208130.9,711953.3,312463.3,698721.4,176079.9,686051.1,187204.3,0.0
186117.6,207891.0,711941.4,312272.7,698166.1,175842.2,685725.7,186867.8,0.0
186066.4,207884.6,711942.9,312261.6,697879.8,175822.9,685681.4,186771.7,0.0
186372.0,208127.8,711952.6,312462.7,698241.1,176058.3,685838.2,187056.9,0.0
186602.1,208281.9,711958.3,312591.6,698729.1,176222.0,686137.1,187325.2,0.0
186432.9,208129.6,711949.7,312460.9,698652.4,176086.1,686038.4,187203.7,0.0
186101.8,207890.5,711939.8,312262.7,698100.4,175845.0,685729.2,186864.8,0.0
186050.7,207884.9,711941.4,312260.8,697815.1,175827.2,685668.7,186769.3,0.0
186366.6,208138.5,711955.6,312466.1,698188.9,176067.7,685831.8,187058.4,0.0
186601.4,208292.2,711961.9,312585.7,698681.1,176227.1,686137.2,187322.7,0.0
186437.8,208144.2,711953.0,312461.7,698602.1,176090.7,686033.3,187200.4,0.0
186112.8,207907.2,711943.4,312270.3,698058.1,175853.3,685735.8,186865.4,0.0
186067.7,207906.4,711947.4,312270.5,697784.9,175837.3,685689.1,186772.8,0.0
186370.9,208146.0,711958.6,312461.8,698156.1,176068.1,685845.2,187056.2,0.0
186598.9,208291.5,711964.6,312577.8,698647.0,176224.7,686143.9,187318.5,0.0
186438.6,208142.2,711955.3,312463.8,698572.4,176089.5,686043.4,187197.4,0.0
186105.4,207893.0,711944.3,312259.8,698016.4,175842.3,685733.9,186854.7,0.0
186052.4,207883.8,711943.9,312244.2,697726.2,175820.2,685683.7,186754.9,0.0
186364.3,208136.6,711955.6,312447.9,698102.6,176063.6,685848.4,187048.3,0.0
186601.0,208294.4,711964.9,312578.5,698603.2,176227.3,686153.8,187317.8,0.0
186437.3,208141.3,711956.6,312446.8,698528.2,176088.7,686053.4,187193.5,0.0
186111.8,207901.5,711946.3,312253.3,697981.0,175850.6,685740.2,186859.6,0.0
186063.0,207898.9,711948.5,312253.1,697695.7,175833.5,685688.9,186767.3,0.0
186370.2,208145.3,711956.5,312453.9,698057.4,176070.4,685842.7,187052.3,0.0
186597.8,208291.3,711962.1,312574.2,698543.8,176229.9,686140.4,187316.7,0.0
186440.2,208145.9,711952.2,312456.5,698470.3,176099.4,686042.6,187201.5,0.0
186110.9,207903.8,711943.5,312260.4,697917.1,175858.9,685724.4,186862.5,0.0
186059.3,207896.5,711945.4,312252.3,697629.8,175836.5,685670.3,186764.4,0.0
186367.3,208140.2,711956.3,312446.6,698000.1,176073.4,685830.7,187048.9,0.0
186603.2,208289.0,711963.6,312568.0,698498.4,176235.1,686138.1,187314.3,0.0
186444.9,208137.0,711953.9,312450.8,698429.1,176099.9,686041.3,187195.8,0.0
186116.5,207895.9,711941.7,312258.3,697879.0,175853.3,685723.1,186857.3,0.0
186062.7,207889.5,711945.8,312251.8,697589.8,175829.2,685680.6,186758.5,0.0
186365.0,208131.2,711956.6,312441.0,697951.6,176060.7,685836.4,187039.8,0.0
186595.1,208279.6,711963.8,312548.3,698446.4,176220.3,686135.9,187305.3,0.0
186432.3,208128.6,711952.9,312429.4,698374.3,176086.7,686036.7,187187.6,0.0
186100.3,207885.2,711942.4,312228.2,697824.1,175841.0,685733.1,186847.5,0.0
186049.7,207883.0,711945.4,312222.7,697540.3,175824.4,685690.3,186752.2,0.0
186359.7,208131.3,711957.6,312422.3,697912.3,176066.1,685852.1,187041.6,0.0
186595.6,208284.1,711963.1,312550.5,698407.2,176233.1,686151.8,187311.9,0.0
186434.0,208131.5,711953.9,312430.4,698336.8,176099.3,686053.7,187195.3,0.0
186101.9,207889.9,711943.9,312236.5,697787.9,175851.5,685736.4,186857.3,0.0
186049.8,207885.5,711945.8,312230.4,697498.4,175828.9,685680.1,186759.5,0.0
186356.8,208130.8,711957.8,312429.1,697861.8,176063.9,685835.3,187045.9,0.0
186594.7,208288.4,711965.3,312550.5,698357.4,176227.3,686140.6,187315.4,0.0
186440.9,208146.1,711958.1,312437.5,698292.6,176100.7,686049.8,187202.2,0.0
186110.6,207903.3,711947.2,312232.5,697741.8,175854.1,685732.6,186861.1,0.0
186058.1,207892.0,711949.3,312227.2,697453.9,175827.9,685678.1,186760.7,0.0
186369.1,208139.6,711959.5,312427.3,697817.6,176063.7,685832.8,187046.2,0.0
186605.0,208293.1,711967.4,312552.1,698313.1,176231.7,686139.1,187316.3,0.0
186446.5,208146.7,711958.4,312431.7,698241.5,176100.5,686041.9,187199.9,0.0
186111.8,207901.5,711946.4,312227.3,697685.8,175854.7,685727.7,186858.3,0.0
186053.8,207889.6,711946.1,312219.9,697386.0,175832.1,685681.6,186755.0,0.0
186366.5,208142.7,711960.8,312432.2,697756.9,176076.9,685848.3,187050.5,0.0
186610.6,208305.7,711967.8,312569.5,698259.6,176249.0,686154.4,187330.7,0.0
186450.1,208153.9,711958.9,312428.8,698192.9,176116.4,686060.2,187213.1,0.0
186115.7,207905.5,711948.8,312230.1,697647.9,175871.6,685747.4,186874.7,0.0
186057.8,207892.8,711948.9,312224.8,697355.3,175844.6,685685.7,186770.8,0.0
186355.5,208129.8,711957.1,312415.3,697704.4,176068.4,685824.3,187044.4,0.0
186592.1,208285.7,711961.8,312542.3,698197.8,176229.2,686124.5,187311.9,0.0
186440.0,208145.3,711953.4,312429.7,698139.1,176103.5,686035.1,187201.9,0.0
186103.8,207900.0,711942.2,312217.1,697593.1,175859.2,685727.3,186859.3,0.0
186044.7,207890.4,711945.6,312204.9,697300.5,175835.0,685674.6,186759.5,0.0
186354.2,208137.7,711960.6,312408.8,697669.1,176075.3,685837.1,187053.6,0.0
186597.6,208297.5,711970.5,312540.9,698177.1,176246.8,686152.6,187332.5,0.0
186445.3,208154.9,711963.3,312425.3,698120.9,176114.6,686065.6,187220.5,0.0
186109.8,207904.0,711950.6,312224.2,697567.7,175862.7,685736.9,186874.4,0.0
186046.4,207889.8,711952.0,312200.3,697265.6,175834.9,685688.8,186764.2,0.0
186348.3,208131.7,711960.6,312396.7,697614.1,176065.7,685835.7,187038.2,0.0
186585.9,208288.1,711964.9,312526.5,698108.9,176230.2,686131.8,187308.3,0.0
186435.7,208148.8,711957.4,312413.0,698052.7,176103.6,686044.3,187202.4,0.0
186107.5,207909.6,711946.4,312219.3,697508.1,175863.4,685738.5,186867.8,0.0
186052.2,207901.0,711950.4,312209.4,697214.9,175842.3,685686.1,186765.5,0.0
186347.8,208135.3,711961.8,312394.5,697565.2,176068.2,685830.3,187040.4,0.0
186593.9,208295.5,711968.3,312530.3,698067.2,176236.0,686139.1,187314.9,0.0
186440.8,208150.5,711958.7,312409.9,698013.4,176109.0,686056.1,187206.7,0.0
186108.2,207904.2,711949.4,312208.8,697471.8,175867.5,685746.4,186869.5,0.0
186044.1,207887.1,711949.7,312197.3,697164.9,175834.8,685689.1,186758.1,0.0
186348.1,208131.9,711960.9,312401.3,697518.1,176069.2,685838.6,187040.9,0.0
186585.1,208290.4,711968.4,312522.7,698020.5,176238.2,686144.1,187317.3,0.0
186433.6,208146.4,711959.6,312401.7,697966.9,176110.2,686055.8,187205.6,0.0
186101.5,207901.3,711945.6,312205.6,697417.4,175865.5,685727.6,186864.0,0.0
186043.3,207892.5,711947.6,312204.6,697119.6,175842.8,685682.7,186759.0,0.0
186347.3,208137.3,711962.2,312401.0,697483.0,176077.5,685843.3,187041.8,0.0
186582.1,208286.6,711967.3,312516.6,697978.1,176233.5,686137.7,187308.3,0.0
186431.3,208144.5,711959.4,312403.1,697925.5,176104.9,686051.0,187201.9,0.0
186101.0,207901.7,711947.4,312205.5,697381.4,175862.3,685736.0,186866.2,0.0
186045.6,207892.5,711950.4,312196.4,697086.7,175838.0,685687.3,186764.8,0.0
186354.7,208141.3,711963.4,312399.3,697448.5,176077.0,685845.1,187052.0,0.0
186591.4,208296.0,711970.6,312525.2,697946.5,176239.3,686148.0,187323.3,0.0
186439.8,208154.1,711963.1,312408.7,697892.1,176109.0,686063.7,187218.6,0.0
186109.8,207911.4,711950.3,312220.3,697338.7,175864.8,685744.8,186880.0,0.0
186040.5,207890.5,711948.0,312194.7,697018.4,175831.9,685687.9,186761.0,0.0
186350.6,208140.3,711962.4,312389.3,697379.4,176070.0,685853.8,187044.8,0.0
186595.3,208301.6,711971.6,312520.6,697887.5,176237.3,686160.7,187318.1,0.0
186447.2,208158.1,711962.4,312407.0,697837.5,176109.8,686077.3,187209.4,0.0
186108.5,207908.3,711948.8,312202.3,697285.9,175860.7,685747.9,186866.0,0.0
186046.8,207898.0,711951.6,312191.6,696985.9,175837.1,685690.8,186761.5,0.0
186348.0,208139.6,711962.3,312388.3,697338.9,176070.5,685839.4,187043.3,0.0
186586.0,208293.1,711970.5,312510.8,697840.2,176234.4,686144.6,187315.0,0.0
186440.3,208154.0,711960.9,312399.3,697790.1,176109.6,686059.9,187208.0,0.0
186104.1,207905.3,711947.7,312198.8,697244.8,175864.6,685744.7,186866.3,0.0
186043.5,207892.3,711950.7,312188.0,696942.9,175837.4,685704.0,186760.5,0.0
186347.7,208136.9,711963.6,312385.8,697295.4,176070.3,685858.8,187042.5,0.0
186592.6,208296.5,711970.3,312512.9,697798.5,176239.1,686160.9,187319.0,0.0
186444.4,208156.4,711961.4,312394.2,697751.6,176114.1,686080.9,187215.4,0.0
186114.0,207912.0,711949.9,312202.6,697205.3,175871.3,685759.3,186878.7,0.0
186047.0,207894.2,711950.3,312185.6,696892.2,175840.2,685693.3,186765.8,0.0
186355.1,208142.4,711964.2,312386.8,697248.3,176077.1,685850.0,187051.2,0.0
186601.0,208306.2,711973.8,312514.0,697753.9,176247.0,686164.7,187327.1,0.0
186452.6,208166.3,711963.3,312401.7,697698.8,176116.6,686078.1,187218.4,0.0
186121.5,207923.9,711952.2,312212.1,697152.3,175877.6,685757.6,186883.3,0.0
186058.8,207910.8,711956.3,312207.8,696847.3,175853.1,685714.2,186778.6,0.0
186347.8,208140.3,711965.1,312381.0,697182.1,176072.8,685854.8,187047.4,0.0
186589.8,208299.4,711970.0,312508.2,697681.2,176240.2,686156.6,187323.5,0.0
186450.8,208168.1,711961.8,312407.0,697642.1,176122.6,686085.8,187228.1,0.0
186112.2,207919.2,711949.9,312196.2,697091.8,175872.4,685760.9,186887.5,0.0
186038.3,207893.7,711947.7,312173.3,696764.8,175833.0,685684.6,186766.6,0.0
186343.7,208136.4,711957.2,312372.5,697103.9,176065.6,685826.3,187044.3,0.0
186592.3,208302.1,711965.8,312509.2,697611.8,176244.0,686141.0,187324.7,0.0
186451.0,208169.8,711959.9,312395.5,697574.6,176128.3,686070.6,187227.2,0.0
186113.9,207922.5,711948.1,312191.2,697030.3,175881.1,685748.8,186888.7,0.0
186045.1,207902.6,711950.8,312175.8,696721.5,175850.7,685696.7,186774.8,0.0
186354.6,208149.1,711963.6,312379.5,697076.3,176086.1,685852.9,187056.5,0.0
186598.2,208309.5,711970.5,312511.8,697584.3,176257.5,686157.8,187332.6,0.0
186447.4,208167.3,711959.9,312394.1,697539.0,176133.6,686074.9,187226.5,0.0
186114.2,207921.8,711949.1,312190.7,696996.3,175887.0,685754.1,186886.9,0.0
186050.9,207905.9,711953.3,312176.5,696686.6,175855.8,685701.1,186771.3,0.0
186348.4,208145.1,711962.6,312374.0,697026.3,176084.5,685844.4,187042.5,0.0
186588.6,208301.5,711966.1,312499.6,697528.9,176251.7,686144.3,187316.0,0.0
186445.8,208166.5,711957.6,312382.9,697495.0,176129.0,686071.4,187217.8,0.0
186104.7,207913.1,711947.9,312181.7,696955.4,175876.9,685743.9,186878.8,0.0
186027.9,207884.1,711950.8,312158.6,696637.7,175834.0,685676.1,186757.4,0.0
186332.3,208131.9,711963.2,312353.5,696986.4,176067.7,685823.9,187037.8,0.0
186584.5,208299.8,711969.4,312494.8,697498.4,176245.3,686136.4,187324.0,0.0
186445.6,208165.3,711960.4,312384.5,697462.9,176124.3,686062.1,187226.2,0.0
186107.3,207911.9,711948.9,312175.8,696918.4,175871.4,685744.9,186883.0,0.0
186034.8,207891.3,711951.3,312155.2,696603.9,175837.3,685680.4,186765.6,0.0
186336.1,208134.9,711964.6,312350.3,696951.3,176072.4,685825.4,187042.6,0.0
186588.3,208300.5,711972.2,312492.5,697465.2,176250.0,686140.3,187327.4,0.0
186448.7,208164.1,711962.8,312383.2,697430.7,176128.8,686068.9,187227.4,0.0
186110.1,207911.5,711950.4,312173.4,696884.5,175880.3,685749.9,186883.5,0.0
186041.1,207895.6,711952.6,312154.9,696572.3,175850.7,685684.9,186766.8,0.0
186340.6,208141.2,711961.1,312353.2,696911.4,176080.0,685821.4,187037.9,0.0
186594.1,208309.5,711971.1,312495.2,697428.4,176257.3,686137.6,187325.2,0.0
186453.0,208172.2,711963.4,312381.5,697402.0,176139.2,686070.2,187231.0,0.0
186118.4,207925.1,711951.9,312175.7,696869.7,175894.9,685754.8,186891.0,0.0
186041.9,207894.4,711951.8,312150.4,696552.4,175847.9,685690.3,186765.3,0.0
186336.1,208127.7,711961.5,312340.2,696886.0,176069.0,685825.6,187033.1,0.0
186584.4,208291.7,711967.2,312471.9,697390.6,176242.4,686128.4,187310.8,0.0
186445.8,208159.0,711956.5,312370.3,697352.4,176125.8,686052.5,187213.3,0.0
186117.1,207918.3,711945.5,312183.3,696809.4,175881.0,685740.8,186877.5,0.0
186038.0,207891.9,711945.6,312148.7,696484.4,175840.1,685683.5,186754.4,0.0
186332.0,208127.3,711956.8,312331.7,696821.4,176066.5,685829.4,187029.0,0.0
186590.0,208298.1,711965.4,312478.8,697337.2,176248.1,686142.6,187317.4,0.0
186452.3,208164.9,711955.3,312369.1,697307.9,176130.7,686075.0,187221.6,0.0
186116.0,207915.3,711945.2,312161.3,696768.4,175880.3,685764.8,186880.5,0.0
186044.5,207893.9,711950.4,312145.9,696453.1,175846.0,685713.9,186764.3,0.0
186337.7,208131.9,711961.6,312339.9,696786.9,176072.6,685854.8,187034.8,0.0
186587.1,208294.2,711966.1,312475.3,697291.3,176241.4,686157.4,187314.3,0.0
186453.9,208165.4,711956.6,312368.6,697262.4,176119.9,686088.1,187219.5,0.0
186121.1,207919.4,711944.7,312168.0,696724.8,175872.9,685756.8,186880.6,0.0
186040.8,207893.2,711945.8,312143.1,696401.4,175833.0,685696.0,186758.6,0.0
186342.3,208134.5,711960.6,312343.2,696742.6,176063.6,685846.9,187033.4,0.0
186594.3,208304.0,711966.5,312482.2,697254.8,176238.2,686157.4,187314.7,0.0
186463.9,208175.3,711961.1,312381.2,697237.4,176129.2,686098.3,187229.2,0.0
186122.5,207920.0,711948.9,312167.8,696694.8,175878.4,685761.0,186885.7,0.0
186040.1,207890.0,711948.1,312136.8,696363.8,175834.5,685690.9,186758.2,0.0
186342.3,208133.5,711961.8,312337.5,696705.6,176071.7,685841.3,187037.5,0.0
186597.9,208304.6,711971.4,312474.9,697224.1,176254.0,686159.5,187325.6,0.0
186457.7,208169.2,711964.0,312362.8,697194.9,176133.1,686092.1,187227.5,0.0
186114.1,207911.7,711948.6,312154.8,696642.5,175876.2,685756.3,186880.3,0.0
186033.5,207883.0,711948.1,312131.1,696309.1,175834.2,685682.2,186755.6,0.0
186333.5,208130.0,711961.5,312327.1,696639.9,176065.9,685822.8,187028.0,0.0
186591.3,208302.3,711969.4,312468.3,697151.5,176244.1,686140.1,187313.8,0.0
186464.9,208175.1,711961.4,312376.7,697132.7,176134.5,686082.6,187227.4,0.0
186123.7,207917.8,711947.9,312161.9,696583.0,175882.7,685748.3,186880.0,0.0
186039.4,207889.5,711948.3,312125.2,696252.9,175840.4,685675.6,186752.6,0.0
186331.7,208130.0,711963.3,312316.1,696593.4,176071.5,685822.4,187027.9,0.0
186587.4,208303.0,711970.9,312453.5,697106.5,176250.9,686135.2,187313.5,0.0
186460.9,208176.9,711960.8,312354.3,697085.6,176140.1,686070.8,187225.2,0.0
186124.2,207923.6,711947.4,312147.8,696544.3,175890.0,685747.9,186883.4,0.0
186048.4,207898.7,711949.3,312126.1,696220.9,175849.4,685683.0,186759.5,0.0
186343.7,208138.9,711962.1,312321.7,696554.4,176078.2,685821.9,187030.7,0.0
186592.3,208305.5,711970.5,312459.0,697070.1,176255.0,686136.0,187315.3,0.0
186461.6,208179.7,711963.2,312356.1,697052.3,176142.0,686077.1,187226.8,0.0
186131.4,207935.9,711955.8,312161.1,696518.0,175898.7,685756.6,186891.7,0.0
186056.6,207912.5,711955.3,312141.2,696188.3,175854.1,685694.0,186765.2,0.0
186335.9,208137.0,711964.6,312317.7,696504.0,176072.5,685821.6,187022.7,0.0
186590.0,208305.8,711972.0,312454.0,697015.9,176256.3,686130.6,187312.4,0.0
186466.4,208182.7,711967.0,312358.4,697007.4,176150.3,686080.8,187234.4,0.0
186125.0,207927.7,711955.3,312148.0,696465.6,175896.5,685752.7,186893.0,0.0
186042.6,207898.3,711954.3,312125.1,696128.5,175851.3,685686.6,186766.2,0.0
186330.0,208131.0,711962.0,312310.5,696443.8,176068.1,685815.8,187026.5,0.0
186584.4,208301.2,711969.3,312445.6,696955.1,176247.2,686125.4,187311.1,0.0
186456.8,208178.0,711963.6,312348.9,696943.8,176142.3,686076.1,187229.0,0.0
186117.7,207923.9,711951.6,312146.4,696399.8,175893.8,685748.1,186887.6,0.0
186029.2,207889.3,711952.2,312113.7,696061.0,175849.0,685689.8,186757.1,0.0
186321.8,208126.1,711964.0,312303.7,696384.4,176075.2,685832.3,187024.1,0.0
186582.5,208302.3,711973.0,312444.2,696902.8,176258.1,686142.2,187315.9,0.0
186459.9,208180.9,711966.1,312347.1,696893.3,176151.1,686089.3,187235.2,0.0
186122.0,207928.0,711953.9,312148.8,696353.3,175900.4,685760.7,186893.9,0.0
186029.0,207888.6,711952.6,312099.0,696013.4,175849.8,685697.8,186752.8,0.0
186327.3,208130.7,711966.4,312293.5,696346.8,176082.0,685850.6,187022.2,0.0
186589.8,208306.0,711975.9,312437.1,696870.5,176264.6,686162.9,187314.6,0.0
186459.4,208178.4,711965.5,312330.2,696853.6,176151.9,686102.6,187225.7,0.0
186124.6,207933.2,711954.3,312131.9,696318.3,175904.1,685771.3,186888.6,0.0
186035.0,207897.8,711956.0,312105.1,695981.9,175853.7,685698.4,186757.2,0.0
186327.1,208129.5,711965.7,312295.9,696303.8,176072.8,685831.5,187019.8,0.0
186591.8,208304.5,711973.8,312444.7,696821.6,176255.7,686146.2,187307.5,0.0
186464.6,208179.9,711966.7,312342.6,696810.1,176140.3,686089.6,187223.9,0.0
186128.8,207930.2,711954.7,312128.6,696278.4,175891.9,685768.1,186886.4,0.0
186048.4,207902.3,711958.4,312107.7,695952.6,175851.3,685688.2,186762.6,0.0
186341.9,208140.2,711972.0,312305.2,696284.5,176078.8,685825.6,187031.9,0.0
186598.3,208309.8,711978.2,312437.6,696800.3,176256.2,686145.3,187315.0,0.0
186470.2,208182.5,711970.4,312331.4,696786.9,176140.1,686086.5,187225.9,0.0
186124.5,207923.9,711952.4,312131.0,696234.1,175884.5,685753.1,186880.5,0.0
186034.7,207889.4,711949.4,312097.6,695887.2,175838.0,685681.9,186748.7,0.0
186330.4,208131.2,711962.6,312290.2,696209.6,176070.1,685825.9,187018.6,0.0
186593.6,208307.6,711972.4,312434.4,696729.2,176255.7,686137.8,187313.3,0.0
186465.1,208181.6,711964.1,312334.7,696719.9,176146.3,686084.5,187230.6,0.0
186123.5,207928.3,711950.3,312132.7,696178.9,175895.1,685754.9,186886.6,0.0
186038.4,207899.3,711951.6,312101.6,695844.4,175853.5,685690.1,186760.2,0.0
186327.2,208134.6,711961.4,312288.2,696160.9,176080.5,685821.9,187023.4,0.0
186589.1,208310.5,711970.1,312434.3,696682.4,176268.7,686140.4,187318.4,0.0
186462.8,208184.2,711963.6,312329.7,696678.7,176159.6,686091.7,187241.6,0.0
186125.7,207933.0,711952.4,312122.0,696144.9,175908.6,685770.3,186907.0,0.0
186033.9,207895.6,711953.4,312093.9,695804.4,175853.8,685700.7,186771.9,0.0
186322.9,208130.1,711964.8,312283.6,696122.1,176075.8,685833.1,187033.6,0.0
186586.2,208306.3,711974.4,312431.6,696643.4,176260.8,686149.4,187326.0,0.0
186469.8,208189.9,711968.6,312344.1,696643.4,176158.5,686103.8,187253.8,0.0
186131.4,207936.3,711954.8,312137.4,696106.9,175905.9,685770.6,186912.5,0.0
186037.0,207895.9,711952.1,312085.9,695760.6,175848.5,685689.1,186770.2,0.0
186331.0,208135.9,711966.7,312281.8,696085.5,176076.4,685826.6,187037.1,0.0
186585.4,208307.9,711977.7,312424.1,696604.6,176259.5,686142.0,187327.7,0.0
186465.3,208191.8,711972.0,312331.0,696605.2,176156.7,686097.0,187252.6,0.0
186128.9,207942.4,711958.2,312131.5,696070.6,175911.3,685774.9,186915.6,0.0
186034.7,207904.8,711956.2,312092.0,695724.8,175861.2,685700.9,186778.7,0.0
