EEG 1,EEG 2,EEG 3,EEG 4,EEG 5,EEG 6,EEG 7,EEG 8,TRIG
188899.3,210423.4,712123.6,335842.1,712081.3,176584.4,704718.4,187158.2,0.0
188608.0,210224.9,712116.9,335662.1,712074.7,176384.2,704277.5,186856.9,0.0
188693.0,210321.7,712127.8,335719.3,712085.3,176466.0,704207.0,186901.8,0.0
189042.8,210587.6,712138.1,335911.6,712095.4,176723.3,704549.0,187234.7,0.0
189177.8,210659.8,712138.9,335952.4,712096.9,176809.7,704785.5,187403.9,0.0
188897.7,210429.4,712126.4,335753.3,712084.5,176599.9,704525.1,187172.1,0.0
188601.6,210225.9,712118.0,335569.5,712075.8,176390.4,704076.6,186864.7,0.0
188680.6,210317.0,712122.7,335627.6,712080.8,176468.6,703993.1,186901.5,0.0
189026.1,210579.5,712132.3,335816.0,712090.1,176723.9,704322.6,187229.8,0.0
189157.1,210647.6,712130.1,335845.4,712087.8,176801.9,704543.2,187389.4,0.0
188881.7,210423.5,712120.3,335647.4,712077.8,176596.5,704291.8,187161.4,0.0
188582.8,210214.8,712113.0,335464.9,712070.6,176385.9,703849.4,186854.4,0.0
188663.7,210304.7,712119.0,335522.2,712076.9,176461.0,703764.2,186889.3,0.0
189020.2,210573.5,712127.9,335715.6,712085.8,176720.8,704095.9,187218.0,0.0
189155.6,210643.7,712125.2,335752.6,712083.2,176800.9,704318.5,187381.0,0.0
188887.6,210423.6,712114.6,335560.1,712072.4,176594.6,704068.6,187154.6,0.0
188594.6,210223.0,712108.9,335382.0,712066.4,176389.8,703631.9,186851.6,0.0
188673.4,210313.9,712115.6,335439.3,712073.1,176466.7,703545.0,186886.5,0.0
189020.3,210575.4,712126.0,335633.4,712083.3,176725.8,703871.9,187215.8,0.0
189154.7,210647.7,712122.9,335668.5,712080.7,176808.5,704096.4,187382.5,0.0
188879.3,210420.2,712109.7,335468.7,712067.3,176597.8,703845.8,187154.1,0.0
188577.5,210209.7,712104.1,335286.0,712061.7,176387.3,703406.8,186848.5,0.0
188659.8,210305.4,712114.2,335346.4,712071.6,176466.9,703328.7,186888.2,0.0
189014.1,210571.8,712125.2,335538.9,712082.7,176723.5,703659.9,187219.2,0.0
189150.0,210640.3,712125.4,335574.4,712083.1,176800.6,703889.6,187389.2,0.0
188872.2,210412.6,712110.9,335373.6,712068.5,176582.5,703636.2,187159.5,0.0
188559.1,210193.8,712097.8,335182.2,712055.2,176361.9,703177.5,186841.1,0.0
188644.5,210292.8,712105.4,335242.1,712063.1,176443.1,703092.9,186875.8,0.0
188999.6,210558.8,712116.7,335440.5,712074.4,176703.4,703425.4,187207.0,0.0
189136.8,210628.6,712113.8,335476.5,712071.4,176784.7,703649.1,187374.1,0.0
188862.9,210400.8,712100.5,335278.6,712058.2,176573.5,703393.7,187143.5,0.0
188566.6,210192.2,712095.3,335098.6,712052.9,176367.0,702956.9,186837.7,0.0
188646.1,210281.7,712103.8,335160.0,712061.1,176446.3,702871.0,186872.1,0.0
189001.6,210554.4,712114.9,335360.7,712072.0,176710.0,703199.4,187204.1,0.0
189143.7,210630.9,712113.6,335405.3,712071.4,176796.3,703430.8,187377.9,0.0
188874.9,210406.2,712102.5,335210.4,712060.3,176587.6,703184.5,187150.8,0.0
188574.3,210196.1,712095.3,335027.7,712052.6,176375.9,702745.7,186841.0,0.0
188647.5,210283.2,712101.3,335084.8,712058.8,176449.2,702656.9,186871.1,0.0
188994.1,210545.2,712111.9,335278.7,712069.6,176702.7,702976.6,187199.7,0.0
189136.8,210621.3,712110.2,335321.6,712067.3,176787.0,703202.4,187373.6,0.0
188872.6,210403.2,712100.3,335132.1,712057.8,176585.1,702964.3,187155.6,0.0
188569.3,210194.8,712092.8,334948.0,712050.5,176376.2,702526.8,186848.2,0.0
188643.5,210284.2,712097.9,335001.3,712055.4,176450.8,702436.6,186877.0,0.0
188993.7,210551.1,712109.9,335197.9,712067.3,176713.1,702764.8,187210.0,0.0
189130.7,210626.4,712108.2,335240.8,712065.3,176797.4,702988.9,187378.3,0.0
188865.2,210407.4,712098.6,335050.7,712056.3,176595.7,702752.2,187156.9,0.0
188565.0,210197.2,712092.9,334868.1,712050.4,176383.4,702316.5,186846.6,0.0
188636.8,210279.9,712098.1,334917.3,712055.4,176446.7,702221.9,186870.9,0.0
188988.3,210545.8,712107.5,335114.7,712064.6,176702.4,702541.8,187198.5,0.0
189129.6,210622.3,712104.4,335159.4,712061.6,176788.1,702765.2,187365.2,0.0
188868.8,210403.3,712093.6,334972.7,712051.1,176587.4,702529.4,187147.4,0.0
188558.3,210183.6,712082.9,334784.9,712040.4,176364.3,702081.6,186829.1,0.0
188630.8,210273.7,712089.6,334843.3,712047.4,176435.4,701986.9,186856.4,0.0
188986.3,210547.2,712100.8,335045.8,712058.6,176699.3,702312.9,187190.6,0.0
189143.7,210636.0,712101.5,335102.8,712058.8,176797.8,702552.0,187374.5,0.0
188882.5,210418.3,712090.5,334915.9,712047.8,176597.9,702318.3,187157.7,0.0
188573.5,210202.2,712081.9,334732.4,712039.3,176383.1,701876.3,186846.7,0.0
188637.6,210281.6,712086.1,334783.8,712043.6,176449.5,701774.7,186868.1,0.0
188992.8,210552.5,712097.6,334985.2,712055.6,176713.7,702101.7,187199.4,0.0
189147.7,210642.3,712100.3,335041.0,712057.9,176813.5,702349.9,187384.3,0.0
188884.0,210424.0,712091.1,334851.6,712048.5,176612.0,702124.3,187168.6,0.0
188578.4,210206.5,712085.3,334667.2,712043.0,176395.1,701687.8,186854.5,0.0
188641.2,210283.3,712090.8,334715.4,712048.8,176454.9,701584.1,186870.8,0.0
188989.3,210548.8,712100.6,334913.6,712058.8,176709.2,701904.4,187200.4,0.0
189132.5,210623.9,712097.9,334957.8,712055.4,176793.4,702132.4,187373.2,0.0
188868.2,210402.2,712085.8,334769.3,712043.6,176587.2,701894.8,187153.1,0.0
188561.7,210186.7,712077.4,334588.0,712035.1,176372.2,701460.6,186845.3,0.0
188626.7,210270.6,712085.2,334641.6,712042.9,176439.4,701362.1,186866.8,0.0
188981.1,210540.0,712098.1,334844.2,712055.8,176704.1,701686.1,187198.7,0.0
189130.1,210623.5,712097.8,334893.4,712055.6,176797.7,701924.0,187379.6,0.0
188870.7,210409.6,712087.6,334708.3,712045.3,176596.8,701697.8,187166.7,0.0
188570.1,210199.0,712083.6,334529.1,712040.6,176384.7,701272.0,186861.6,0.0
188634.9,210276.1,712090.5,334578.4,712047.6,176447.9,701172.3,186879.0,0.0
188981.0,210535.6,712100.3,334775.1,712057.6,176704.7,701486.4,187201.0,0.0
189130.5,210617.5,712097.4,334823.5,712054.6,176793.9,701714.4,187373.7,0.0
188875.1,210405.9,712086.3,334642.6,712043.3,176599.3,701488.7,187161.5,0.0
188565.6,210188.0,712077.8,334458.8,712035.1,176379.2,701048.9,186845.2,0.0
188623.6,210262.7,712081.8,334509.9,712039.2,176439.6,700940.9,186859.5,0.0
188975.9,210531.0,712094.3,334711.8,712051.6,176701.4,701257.3,187190.1,0.0
189135.0,210624.4,712095.9,334769.2,712053.8,176801.5,701501.6,187377.5,0.0
188873.4,210409.6,712084.5,334584.1,712042.4,176601.2,701276.7,187163.4,0.0
188559.8,210189.4,712078.1,334399.1,712035.3,176385.3,700840.9,186847.9,0.0
188622.6,210271.5,712082.4,334450.9,712039.8,176450.8,700735.0,186864.2,0.0
188971.6,210538.2,712091.5,334649.6,712049.1,176705.5,701044.6,187189.6,0.0
189129.6,210624.9,712093.8,334709.3,712050.8,176804.5,701287.6,187377.2,0.0
188873.0,210405.7,712082.6,334527.6,712040.0,176604.2,701064.8,187162.7,0.0
188573.5,210193.7,712076.8,334350.0,712034.4,176390.9,700637.9,186854.3,0.0
188625.0,210264.0,712080.7,334395.3,712038.3,176446.9,700524.1,186862.3,0.0
188967.0,210528.7,712090.3,334593.8,712047.8,176701.0,700834.9,187184.2,0.0
189126.3,210620.2,712090.8,334651.0,712048.5,176797.7,701075.8,187368.3,0.0
188868.9,210404.5,712079.9,334467.6,712037.8,176598.5,700855.3,187156.8,0.0
188560.2,210189.9,712077.2,334287.9,712034.5,176385.7,700430.8,186849.2,0.0
188615.5,210267.8,712084.8,334335.9,712042.1,176445.4,700324.4,186862.5,0.0
188961.1,210530.7,712094.9,334530.6,712052.5,176697.8,700632.4,187183.7,0.0
189121.7,210621.9,712095.7,334589.7,712053.1,176796.5,700879.1,187376.1,0.0
188866.8,210407.7,712085.8,334410.1,712042.9,176601.0,700662.5,187169.1,0.0
188557.4,210191.7,712079.3,334226.8,712036.3,176385.6,700228.8,186854.0,0.0
188607.4,210261.6,712081.3,334271.1,712038.2,176441.2,700113.1,186859.8,0.0
188954.8,210525.8,712090.1,334471.0,712047.1,176697.7,700418.7,187180.9,0.0
189112.0,210613.5,712089.5,334531.7,712046.7,176793.7,700657.8,187368.5,0.0
188866.7,210407.8,712080.7,334357.9,712037.3,176604.4,700448.8,187166.8,0.0
188558.5,210190.1,712072.9,334171.5,712029.5,176384.1,700014.6,186848.1,0.0
188606.5,210258.7,712074.1,334214.0,712031.1,176431.1,699888.3,186845.6,0.0
188957.9,210528.0,712088.3,334419.5,712045.1,176691.8,700204.0,187176.6,0.0
189118.8,210617.6,712091.6,334482.3,712048.2,176793.5,700455.7,187370.9,0.0
188867.0,210400.3,712080.2,334300.4,712037.0,176597.5,700238.4,187162.6,0.0
188562.1,210184.5,712072.8,334120.6,712029.4,176382.3,699805.9,186850.4,0.0
188614.9,210254.9,712078.0,334169.4,712034.7,176437.7,699693.8,186859.8,0.0
188960.0,210519.4,712087.2,334367.4,712043.8,176689.6,699998.4,187177.5,0.0
189119.1,210610.4,712088.0,334426.0,712044.6,176785.4,700240.9,187364.6,0.0
188867.8,210399.1,712076.4,334248.8,712033.6,176591.7,700027.7,187161.3,0.0
188555.4,210176.5,712069.8,334064.6,712026.8,176374.1,699595.9,186844.1,0.0
188607.9,210248.5,712076.2,334110.8,712033.4,176431.1,699482.1,186851.3,0.0
188954.4,210512.9,712086.8,334314.9,712044.3,176686.5,699790.1,187172.1,0.0
189118.3,210606.9,712089.4,334378.9,712046.7,176792.6,700039.5,187363.8,0.0
188862.9,210391.0,712077.4,334195.1,712034.4,176593.4,699818.3,187152.2,0.0
188547.0,210170.2,712068.1,334006.9,712025.4,176373.4,699380.3,186833.4,0.0
188598.5,210242.8,712075.6,334056.2,712033.0,176435.9,699275.8,186848.6,0.0
188947.5,210511.0,712084.9,334258.5,712041.9,176690.5,699583.6,187174.4,0.0
189117.8,210610.5,712087.6,334327.8,712044.4,176796.9,699838.3,187372.2,0.0
188870.1,210400.4,712079.6,334152.4,712036.5,176606.6,699632.1,187169.8,0.0
188548.4,210168.9,712068.6,333960.3,712025.8,176378.0,699190.6,186845.1,0.0
188596.3,210235.4,712073.3,334005.9,712030.3,176429.8,699075.9,186851.7,0.0
188943.2,210500.2,712084.9,334209.9,712042.4,176687.2,699382.8,187174.2,0.0
189107.7,210596.8,712085.2,334277.2,712042.4,176792.6,699630.3,187364.5,0.0
188864.4,210393.4,712074.3,334099.9,712031.1,176598.3,699421.0,187161.5,0.0
188545.5,210168.1,712065.6,333911.1,712022.8,176371.8,698987.2,186839.0,0.0
188591.5,210237.4,712070.2,333957.5,712027.4,176427.2,698865.5,186839.0,0.0
188941.5,210507.8,712081.3,334160.7,712038.1,176688.4,699173.6,187162.7,0.0
189106.3,210601.5,712081.3,334223.2,712038.4,176790.9,699424.4,187355.8,0.0
188859.8,210394.1,712069.6,334051.5,712026.6,176597.9,699219.6,187155.9,0.0
188549.8,210171.9,712063.6,333868.8,712020.8,176375.9,698791.5,186840.3,0.0
188596.7,210240.4,712069.7,333915.9,712026.9,176430.2,698669.3,186840.9,0.0
188945.7,210512.6,712080.2,334123.6,712037.0,176686.7,698973.7,187163.7,0.0
189111.1,210607.0,712080.5,334188.8,712037.4,176789.4,699221.9,187360.1,0.0
188861.6,210397.5,712071.2,334012.1,712027.8,176594.7,699012.9,187158.8,0.0
188546.5,210174.4,712063.1,333829.5,712020.1,176375.6,698579.5,186842.4,0.0
188589.5,210238.3,712065.4,333870.3,712022.6,176427.6,698453.8,186839.0,0.0
188933.0,210505.1,712076.4,334071.7,712033.2,176687.8,698751.6,187157.2,0.0
189107.5,210609.0,712080.3,334144.4,712037.1,176803.0,699011.5,187362.7,0.0
188872.8,210409.3,712073.1,333978.7,712030.1,176620.6,698820.5,187172.0,0.0
188558.4,210184.9,712067.6,333791.6,712024.5,176390.7,698389.9,186852.5,0.0
188602.3,210248.5,712074.4,333834.3,712031.1,176436.7,698271.2,186851.9,0.0
188948.9,210514.6,712083.8,334034.2,712040.8,176687.8,698571.5,187169.0,0.0
189118.0,210612.2,712085.1,334101.4,712042.1,176792.5,698819.4,187362.4,0.0
188873.0,210404.4,712076.2,333930.1,712032.8,176606.9,698621.1,187167.6,0.0
188549.4,210173.0,712067.3,333739.9,712024.1,176379.5,698187.8,186847.5,0.0
188594.1,210237.1,712073.7,333786.0,712030.5,176430.2,698068.4,186850.7,0.0
188943.7,210508.5,712086.6,333992.4,712043.6,176694.7,698380.8,187179.2,0.0
189109.3,210604.8,712088.7,334057.8,712045.3,176801.0,698632.5,187373.8,0.0
188861.8,210394.1,712075.3,333881.6,712032.6,176609.0,698421.8,187168.5,0.0
188535.9,210162.2,712063.1,333688.0,712020.5,176378.0,697974.0,186838.4,0.0
188573.7,210221.9,712067.3,333728.6,712024.3,176422.2,697843.1,186832.8,0.0
188921.7,210490.5,712079.9,333933.3,712037.5,176676.5,698145.4,187154.8,0.0
189094.1,210589.1,712079.1,334000.0,712037.3,176780.4,698395.1,187350.9,0.0
188855.1,210383.8,712069.2,333830.7,712026.9,176593.3,698200.6,187158.2,0.0
188532.2,210156.4,712061.4,333644.4,712019.1,176365.3,697766.3,186835.9,0.0
188567.7,210218.8,712065.8,333685.7,712023.3,176410.8,697636.3,186830.0,0.0
188916.5,210486.3,712078.3,333888.9,712035.8,176667.1,697937.4,187151.3,0.0
189098.1,210594.9,712081.8,333962.8,712039.3,176782.1,698201.0,187358.5,0.0
188855.8,210390.4,712072.3,333790.3,712029.9,176595.0,698005.3,187164.0,0.0
188536.1,210162.7,712064.9,333604.1,712022.4,176374.0,697574.4,186844.2,0.0
188573.1,210220.6,712071.4,333645.8,712029.2,176424.1,697447.4,186836.7,0.0
188920.6,210490.9,712082.6,333850.4,712040.1,176683.0,697747.8,187158.3,0.0
189096.7,210596.4,712084.8,333925.4,712041.6,176798.3,698004.3,187364.0,0.0
188856.7,210390.1,712072.4,333752.3,712029.4,176602.8,697806.6,187165.9,0.0
188526.5,210153.5,712062.4,333556.7,712019.6,176363.5,697360.3,186831.6,0.0
188557.0,210208.6,712066.2,333597.5,712023.6,176406.1,697223.6,186819.8,0.0
188911.0,210482.5,712079.9,333814.3,712037.2,176673.2,697530.5,187148.4,0.0
189101.2,210599.1,712084.9,333901.0,712042.4,176797.8,697800.1,187364.2,0.0
188868.0,210400.6,712073.9,333733.4,712031.7,176612.9,697609.9,187173.3,0.0
188545.0,210168.6,712064.6,333539.7,712022.2,176379.0,697172.8,186844.7,0.0
188568.0,210217.5,712066.8,333570.4,712024.1,176411.0,697025.9,186821.3,0.0
188918.6,210486.7,712078.1,333777.5,712035.3,176670.3,697328.1,187142.6,0.0
189105.9,210598.7,712082.2,333858.1,712039.3,176792.1,697601.1,187355.8,0.0
188868.6,210396.9,712072.2,333691.3,712029.1,176608.0,697414.4,187167.1,0.0
188550.2,210172.8,712067.3,333519.2,712023.9,176388.4,696993.8,186853.7,0.0
188576.8,210227.8,712073.3,333562.2,712029.9,176428.2,696856.2,186838.3,0.0
188919.0,210492.3,712083.3,333766.4,712040.3,176681.2,697149.7,187155.2,0.0
189098.8,210597.9,712085.1,333842.3,712042.2,176798.0,697409.1,187362.8,0.0
188865.9,210399.3,712073.9,333666.8,712031.1,176612.8,697215.4,187171.1,0.0
188543.3,210170.3,712064.5,333470.0,712021.4,176383.6,696776.9,186843.8,0.0
188573.6,210226.5,712068.1,333507.0,712024.9,176426.8,696639.9,186832.3,0.0
188924.8,210499.8,712080.1,333715.6,712037.2,176686.4,696942.1,187157.3,0.0
189109.3,210612.6,712083.5,333795.3,712040.4,176806.8,697209.5,187369.4,0.0
188874.3,210412.5,712073.9,333623.8,712030.8,176624.6,697021.8,187179.1,0.0
188547.3,210177.9,712064.9,333428.7,712021.8,176389.8,696585.7,186851.5,0.0
188573.3,210230.7,712070.8,333465.6,712027.6,176430.6,696451.7,186838.6,0.0
188921.1,210498.8,712081.8,333670.4,712038.8,176685.6,696746.4,187156.9,0.0
189108.3,210608.9,712084.4,333749.2,712041.5,176798.3,697007.6,187364.3,0.0
188872.9,210406.6,712072.9,333584.1,712030.1,176614.2,696820.7,187178.7,0.0
188544.3,210171.7,712062.9,333389.7,712020.5,176383.3,696381.7,186850.4,0.0
188570.9,210225.7,712065.6,333421.3,712023.1,176421.3,696235.3,186826.5,0.0
188918.3,210491.0,712079.1,333626.3,712036.3,176675.4,696529.1,187144.0,0.0
189113.9,210610.8,712084.7,333714.1,712041.7,176801.5,696804.1,187362.3,0.0
188893.0,210421.4,712073.9,333552.5,712031.1,176622.7,696626.3,187182.2,0.0
188567.9,210183.8,712063.7,333360.0,712020.7,176389.1,696185.7,186854.4,0.0
188598.0,210237.5,712069.8,333400.3,712026.5,176427.0,696048.6,186839.2,0.0
188949.4,210508.1,712084.5,333611.4,712041.3,176686.9,696350.8,187161.1,0.0
189139.7,210623.5,712088.0,333695.7,712044.9,176810.1,696621.8,187375.9,0.0
188910.8,210427.5,712076.3,333531.1,712033.1,176629.6,696438.9,187190.4,0.0
188587.6,210194.5,712067.8,333337.5,712024.5,176400.3,696001.4,186864.3,0.0
188614.0,210247.7,712072.8,333370.8,712029.5,176436.6,695857.5,186844.4,0.0
188961.6,210515.8,712082.9,333575.6,712040.1,176693.9,696151.2,187162.2,0.0
189150.6,210628.9,712085.4,333657.8,712042.7,176811.8,696418.8,187377.0,0.0
188919.5,210427.6,712074.9,333491.7,712031.9,176627.8,696233.8,187191.9,0.0
188599.2,210200.2,712069.1,333304.4,712026.2,176402.6,695802.8,186869.6,0.0
188619.8,210249.5,712073.6,333339.3,712030.8,176436.8,695658.2,186848.2,0.0
188962.8,210517.1,712082.6,333542.8,712039.9,176688.8,695946.6,187163.6,0.0
189149.8,210627.8,712086.9,333623.6,712043.9,176810.0,696214.8,187379.0,0.0
188918.2,210425.0,712075.2,333458.0,712032.4,176624.7,696032.4,187194.5,0.0
188596.5,210194.9,712072.0,333270.0,712029.0,176397.6,695612.9,186877.4,0.0
188607.6,210235.0,712075.6,333296.5,712032.9,176429.0,695461.7,186849.2,0.0
188941.4,210495.0,712082.9,333497.1,712040.3,176681.2,695736.9,187155.7,0.0
189132.5,210613.4,712082.7,333580.0,712039.7,176804.5,696003.9,187371.8,0.0
188907.9,210416.4,712072.3,333415.1,712029.1,176626.7,695828.9,187190.0,0.0
188577.9,210177.8,712062.1,333220.4,712019.3,176390.5,695388.6,186857.9,0.0
188597.2,210226.9,712068.6,333253.8,712025.5,176425.0,695239.7,186833.2,0.0
188935.4,210487.9,712076.2,333455.7,712033.3,176674.4,695515.8,187138.4,0.0
189136.1,210613.3,712079.9,333551.5,712036.9,176807.7,695792.6,187365.7,0.0
188906.1,210419.6,712070.2,333387.0,712027.0,176628.3,695616.6,187186.0,0.0
188572.8,210181.1,712061.6,333188.9,712018.9,176394.3,695179.3,186856.4,0.0
188588.5,210226.8,712068.1,333221.0,712025.7,176428.0,695031.8,186830.6,0.0
188932.1,210492.9,712076.4,333428.2,712033.8,176683.7,695321.3,187146.5,0.0
189118.8,210604.2,712074.9,333509.2,712032.1,176803.1,695582.4,187359.0,0.0
188899.0,210415.3,712068.6,333352.5,712025.7,176631.2,695415.2,187188.2,0.0
188570.0,210177.6,712059.2,333159.8,712016.6,176396.5,694979.8,186860.7,0.0
188587.6,210224.0,712064.0,333191.4,712021.6,176430.7,694830.5,186835.4,0.0
188930.0,210493.2,712076.6,333394.2,712033.7,176685.5,695120.0,187152.4,0.0
189117.5,210604.0,712077.7,333472.7,712034.6,176802.8,695386.3,187367.9,0.0
188903.0,210418.5,712069.1,333319.2,712026.3,176634.5,695220.9,187198.8,0.0
188578.6,210188.0,712061.3,333130.3,712018.3,176406.1,694791.8,186877.6,0.0
188582.7,210224.1,712064.8,333153.2,712021.9,176426.3,694629.9,186840.3,0.0
188920.4,210486.9,712078.3,333353.8,712035.4,176675.4,694915.6,187146.6,0.0
189111.3,210598.1,712078.7,333436.2,712036.1,176794.5,695185.8,187360.9,0.0
188898.5,210412.9,712070.6,333285.3,712028.1,176626.3,695027.0,187195.9,0.0
188570.0,210176.8,712061.8,333091.3,712018.9,176390.7,694592.9,186867.4,0.0
188582.6,210218.3,712066.2,333119.1,712023.2,176416.9,694436.8,186836.2,0.0
188931.5,210489.4,712079.3,333329.3,712036.1,176675.4,694731.9,187155.0,0.0
189129.5,210610.8,712082.6,333421.6,712039.5,176806.9,695007.9,187379.4,0.0
188897.4,210408.5,712067.9,333254.8,712024.9,176622.8,694820.6,187193.7,0.0
188561.0,210165.9,712055.8,333054.3,712012.7,176381.6,694370.9,186855.0,0.0
188583.9,210218.6,712059.4,333088.5,712016.1,176420.2,694218.5,186829.7,0.0
188932.5,210491.2,712073.7,333296.9,712030.4,176684.2,694511.6,187149.8,0.0
189130.2,210607.8,712075.5,333383.4,712032.4,176808.0,694780.1,187368.6,0.0
188923.6,210423.7,712063.9,333230.8,712021.2,176634.6,694612.3,187198.9,0.0
188596.3,210188.8,712054.8,333040.2,712012.6,176401.8,694177.1,186872.0,0.0
188607.0,210231.5,712063.5,333068.8,712020.7,176431.2,694022.7,186841.8,0.0
188938.5,210485.7,712074.6,333267.7,712031.8,176676.8,694298.9,187148.6,0.0
189137.3,210606.8,712078.3,333357.9,712035.5,176807.8,694576.6,187375.4,0.0
188929.5,210431.2,712068.4,333206.1,712025.7,176643.4,694420.8,187211.3,0.0
188597.8,210196.8,712061.1,333010.7,712018.2,176405.1,693990.8,186885.1,0.0
188598.6,210228.5,712065.2,333032.7,712022.4,176426.6,693828.3,186848.6,0.0
188928.0,210481.9,712074.4,333228.1,712031.9,176671.4,694102.3,187149.1,0.0
189110.0,210586.9,712071.6,333304.8,712029.1,176785.1,694362.3,187358.5,0.0
188898.3,210404.8,712063.4,333159.8,712020.8,176621.5,694206.4,187197.8,0.0
188577.3,210182.7,712058.1,332981.0,712015.1,176399.4,693785.6,186880.1,0.0
188599.7,210239.3,712068.3,333021.6,712025.5,176440.9,693640.3,186859.8,0.0
188939.2,210500.4,712079.9,333221.7,712037.2,176690.5,693922.2,187166.8,0.0
189139.7,210620.1,712081.8,333306.5,712039.3,176816.1,694200.8,187387.6,0.0
188923.3,210433.3,712071.8,333151.3,712029.4,176645.8,694039.1,187216.8,0.0
188585.9,210190.5,712063.4,332955.6,712020.5,176409.9,693604.5,186882.9,0.0
188587.9,210226.5,712067.9,332979.8,712024.8,176432.6,693444.4,186842.9,0.0
188930.3,210493.6,712081.1,333184.9,712038.2,176686.7,693731.6,187154.4,0.0
189132.8,210617.7,712083.9,333275.2,712040.9,176819.3,694014.1,187380.8,0.0
188912.0,210427.7,712071.6,333117.2,712028.4,176646.4,693847.9,187210.5,0.0
188578.8,210188.6,712059.6,332919.1,712016.6,176407.9,693407.4,186871.9,0.0
188583.6,210225.0,712064.8,332944.5,712021.8,176429.8,693244.2,186830.6,0.0
188928.0,210495.2,712078.8,333155.6,712036.4,176686.0,693533.8,187147.4,0.0
189125.9,210613.0,712079.3,333247.0,712036.6,176814.4,693806.5,187371.1,0.0
188912.8,210427.9,712068.4,333093.7,712025.7,176645.9,693643.6,187203.7,0.0
188578.5,210187.8,712061.9,332899.6,712019.3,176408.3,693207.8,186873.6,0.0
188578.4,210221.9,712063.5,332919.0,712020.9,176427.2,693034.6,186830.6,0.0
188911.6,210479.1,712071.2,333118.5,712028.2,176672.0,693304.4,187135.0,0.0
189116.4,210606.0,712074.1,333215.0,712030.8,176808.2,693585.1,187369.1,0.0
188913.8,210431.2,712067.1,333069.3,712024.3,176652.1,693436.8,187213.9,0.0
188578.5,210190.5,712057.4,332870.7,712014.8,176414.4,693005.9,186881.3,0.0
188574.5,210220.0,712060.6,332891.1,712017.7,176431.1,692837.8,186836.0,0.0
188916.0,210488.7,712075.3,333102.0,712032.6,176689.0,693120.1,187150.8,0.0
189125.5,210620.9,712079.1,333199.8,712036.1,176827.8,693403.8,187384.1,0.0
188919.5,210439.4,712068.7,333048.3,712025.9,176662.7,693251.6,187222.5,0.0
188575.2,210188.9,712057.9,332845.0,712015.2,176419.3,692810.1,186882.9,0.0
188572.7,210219.2,712060.8,332866.6,712018.1,176433.9,692636.2,186838.1,0.0
188915.1,210486.2,712074.1,333078.2,712031.3,176690.5,692918.3,187153.2,0.0
189129.9,210619.3,712076.9,333180.8,712034.3,176833.6,693207.3,187388.5,0.0
188920.3,210435.3,712068.8,333026.6,712025.9,176666.2,693054.1,187224.8,0.0
188580.3,210190.5,712060.3,332825.9,712017.2,176420.4,692617.5,186888.7,0.0
188578.6,210223.9,712063.1,332846.3,712020.3,176433.4,692446.2,186843.1,0.0
188915.2,210487.9,712073.9,333048.8,712030.9,176683.9,692717.3,187147.0,0.0
189125.8,210619.9,712076.4,333142.6,712033.3,176818.2,693001.2,187377.4,0.0
188917.8,210435.1,712064.4,332990.0,712021.3,176646.4,692848.9,187215.1,0.0
188585.3,210196.8,712058.6,332796.9,712015.7,176412.0,692424.4,186887.7,0.0
188577.6,210224.5,712063.9,332816.1,712021.5,176430.7,692253.4,186840.3,0.0
188907.9,210481.1,712074.6,333015.8,712032.4,176680.4,692522.7,187143.4,0.0
189112.4,210607.6,712077.4,333108.6,712034.7,176814.9,692805.5,187373.6,0.0
188909.9,210431.5,712067.9,332962.1,712024.9,176650.8,692662.2,187215.0,0.0
188576.1,210193.9,712061.2,332768.1,712018.3,176412.8,692235.9,186885.5,0.0
188565.0,210219.4,712064.1,332782.7,712021.0,176426.3,692060.8,186833.0,0.0
188902.9,210480.7,712073.9,332987.3,712030.8,176677.5,692332.7,187139.6,0.0
189113.8,210610.9,712076.4,333086.5,712033.3,176815.2,692621.1,187377.5,0.0
188905.4,210429.4,712067.7,332937.5,712024.8,176651.1,692473.0,187218.7,0.0
188567.2,210188.3,712059.9,332735.6,712017.2,176412.1,692042.1,186886.2,0.0
188546.8,210202.3,712061.6,332742.0,712018.7,176415.1,691856.6,186824.3,0.0
188888.8,210468.8,712075.1,332951.6,712032.4,176671.6,692138.3,187135.3,0.0
189102.3,210600.9,712076.4,333053.6,712033.6,176810.6,692423.2,187369.8,0.0
188898.7,210422.1,712065.2,332907.1,712021.6,176647.5,692275.1,187213.0,0.0
188555.2,210172.8,712055.7,332703.3,712012.6,176400.8,691831.7,186872.8,0.0
188544.0,210198.0,712056.5,332721.2,712013.6,176409.2,691646.1,186815.4,0.0
188885.9,210466.5,712068.5,332933.1,712025.7,176662.8,691921.4,187124.9,0.0
189105.6,210604.9,712074.4,333037.8,712031.7,176811.5,692215.4,187368.7,0.0
188905.7,210425.6,712065.8,332889.3,712022.8,176650.9,692073.3,187215.0,0.0
188565.5,210181.0,712058.1,332689.0,712014.9,176405.0,691641.5,186877.4,0.0
188550.1,210204.6,712061.4,332703.4,712018.3,176413.1,691459.1,186821.4,0.0
188889.8,210472.0,712073.6,332911.9,712030.8,176670.8,691733.3,187130.5,0.0
189111.2,210614.2,712077.6,333016.0,712034.4,176818.3,692030.9,187375.0,0.0
188911.0,210438.2,712068.4,332867.9,712025.1,176663.6,691891.8,187223.7,0.0
188570.1,210190.5,712059.0,332667.7,712015.8,176419.5,691456.9,186887.4,0.0
188553.6,210210.1,712060.8,332679.3,712017.8,176419.7,691272.1,186828.4,0.0
188888.8,210470.5,712072.7,332882.8,712029.5,176668.8,691542.1,187132.5,0.0
189106.2,210606.5,712076.4,332988.1,712033.1,176815.3,691835.1,187373.7,0.0
188912.0,210439.5,712068.6,332850.6,712025.6,176667.2,691701.3,187228.1,0.0
188568.6,210191.3,712058.5,332646.8,712015.8,176421.3,691262.0,186887.8,0.0
188549.6,210207.9,712062.1,332653.6,712019.3,176419.5,691076.8,186827.0,0.0
188885.5,210471.5,712077.4,332858.8,712034.6,176668.5,691354.0,187137.2,0.0
189097.6,210603.9,712079.8,332957.2,712036.7,176807.5,691644.0,187374.6,0.0
188890.8,210419.4,712067.3,332805.3,712024.1,176638.4,691494.5,187212.0,0.0
188551.7,210173.1,712057.1,332606.7,712013.9,176395.9,691056.9,186873.9,0.0
188534.6,210191.9,712059.8,332621.4,712016.4,176402.3,690869.5,186815.4,0.0
188863.5,210450.0,712067.2,332825.3,712024.0,176649.1,691129.1,187114.6,0.0
189090.8,210597.2,712071.0,332937.9,712027.9,176801.5,691426.1,187363.3,0.0
188906.0,210431.1,712061.4,332801.7,712018.3,176650.7,691297.2,187221.8,0.0
188563.1,210182.5,712052.4,332597.6,712009.1,176404.3,690862.1,186885.5,0.0
188545.6,210204.2,712058.1,332611.3,712014.9,176412.4,690679.5,186829.9,0.0
188880.8,210467.3,712072.3,332816.2,712028.8,176668.0,690952.2,187136.7,0.0
189101.2,210603.9,712077.7,332919.5,712034.1,176815.2,691250.2,187381.6,0.0
188906.3,210430.2,712070.8,332774.9,712027.2,176658.1,691115.5,187231.3,0.0
188555.8,210175.4,712058.3,332568.0,712014.3,176410.0,690676.4,186886.9,0.0
188525.9,210186.5,712057.6,332575.3,712013.6,176410.3,690481.1,186818.9,0.0
188857.9,210447.9,712070.2,332780.8,712026.5,176660.1,690745.8,187118.5,0.0
189077.7,210586.5,712071.3,332884.2,712027.8,176804.7,691033.6,187356.0,0.0
188884.9,210414.8,712062.3,332743.6,712019.1,176649.6,690899.3,187210.0,0.0
188552.3,210175.0,712056.2,332548.7,712013.0,176411.5,690477.3,186886.3,0.0
188535.7,210194.9,712061.4,332561.3,712018.3,176422.9,690291.8,186829.4,0.0
188868.0,210455.7,712072.2,332762.2,712029.3,176669.0,690551.0,187124.6,0.0
189098.5,210602.1,712077.8,332875.1,712034.9,176809.7,690855.6,187372.6,0.0
188903.5,210430.2,712068.9,332733.3,712026.2,176650.9,690725.0,187227.7,0.0
188554.8,210177.8,712055.3,332526.3,712012.5,176402.3,690284.6,186886.5,0.0
188527.6,210189.4,712058.3,332530.4,712015.6,176401.5,690094.7,186820.3,0.0
188854.3,210446.5,712069.7,332729.9,712026.5,176646.1,690358.3,187113.7,0.0
189078.9,210588.9,712072.4,332836.4,712028.6,176793.5,690649.6,187356.0,0.0
188891.2,210418.3,712062.3,332700.9,712018.9,176641.2,690520.7,187214.7,0.0
188554.0,210174.0,712053.6,332502.3,712010.5,176399.4,690087.0,186877.3,0.0
188533.0,210192.1,712057.8,332510.7,712014.3,176400.5,689891.3,186809.3,0.0
188870.3,210457.5,712072.2,332720.4,712028.6,176656.2,690162.0,187113.3,0.0
189100.1,210604.9,712076.6,332835.4,712033.1,176812.0,690465.6,187364.8,0.0
188913.0,210436.6,712068.3,332695.7,712024.9,176658.5,690342.9,187223.7,0.0
188568.5,210184.7,712061.0,332494.6,712017.8,176413.1,689915.1,186887.7,0.0
188538.0,210194.0,712060.8,332497.5,712017.9,176406.6,689711.2,186814.7,0.0
188865.2,210453.0,712069.5,332700.5,712026.1,176650.8,689964.9,187108.8,0.0
189085.0,210592.1,712072.3,332809.7,712028.9,176801.9,690257.8,187358.7,0.0
188894.8,210423.0,712061.4,332668.5,712018.2,176652.9,690128.8,187221.7,0.0
188557.5,210180.5,712053.8,332468.4,712010.5,176414.5,689703.2,186893.1,0.0
188530.7,210192.8,712058.3,332474.9,712014.8,176416.8,689509.3,186826.8,0.0
188860.0,210450.7,712069.7,332676.8,712026.2,176661.6,689767.4,187122.1,0.0
189088.3,210599.9,712073.8,332787.7,712030.3,176813.3,690069.6,187371.2,0.0
188898.8,210429.4,712065.0,332648.9,712021.6,176660.5,689948.1,187230.8,0.0
188555.8,210179.3,712054.8,332441.3,712011.8,176409.7,689513.8,186890.5,0.0
188535.7,210195.9,712060.9,332451.1,712017.9,176411.2,689324.2,186825.4,0.0
188858.5,210446.3,712069.1,332648.5,712026.2,176650.0,689567.1,187109.8,0.0
189090.6,210595.5,712072.6,332764.8,712029.0,176808.9,689867.1,187361.1,0.0
188911.0,210431.4,712064.6,332628.8,712021.2,176661.3,689747.5,187225.7,0.0
188562.0,210176.3,712055.6,332424.7,712012.3,176414.4,689315.4,186887.7,0.0
188532.1,210191.0,712060.4,332428.2,712016.8,176412.3,689118.6,186817.8,0.0
188862.7,210450.0,712071.7,332628.8,712028.1,176655.7,689377.0,187112.6,0.0
189100.1,210602.3,712075.1,332748.9,712031.5,176813.4,689687.6,187373.0,0.0
188916.2,210434.2,712066.5,332614.9,712023.1,176665.4,689569.3,187240.5,0.0
188576.0,210184.5,712058.6,332414.5,712015.4,176419.5,689137.1,186902.9,0.0
188544.7,210192.8,712062.3,332418.2,712018.5,176416.6,688934.4,186828.5,0.0
188869.8,210447.3,712070.3,332619.7,712026.8,176658.9,689182.4,187117.9,0.0
189102.7,210594.3,712071.6,332735.9,712027.8,176811.7,689481.1,187369.6,0.0
188927.8,210437.9,712063.7,332603.8,712020.3,176670.7,689369.9,187241.0,0.0
188584.7,210188.8,712055.1,332399.9,712012.1,176424.5,688943.2,186905.4,0.0
188550.7,210196.4,712059.2,332401.2,712015.9,176417.2,688742.5,186830.6,0.0
188873.0,210453.0,712071.4,332602.8,712028.1,176664.1,688995.6,187122.3,0.0
189103.5,210602.0,712074.1,332715.9,712030.8,176821.1,689300.0,187376.4,0.0
188924.0,210437.8,712066.7,332582.0,712023.2,176676.4,689189.8,187245.8,0.0
188577.1,210183.2,712059.6,332374.9,712016.4,176429.6,688763.5,186908.3,0.0
188541.6,210191.0,712061.4,332372.3,712018.2,176418.8,688554.1,186827.0,0.0
188863.2,210444.5,712071.1,332571.3,712028.1,176658.4,688798.9,187113.6,0.0
189091.9,210591.3,712071.6,332683.8,712028.6,176810.3,689093.9,187361.7,0.0
188914.2,210434.4,712062.1,332553.1,712019.3,176669.6,688978.2,187233.4,0.0
188571.0,210185.8,712052.8,332351.8,712010.0,176427.5,688550.3,186899.3,0.0
188531.1,210187.2,712054.4,332350.7,712011.8,176417.7,688340.5,186816.7,0.0
188862.1,210449.6,712067.9,332549.6,712024.9,176660.4,688594.9,187108.5,0.0
189097.6,210600.2,712072.1,332666.0,712029.1,176813.8,688898.6,187363.0,0.0
188918.8,210436.8,712062.0,332534.1,712018.8,176669.4,688785.1,187234.6,0.0
188566.9,210176.1,712050.1,332324.9,712007.1,176416.2,688347.8,186891.1,0.0
188524.7,210176.5,712051.8,332324.1,712008.4,176406.4,688136.1,186808.3,0.0
188845.5,210428.7,712064.0,332523.4,712020.9,176650.7,688387.6,187100.3,0.0
189080.8,210582.0,712067.5,332638.7,712024.6,176807.5,688692.7,187354.7,0.0
188911.2,210429.4,712060.3,332511.9,712016.6,176671.7,688590.1,187234.2,0.0
188562.4,210173.7,712048.8,332303.8,712005.1,176422.5,688156.9,186893.3,0.0
188522.8,210175.6,712052.7,332301.1,712008.9,176411.0,687946.9,186809.6,0.0
188857.8,210439.6,712065.8,332508.6,712022.3,176663.2,688203.6,187104.0,0.0
189099.0,210595.9,712071.1,332630.4,712027.6,176829.0,688516.4,187366.3,0.0
188921.5,210436.8,712060.8,332495.5,712017.4,176683.2,688402.3,187235.1,0.0
188576.7,210187.0,712050.2,332291.2,712007.2,176433.0,687971.3,186898.6,0.0
188527.5,210181.6,712051.0,332281.6,712007.6,176410.3,687750.1,186809.3,0.0
188850.7,210436.8,712062.0,332481.0,712018.8,176654.3,687995.3,187097.3,0.0
189098.8,210600.6,712070.3,332609.4,712027.6,176828.3,688314.8,187366.5,0.0
188921.3,210442.0,712060.6,332477.8,712017.0,176686.9,688203.4,187239.1,0.0
188571.1,210183.6,712051.0,332270.2,712007.4,176437.5,687767.9,186900.4,0.0
188525.1,210182.0,712052.5,332265.0,712009.1,176424.2,687552.6,186817.1,0.0
188847.7,210439.1,712063.5,332462.4,712019.7,176663.6,687800.6,187104.9,0.0
189092.0,210596.5,712067.3,332582.3,712023.7,176823.4,688113.9,187368.6,0.0
188923.8,210440.9,712060.8,332453.7,712017.6,176680.7,688012.8,187245.1,0.0
188580.9,210190.5,712054.6,332249.8,712011.4,176434.5,687592.0,186911.8,0.0
188532.8,210188.0,712060.8,332245.5,712017.3,176417.4,687382.4,186828.0,0.0
188847.0,210437.0,712069.1,332439.5,712025.9,176650.9,687619.0,187108.2,0.0
189086.3,210594.9,712069.1,332558.5,712025.9,176809.4,687919.9,187362.4,0.0
188915.5,210438.2,712056.3,332430.2,712012.7,176666.9,687805.3,187233.3,0.0
188571.0,210188.1,712046.7,332227.8,712003.6,176421.1,687376.4,186897.8,0.0
188518.1,210180.7,712047.8,332223.8,712004.5,176403.9,687155.8,186810.0,0.0
188842.4,210437.5,712059.8,332425.1,712016.4,176650.7,687405.3,187101.8,0.0
189084.2,210594.8,712063.5,332544.9,712020.3,176813.3,687717.4,187364.7,0.0
188916.4,210439.9,712054.1,332418.7,712010.9,176675.0,687615.3,187245.0,0.0
188569.6,210185.8,712044.0,332211.3,712000.8,176427.5,687185.2,186904.3,0.0
188520.2,210182.9,712047.9,332205.2,712004.7,176412.9,686971.3,186817.5,0.0
188836.8,210431.9,712058.6,332401.6,712014.7,176649.8,687212.0,187100.5,0.0
189084.6,210591.7,712064.8,332527.6,712021.4,176814.7,687528.9,187366.1,0.0
188911.2,210434.0,712053.6,332393.8,712010.9,176671.2,687424.8,187242.5,0.0
188560.0,210176.1,712044.7,332185.7,712001.6,176419.7,686996.6,186904.3,0.0
188507.4,210172.2,712045.2,332177.3,712002.2,176398.9,686772.3,186809.0,0.0
188838.4,210438.6,712058.1,332385.1,712014.7,176649.0,687019.4,187100.6,0.0
189094.5,210609.8,712066.1,332521.0,712022.4,176825.6,687345.6,187376.3,0.0
188927.3,210453.6,712056.3,332393.1,712013.0,176686.8,687243.9,187253.2,0.0
188583.9,210199.8,712049.2,332188.2,712005.8,176441.8,686822.2,186918.5,0.0
188530.5,210188.4,712052.8,332178.5,712009.4,176422.4,686602.4,186827.3,0.0
188842.8,210435.3,712061.5,332370.5,712017.8,176656.8,686834.9,187104.0,0.0
189091.4,210600.9,712067.2,332496.6,712023.8,176822.8,687148.4,187369.8,0.0
188929.8,210453.5,712059.4,332371.4,712015.9,176688.5,687056.2,187254.5,0.0
188583.7,210197.9,712050.7,332166.6,712007.2,176437.3,686635.2,186918.9,0.0
188529.3,210187.4,712054.3,332155.7,712011.1,176414.5,686417.6,186827.0,0.0
188842.7,210436.9,712063.4,332351.7,712020.3,176649.6,686646.6,187103.4,0.0
189097.0,210606.7,712068.1,332485.2,712025.1,176823.6,686963.6,187372.7,0.0
188933.1,210455.4,712058.5,332360.4,712015.1,176688.2,686868.1,187251.8,0.0
188586.4,210200.6,712049.3,332157.5,712006.0,176439.0,686442.8,186915.0,0.0
188532.4,210192.0,712054.9,332151.0,712011.4,176420.0,686224.6,186826.0,0.0
188846.0,210438.2,712065.2,332346.0,712021.6,176654.9,686459.6,187104.5,0.0
189089.4,210598.1,712067.3,332466.1,712024.1,176817.0,686771.8,187366.1,0.0
188925.1,210446.7,712056.1,332341.5,712013.0,176683.8,686675.4,187249.3,0.0
188577.9,210194.8,712047.1,332135.7,712003.9,176438.6,686246.9,186913.0,0.0
188520.3,210185.5,712046.9,332124.2,712004.1,176415.6,686015.5,186813.9,0.0
188834.8,210437.0,712060.1,332322.9,712016.8,176657.7,686252.6,187096.2,0.0
189085.4,210597.5,712065.4,332448.4,712022.2,176825.8,686569.6,187365.1,0.0
188925.8,210445.0,712054.4,332327.4,712011.1,176693.8,686479.4,187255.6,0.0
188577.0,210188.1,712044.7,332119.0,712002.0,176437.0,686052.9,186917.0,0.0
188518.0,210175.5,712045.4,332106.1,712003.5,176407.4,685823.4,186816.6,0.0
188835.8,210431.0,712058.9,332306.8,712016.0,176649.5,686063.6,187100.0,0.0
189082.2,210591.3,712063.4,332430.2,712019.8,176818.3,686380.6,187366.9,0.0
188917.2,210440.9,712054.2,332304.4,712010.5,176685.6,686290.1,187253.9,0.0
188567.8,210185.8,712042.7,332096.1,711999.9,176433.1,685897.1,186915.0,0.0
188512.2,210176.5,712043.9,332086.8,712002.0,176408.7,685763.7,186817.2,0.0
188828.8,210427.3,712056.9,332286.5,712014.6,176647.1,685958.7,187095.7,0.0
189085.7,210595.5,712065.1,332415.3,712022.1,176820.6,686274.9,187367.1,0.0
188935.6,210455.4,712060.3,332299.0,712017.2,176695.8,686197.7,187263.9,0.0
188583.5,210195.3,712047.7,332090.9,712005.4,176440.1,685862.9,186926.0,0.0
188518.3,210179.1,712048.6,332070.6,712006.2,176407.2,685806.6,186817.0,0.0
188826.8,210424.2,712059.2,332264.3,712016.1,176641.5,685956.6,187088.5,0.0
189091.2,210602.0,712067.4,332404.0,712023.7,176821.3,686265.2,187366.9,0.0
188938.0,210455.0,712060.1,332286.8,712017.3,176698.1,686185.4,187263.9,0.0
188581.9,210191.8,712047.2,332071.7,712004.8,176445.0,685863.8,186921.3,0.0
188506.8,210169.1,712046.1,332047.1,712003.5,176407.8,685806.6,186808.1,0.0
188820.0,210421.8,712058.6,332243.9,712015.7,176642.2,685958.2,187085.0,0.0
189080.7,210595.2,712066.8,332379.5,712023.6,176820.5,686267.7,187366.4,0.0
188921.8,210446.0,712056.9,332255.5,712013.9,176690.2,686182.3,187257.5,0.0
188575.8,210190.3,712046.6,332048.8,712004.2,176439.5,685869.4,186923.5,0.0
188510.0,210172.4,712050.3,332034.0,712008.5,176408.8,685795.8,186817.5,0.0
188821.6,210421.8,712062.3,332230.2,712020.1,176642.0,685945.8,187091.4,0.0
189075.1,210587.4,712065.4,332357.4,712022.2,176809.4,686243.9,187356.7,0.0
188920.6,210438.7,712052.9,332235.8,712009.6,176679.3,686153.4,187245.4,0.0
188565.3,210176.1,712038.3,332023.5,711995.8,176422.0,685833.3,186901.9,0.0
188496.4,210156.0,712040.4,332006.0,711998.6,176390.2,685787.1,186795.1,0.0
188808.7,210405.5,712053.2,332202.3,712011.2,176629.0,685940.3,187073.5,0.0
189065.0,210577.4,712062.1,332337.2,712019.1,176808.4,686247.9,187352.6,0.0
188919.2,210439.3,712053.9,332222.8,712011.0,176686.3,686171.9,187251.6,0.0
188569.9,210181.0,712042.8,332013.5,712000.4,176435.8,685854.3,186912.2,0.0
188502.5,210160.6,712044.4,331995.0,712002.1,176403.9,685812.9,186803.0,0.0
188817.3,210413.4,712056.9,332192.6,712014.8,176643.7,685965.3,187078.8,0.0
189073.5,210582.2,712064.4,332323.2,712021.5,176818.0,686260.6,187352.6,0.0
188922.2,210439.4,712057.3,332208.1,712014.3,176696.5,686182.8,187257.7,0.0
188572.7,210183.6,712045.9,331996.8,712003.5,176445.8,685864.4,186921.5,0.0
188500.3,210162.0,712046.8,331974.2,712004.5,176409.4,685815.4,186803.6,0.0
188811.4,210410.1,712057.6,332171.1,712015.4,176641.8,685961.1,187072.0,0.0
189066.6,210578.9,712062.1,332300.4,712018.9,176813.6,686256.8,187347.5,0.0
188923.8,210440.4,712054.8,332184.7,712011.6,176691.3,686184.6,187255.1,0.0
188569.3,210177.6,712046.3,331974.8,712003.6,176437.2,685866.2,186918.6,0.0
188497.3,210159.1,712048.8,331958.9,712006.2,176404.3,685806.4,186807.0,0.0
188808.7,210411.6,712062.6,332160.1,712019.9,176644.5,685961.1,187084.6,0.0
189058.6,210571.7,712064.4,332282.3,712021.0,176808.8,686250.8,187348.7,0.0
188912.7,210433.1,712052.5,332166.3,712009.1,176683.4,686168.9,187245.9,0.0
188560.6,210175.0,712040.8,331957.0,711998.3,176428.4,685849.8,186906.5,0.0
188478.0,210144.6,712040.3,331931.1,711997.9,176387.7,685799.9,186787.5,0.0
188792.6,210401.0,712055.4,332134.1,712013.1,176630.6,685956.1,187069.2,0.0
189057.0,210577.9,712064.6,332273.7,712021.2,176811.4,686262.3,187354.1,0.0
188910.3,210438.9,712055.6,332160.0,712012.4,176686.7,686186.3,187255.4,0.0
188557.8,210181.4,712042.1,331949.5,711999.6,176436.0,685855.8,186917.7,0.0
188484.9,210159.3,712043.1,331928.5,712000.8,176401.6,685796.0,186804.3,0.0
188791.2,210404.8,712056.3,332119.9,712013.8,176631.5,685942.5,187072.5,0.0
189054.3,210580.2,712062.1,332256.4,712018.8,176810.4,686249.9,187352.2,0.0
188915.1,210446.8,712054.4,332146.7,712010.8,176695.6,686181.6,187262.8,0.0
188553.4,210177.3,712040.7,331927.5,711998.3,176432.6,685848.3,186917.3,0.0
188473.6,210144.9,712042.4,331903.2,712000.0,176391.0,685787.4,186795.4,0.0
188787.0,210393.4,712056.7,332101.0,712014.3,176627.5,685934.9,187067.4,0.0
189052.9,210570.2,712065.9,332237.3,712022.4,176809.1,686250.0,187348.1,0.0
188919.7,210444.6,712060.1,332133.7,712016.8,176694.9,686188.9,187262.8,0.0
188570.0,210188.8,712049.1,331926.2,712006.4,176442.4,685870.4,186926.5,0.0
188490.0,210159.5,712050.5,331900.9,712008.0,176401.0,685813.9,186807.2,0.0
188797.3,210402.2,712060.6,332095.0,712018.0,176632.9,685953.3,187073.4,0.0
189059.6,210574.7,712065.3,332231.5,712022.3,176812.6,686253.9,187349.7,0.0
188925.7,210446.5,712058.5,332124.3,712015.1,176700.5,686189.3,187263.7,0.0
188574.3,210185.4,712050.0,331914.1,712007.3,176448.5,685863.4,186926.7,0.0
188495.4,210158.7,712052.3,331892.0,712009.9,176410.5,685788.0,186806.9,0.0
188806.4,210408.6,712063.3,332085.2,712020.6,176644.8,685927.9,187073.7,0.0
189075.4,210589.5,712070.8,332223.1,712027.6,176828.2,686242.7,187354.6,0.0
188937.3,210459.4,712065.4,332115.9,712022.0,176715.9,686185.3,187268.4,0.0
188580.4,210191.3,712053.2,331903.5,712010.3,176457.5,685869.1,186926.8,0.0
188496.6,210159.1,712052.8,331877.4,712010.0,176413.5,685812.7,186803.0,0.0
188805.3,210407.7,712066.4,332073.3,712023.6,176646.2,685955.8,187072.9,0.0
189068.3,210582.7,712073.9,332209.7,712030.6,176822.1,686259.6,187354.2,0.0
188922.6,210443.3,712064.1,332094.0,712021.0,176699.7,686192.0,187262.3,0.0
188570.9,210182.7,712050.9,331881.0,712008.4,176441.0,685863.1,186920.1,0.0
188484.4,210149.0,712049.1,331850.2,712006.8,176393.5,685798.1,186789.8,0.0
188779.6,210383.7,712056.8,332039.8,712014.3,176618.0,685920.7,187045.9,0.0
189051.6,210565.6,712061.9,332182.6,712018.3,176804.5,686218.3,187329.1,0.0
188925.4,210442.0,712054.1,332077.8,712011.2,176694.0,686161.8,187246.0,0.0
188573.1,210181.9,712044.6,331869.4,712002.0,176443.7,685851.1,186911.4,0.0
188492.8,210152.1,712046.1,331846.3,712003.1,176405.0,685784.8,186793.6,0.0
188801.5,210399.8,712058.3,332042.2,712015.1,176638.7,685920.3,187061.8,0.0
189075.6,210583.0,712065.4,332180.4,712022.1,176823.1,686233.2,187344.6,0.0
188940.2,210452.3,712058.1,332069.0,712014.6,176704.7,686172.9,187257.2,0.0
188579.7,210186.5,712046.7,331853.2,712003.8,176442.2,685853.9,186915.5,0.0
188490.0,210149.3,712046.8,331822.4,712004.4,176396.3,685790.7,186787.6,0.0
188802.3,210402.0,712061.6,332022.0,712019.1,176634.8,685932.9,187060.1,0.0
189078.2,210585.7,712070.9,332166.1,712027.4,176822.1,686241.7,187346.3,0.0
188945.8,210455.6,712062.3,332062.3,712019.1,176712.7,686183.8,187264.6,0.0
188587.0,210187.7,712047.8,331848.7,712005.1,176451.6,685860.2,186923.0,0.0
188510.2,210163.4,712050.4,331824.8,712007.8,176408.8,685794.4,186803.2,0.0
188816.6,210407.4,712062.0,332016.9,712019.9,176636.7,685928.1,187066.0,0.0
189088.3,210586.2,712069.9,332158.4,712026.9,176817.6,686238.4,187348.5,0.0
188955.1,210454.0,712061.2,332053.9,712018.0,176704.9,686179.3,187263.3,0.0
188597.1,210190.7,712048.0,331843.0,712005.8,176448.8,685857.3,186926.0,0.0
188510.2,210162.1,712049.9,331810.5,712007.6,176405.4,685800.8,186797.8,0.0
188818.7,210412.7,712062.9,332006.2,712020.5,176640.8,685938.5,187062.9,0.0
189091.0,210595.4,712071.1,332152.9,712027.8,176830.2,686248.6,187356.3,0.0
188953.2,210461.7,712063.1,332042.3,712019.9,176716.0,686188.1,187270.3,0.0
188601.7,210202.8,712050.0,331831.3,712007.5,176460.6,685867.4,186932.3,0.0
188512.9,210169.2,712050.6,331804.3,712008.1,176412.2,685813.5,186806.0,0.0
188811.3,210409.0,712062.6,331997.0,712020.1,176638.5,685946.3,187068.1,0.0
189085.6,210593.0,712071.0,332141.9,712027.8,176827.4,686256.0,187358.0,0.0
188956.4,210463.6,712062.9,332034.2,712020.1,176716.1,686199.5,187275.5,0.0
188607.5,210202.7,712050.8,331822.8,712008.4,176461.5,685872.4,186937.8,0.0
188514.0,210162.6,712051.8,331787.8,712009.7,176409.2,685791.8,186802.8,0.0
188809.5,210403.4,712060.4,331976.1,712018.3,176633.2,685913.0,187057.4,0.0
189076.2,210585.6,712063.9,332117.9,712021.1,176814.6,686216.0,187339.2,0.0
188950.6,210462.6,712056.6,332015.2,712013.1,176708.3,686166.1,187261.9,0.0
188599.8,210200.4,712047.5,331802.0,712004.7,176456.0,685855.6,186924.1,0.0
188508.9,210160.1,712051.1,331771.7,712008.5,176404.1,685791.4,186792.0,0.0
188811.7,210404.6,712062.9,331965.8,712019.9,176632.2,685925.4,187058.4,0.0
189080.8,210586.6,712067.5,332105.3,712023.9,176815.4,686229.3,187343.5,0.0
188964.1,210471.5,712063.7,332007.3,712020.3,176717.6,686188.6,187274.0,0.0
188607.6,210206.4,712052.1,331792.8,712009.5,176463.7,685869.8,186936.4,0.0
188507.8,210164.0,712051.8,331756.4,712009.4,176408.6,685790.0,186801.9,0.0
188810.9,210409.7,712066.1,331952.4,712024.1,176640.8,685925.4,187068.1,0.0
189089.9,210599.1,712074.7,332100.8,712031.5,176833.5,686247.3,187362.7,0.0
188964.4,210473.1,712067.3,331997.5,712024.0,176724.8,686199.3,187284.0,0.0
188604.9,210204.2,712053.1,331781.0,712010.2,176461.9,685864.6,186936.8,0.0
188509.5,210162.4,712051.6,331745.6,712008.9,176404.8,685787.8,186797.2,0.0
188806.5,210401.1,712059.8,331932.1,712017.0,176629.1,685910.7,187054.1,0.0
189088.9,210596.2,712068.9,332083.6,712025.1,176828.5,686225.4,187353.8,0.0
188968.1,210478.6,712063.5,331985.3,712019.8,176729.7,686184.4,187285.4,0.0
188611.2,210213.8,712054.6,331771.6,712011.9,176475.4,685864.6,186951.1,0.0
188501.0,210162.8,712055.0,331730.4,712012.4,176417.4,685800.4,186811.3,0.0
188797.0,210407.3,712063.8,331915.7,712021.2,176639.9,685931.6,187066.3,0.0
189076.5,210597.0,712072.6,332060.6,712029.0,176830.8,686243.6,187360.0,0.0
188961.1,210481.8,712066.0,331961.7,712022.4,176728.9,686201.4,187288.0,0.0
188601.4,210210.5,712053.4,331745.6,712010.8,176463.0,685869.6,186943.1,0.0
188493.1,210157.2,712051.6,331705.5,712008.9,176400.3,685786.4,186799.9,0.0
188787.3,210395.5,712064.6,331897.0,712021.9,176629.4,685917.5,187060.7,0.0
189079.3,210597.2,712075.8,332052.5,712032.4,176829.8,686242.9,187363.7,0.0
188966.0,210481.3,712069.8,331956.8,712026.3,176728.2,686204.3,187293.2,0.0
188603.5,210207.9,712052.7,331734.5,712010.0,176462.3,685868.5,186944.7,0.0
188498.8,210158.6,712052.1,331694.4,712009.9,176400.7,685789.9,186802.4,0.0
188799.0,210402.7,712065.1,331888.0,712023.0,176632.2,685918.8,187062.7,0.0
189075.5,210589.5,712073.9,332033.9,712030.8,176826.8,686233.6,187358.7,0.0
188951.0,210467.0,712063.4,331930.2,712020.4,176717.0,686182.4,187280.5,0.0
188587.0,210195.1,712046.6,331712.0,712004.1,176450.6,685859.2,186932.0,0.0
188480.5,210141.4,712045.3,331669.3,712003.3,176391.3,685778.4,186788.7,0.0
188782.3,210386.8,712059.8,331864.1,712017.6,176624.5,685909.6,187053.4,0.0
189069.9,210583.5,712070.3,332021.8,712027.2,176822.7,686232.6,187355.1,0.0
188959.3,210474.7,712067.2,331930.9,712023.9,176733.8,686205.8,187294.8,0.0
188601.3,210211.0,712055.8,331713.0,712013.3,176478.9,685882.9,186955.3,0.0
188491.3,210157.5,712051.6,331666.8,712008.9,176414.3,685802.9,186804.7,0.0
188774.3,210385.7,712059.4,331846.6,712017.4,176623.8,685912.1,187046.9,0.0
189049.4,210571.8,712065.4,331990.0,712022.1,176812.0,686214.6,187337.8,0.0
188939.8,210458.2,712058.3,331896.4,712015.1,176717.3,686178.9,187274.0,0.0
188597.6,210207.3,712050.5,331694.6,712007.6,176474.5,685874.5,186948.6,0.0
188505.5,210173.0,712054.6,331663.2,712012.0,176429.8,685803.3,186814.8,0.0
188792.5,210403.9,712064.9,331847.5,712022.6,176653.7,685917.8,187066.3,0.0
189068.2,210587.5,712072.3,331992.1,712029.0,176841.5,686228.6,187356.0,0.0
188952.0,210466.6,712064.4,331892.6,712021.0,176735.2,686188.4,187282.9,0.0
188595.9,210200.5,712051.5,331676.1,712008.8,176475.4,685877.3,186943.8,0.0
188488.5,210150.4,712051.1,331633.8,712008.5,176412.2,685809.5,186797.7,0.0
188783.7,210388.1,712062.1,331823.3,712019.1,176634.1,685933.6,187051.2,0.0
189064.4,210576.6,712069.2,331969.3,712025.3,176825.4,686242.4,187344.0,0.0
188954.0,210467.9,712065.6,331875.1,712022.1,176730.0,686216.3,187284.3,0.0
188602.3,210207.8,712055.8,331663.3,712013.4,176473.6,685888.9,186950.9,0.0
188497.5,210158.1,712056.3,331625.9,712014.3,176414.4,685807.8,186807.8,0.0
188783.6,210384.5,712064.8,331810.6,712023.0,176631.5,685925.3,187054.7,0.0
189060.6,210571.2,712070.3,331956.3,712027.6,176821.0,686231.8,187342.6,0.0
188949.5,210459.8,712061.7,331861.2,712018.9,176725.1,686191.8,187276.6,0.0
188592.9,210198.6,712047.8,331649.8,712005.6,176470.5,685868.8,186942.2,0.0
188485.6,210151.2,712048.0,331611.9,712005.8,176412.6,685804.8,186801.7,0.0
188777.4,210388.8,712062.7,331799.4,712020.2,176637.9,685932.3,187053.8,0.0
189065.9,210583.8,712073.1,331954.9,712029.9,176834.6,686246.1,187352.5,0.0
188949.4,210466.7,712061.1,331856.7,712018.1,176727.9,686204.3,187282.2,0.0
188588.2,210201.5,712048.4,331637.1,712005.6,176466.9,685883.7,186939.5,0.0
188475.9,210145.7,712047.1,331592.0,712004.2,176403.4,685804.1,186790.5,0.0
188765.9,210376.2,712056.0,331779.8,712013.1,176622.7,685917.5,187036.1,0.0
189061.2,210580.5,712067.1,331941.1,712023.7,176824.5,686239.1,187340.2,0.0
188958.6,210476.2,712062.3,331853.8,712019.1,176734.6,686216.3,187285.5,0.0
188598.7,210207.9,712047.9,331632.0,712005.6,176474.5,685877.4,186943.2,0.0
188491.4,210156.8,712047.8,331587.1,712005.6,176410.8,685804.1,186796.6,0.0
188779.7,210389.2,712062.3,331777.3,712019.7,176633.7,685931.9,187047.9,0.0
189067.6,210584.5,712071.4,331934.3,712028.4,176837.1,686249.4,187352.1,0.0
188965.8,210478.2,712065.0,331842.8,712021.6,176742.8,686222.4,187292.3,0.0
188609.8,210214.8,712049.8,331627.7,712007.6,176483.4,685880.6,186953.2,0.0
188495.9,210160.0,712048.8,331584.9,712006.8,176424.7,685798.1,186805.5,0.0
188778.2,210384.4,712058.9,331765.3,712016.4,176639.4,685914.8,187047.4,0.0
189068.3,210583.2,712068.9,331917.0,712025.5,176836.4,686234.7,187349.9,0.0
188964.0,210477.3,712061.7,331826.2,712018.8,176738.7,686209.3,187292.3,0.0
188607.2,210210.9,712051.3,331612.7,712008.9,176481.6,685880.8,186959.9,0.0
188489.3,210153.6,712054.9,331569.5,712012.4,176417.5,685805.6,186811.7,0.0
188770.1,210381.0,712064.3,331751.2,712021.9,176628.3,685916.6,187048.0,0.0
189058.8,210576.2,712070.0,331902.4,712027.0,176822.5,686223.7,187343.5,0.0
188958.3,210469.8,712060.6,331813.8,712017.2,176732.0,686197.9,187287.6,0.0
188606.9,210208.4,712047.7,331600.9,712005.1,176477.6,685875.2,186954.4,0.0
188485.8,210146.7,712050.4,331555.4,712007.8,176408.2,685788.4,186799.2,0.0
188765.9,210374.4,712062.1,331740.1,712020.1,176623.0,685895.4,187041.5,0.0
189059.4,210574.2,712070.2,331894.0,712027.2,176822.2,686209.1,187343.6,0.0
188963.8,210475.3,712063.7,331808.4,712020.3,176734.5,686189.9,187294.1,0.0
188610.0,210214.2,712052.3,331597.2,712009.8,176484.1,685876.0,186964.6,0.0
188484.8,210150.3,712051.4,331546.6,712008.9,176413.0,685800.3,186806.0,0.0
188771.3,210384.4,712064.0,331730.1,712021.6,176630.5,685913.9,187046.2,0.0
189063.0,210583.4,712072.2,331885.8,712029.5,176828.3,686223.3,187343.8,0.0
188960.2,210475.2,712064.3,331793.9,712020.9,176735.6,686198.1,187285.2,0.0
188606.9,210212.4,712051.3,331579.7,712008.6,176483.9,685875.8,186949.9,0.0
188485.2,210149.3,712051.6,331527.6,712009.1,176410.4,685791.3,186793.8,0.0
188768.6,210380.2,712064.6,331714.1,712021.8,176627.8,685905.3,187040.0,0.0
189060.3,210580.0,712072.4,331870.4,712028.8,176831.3,686224.9,187345.1,0.0
188954.7,210466.0,712063.8,331774.5,712020.1,176731.8,686196.1,187285.8,0.0
188603.8,210202.3,712051.8,331559.3,712008.8,176470.7,685876.6,186948.0,0.0
188485.8,210143.5,712052.9,331512.9,712010.2,176401.1,685797.7,186791.0,0.0
188765.8,210373.6,712063.5,331694.9,712021.2,176613.8,685905.3,187029.7,0.0
189058.8,210575.1,712072.0,331852.9,712028.8,176816.4,686224.3,187332.1,0.0
188961.8,210469.3,712065.4,331765.0,712022.1,176728.4,686207.1,187280.5,0.0
188605.4,210205.1,712053.1,331552.9,712010.4,176472.8,685883.0,186947.9,0.0
188487.7,210150.9,712052.1,331506.1,712009.6,176405.3,685807.0,186791.6,0.0
188771.1,210384.5,712063.8,331691.3,712020.8,176626.0,685921.5,187033.8,0.0
189067.3,210589.0,712072.9,331853.9,712028.6,176832.7,686240.4,187343.6,0.0
188970.7,210482.2,712064.6,331767.2,712020.6,176740.2,686219.3,187290.0,0.0
188612.5,210212.3,712049.4,331548.6,712006.6,176477.9,685889.1,186949.7,0.0
188482.6,210144.0,712048.1,331494.9,712005.3,176399.3,685804.1,186787.2,0.0
188765.2,210377.4,712060.1,331676.1,712017.6,176615.4,685912.4,187026.2,0.0
189063.0,210586.8,712068.1,331835.1,712024.5,176824.1,686229.5,187333.2,0.0
188968.6,210485.8,712060.6,331752.8,712016.6,176739.8,686215.6,187287.2,0.0
188611.0,210216.2,712049.6,331537.8,712006.9,176480.8,685890.8,186950.3,0.0
188486.1,210152.8,712050.3,331487.9,712007.5,176408.1,685799.8,186790.3,0.0
188764.2,210381.6,712061.1,331671.4,712018.3,176624.5,685907.2,187032.5,0.0
189060.5,210582.9,712070.4,331830.5,712026.8,176830.0,686228.4,187339.2,0.0
188971.8,210486.3,712062.5,331746.3,712018.8,176746.5,686214.9,187291.4,0.0
188612.8,210219.8,712049.9,331526.5,712006.6,176487.0,685890.1,186952.6,0.0
188484.1,210152.4,712049.6,331472.4,712007.2,176414.0,685797.1,186788.0,0.0
188764.6,210380.5,712062.4,331656.0,712020.1,176629.4,685900.8,187025.4,0.0
189065.7,210588.1,712074.6,331818.9,712031.5,176836.4,686228.4,187335.7,0.0
188975.8,210488.3,712068.9,331736.2,712025.7,176753.8,686219.1,187290.7,0.0
188614.1,210216.2,712053.6,331517.9,712011.1,176490.5,685891.5,186950.7,0.0
188484.2,210146.7,712051.5,331466.9,712008.9,176413.2,685802.9,186785.3,0.0
188763.9,210376.3,712062.3,331653.2,712020.3,176627.3,685908.8,187022.6,0.0
189062.5,210579.8,712069.8,331812.3,712027.0,176830.1,686219.9,187325.1,0.0
188976.0,210483.1,712063.1,331730.4,712019.9,176744.1,686209.1,187281.9,0.0
188619.3,210213.5,712050.4,331514.9,712007.7,176484.7,685886.3,186947.2,0.0
188490.1,210147.7,712050.4,331462.2,712008.0,176407.0,685798.3,186783.3,0.0
188766.1,210375.4,712061.0,331643.7,712018.6,176618.7,685901.1,187018.7,0.0
189073.2,210587.2,712071.1,331810.2,712027.8,176831.2,686220.9,187330.8,0.0
188990.6,210495.2,712064.1,331730.2,712020.8,176753.8,686217.8,187295.1,0.0
188633.9,210227.5,712052.3,331511.1,712009.6,176494.2,685889.5,186962.4,0.0
188497.1,210153.0,712051.4,331452.1,712008.9,176409.7,685794.1,186792.2,0.0
188774.3,210379.1,712062.8,331633.6,712020.6,176623.0,685904.8,187027.3,0.0
189072.6,210584.4,712073.3,331795.1,712029.6,176828.1,686223.3,187334.7,0.0
188982.7,210485.9,712064.8,331714.0,712021.2,176746.8,686214.1,187293.9,0.0
188625.0,210218.9,712052.1,331497.8,712009.3,176486.4,685890.3,186957.1,0.0
188499.0,210154.4,712053.8,331444.8,712010.8,176413.0,685807.2,186794.1,0.0
188769.3,210377.1,712065.1,331620.6,712022.0,176621.3,685901.9,187022.5,0.0
189067.0,210583.4,712071.4,331781.1,712027.9,176826.3,686214.8,187327.8,0.0
188984.1,210488.8,712064.2,331701.8,712020.8,176748.3,686211.4,187290.7,0.0
188616.6,210210.6,712046.4,331476.9,712003.6,176477.0,685881.8,186944.5,0.0
188478.8,210140.6,712045.8,331418.2,712002.9,176396.0,685806.4,186772.2,0.0
188757.6,210376.7,712060.6,331602.4,712018.2,176615.3,685925.7,187010.7,0.0
189067.3,210595.3,712071.8,331772.1,712028.8,176830.1,686241.8,187328.5,0.0
188996.3,210513.9,712068.3,331702.4,712024.8,176762.6,686253.3,187302.8,0.0
188640.0,210245.0,712057.1,331483.4,712014.3,176505.1,685911.9,186969.8,0.0
188504.1,210172.6,712057.7,331427.3,712015.4,176425.3,685810.2,186806.4,0.0
188769.7,210388.0,712070.1,331604.3,712027.9,176631.6,685919.3,187036.4,0.0
189065.2,210592.4,712077.8,331766.7,712034.2,176837.1,686237.1,187342.6,0.0
188986.1,210503.9,712070.2,331689.2,712027.2,176759.3,686237.1,187308.2,0.0
188622.1,210229.8,712057.7,331467.3,712015.1,176498.0,685898.9,186969.9,0.0
188475.5,210146.7,712054.2,331398.4,712011.6,176404.9,685792.9,186789.2,0.0
188749.8,210368.8,712063.9,331575.9,712021.3,176609.4,685890.3,187014.2,0.0
189053.8,210579.6,712071.7,331740.8,712028.4,176818.6,686207.2,187322.9,0.0
188978.0,210492.1,712065.1,331667.3,712022.1,176746.1,686212.1,187290.5,0.0
188620.5,210222.7,712054.0,331452.5,712011.6,176492.4,685886.2,186960.3,0.0
188482.0,210148.0,712054.1,331393.2,712011.4,176408.5,685806.4,186786.4,0.0
188751.0,210368.9,712062.8,331569.2,712019.6,176614.2,685911.7,187007.4,0.0
189052.7,210576.7,712070.2,331733.2,712026.6,176824.0,686210.1,187315.6,0.0
188979.0,210493.0,712064.4,331661.7,712020.9,176756.8,686217.0,187290.3,0.0
188626.7,210231.1,712051.9,331446.1,712009.4,176502.3,685892.6,186963.0,0.0
188479.8,210150.4,712051.1,331382.6,712008.5,176411.5,685793.5,186789.3,0.0
188745.2,210367.1,712062.4,331556.4,712020.3,176613.9,685889.1,187015.5,0.0
189049.1,210576.3,712070.8,331721.2,712027.9,176823.5,686208.3,187328.4,0.0
188970.5,210484.3,712063.4,331644.7,712020.8,176749.1,686210.1,187295.6,0.0
188617.6,210219.4,712051.9,331429.8,712009.5,176494.1,685891.0,186965.7,0.0
188480.5,210149.0,712052.3,331369.0,712010.2,176411.2,685798.9,186790.7,0.0
188748.2,210371.0,712063.5,331546.8,712021.3,176620.0,685898.6,187017.6,0.0
189057.2,210585.8,712072.6,331713.8,712029.3,176832.2,686217.4,187333.8,0.0
188981.5,210496.3,712065.2,331636.5,712022.2,176755.7,686220.9,187301.5,0.0
188622.6,210221.6,712051.0,331416.6,712008.7,176494.5,685893.2,186962.5,0.0
188483.7,210148.7,712052.4,331358.2,712009.9,176410.3,685801.7,186788.7,0.0
188750.5,210371.9,712063.1,331536.5,712020.8,176619.6,685897.1,187012.2,0.0
189056.3,210581.6,712072.1,331702.5,712029.1,176832.7,686214.3,187325.0,0.0
188981.4,210491.1,712064.4,331628.8,712021.4,176761.0,686222.1,187296.4,0.0
188621.6,210220.0,712050.1,331409.6,712007.9,176500.0,685896.8,186960.8,0.0
188473.2,210136.4,712050.4,331345.4,712007.8,176409.9,685803.1,186781.9,0.0
188747.0,210364.0,712062.6,331523.2,712020.1,176617.2,685901.4,187008.3,0.0
189056.3,210580.4,712073.3,331692.9,712029.9,176832.0,686223.4,187325.2,0.0
188984.2,210494.7,712066.4,331621.6,712022.8,176758.7,686230.7,187298.2,0.0
188630.6,210230.1,712052.8,331406.5,712010.2,176502.4,685896.3,186966.3,0.0
188485.8,210152.7,712049.8,331345.8,712007.5,176416.3,685791.9,186788.6,0.0
188749.5,210373.6,712061.6,331522.8,712019.7,176623.4,685884.9,187011.5,0.0
189056.1,210588.8,712071.0,331693.5,712027.9,176838.1,686204.9,187328.3,0.0
188989.6,210510.4,712065.6,331625.5,712022.3,176771.5,686218.8,187305.9,0.0
188638.4,210243.5,712053.6,331407.3,712010.9,176511.7,685894.3,186975.1,0.0
188488.3,210159.3,712050.6,331338.9,712008.0,176417.3,685788.5,186791.7,0.0
188747.2,210372.0,712061.2,331511.5,712018.7,176619.6,685873.7,187009.9,0.0
189054.2,210582.8,712072.0,331680.6,712028.4,176833.5,686194.5,187326.8,0.0
188991.0,210498.5,712066.2,331610.3,712022.8,176760.1,686213.9,187306.9,0.0
188636.0,210226.6,712053.6,331392.2,712010.8,176498.1,685891.4,186972.9,0.0
188491.0,210150.0,712053.6,331329.8,712010.8,176406.7,685804.6,186790.0,0.0
188751.6,210373.5,712065.3,331507.8,712022.4,176613.9,685908.8,187011.7,0.0
189060.1,210588.4,712074.1,331677.4,712030.3,176830.3,686220.1,187332.8,0.0
188986.9,210499.3,712064.3,331602.9,712020.2,176757.2,686225.1,187307.7,0.0
188632.5,210234.0,712050.4,331387.3,712007.1,176499.2,685901.9,186979.2,0.0
188481.0,210149.5,712050.0,331319.9,712007.1,176406.4,685804.8,186796.5,0.0
188744.7,210370.0,712061.6,331495.0,712019.1,176613.3,685896.9,187017.3,0.0
189059.0,210590.2,712073.3,331668.9,712029.9,176835.8,686217.8,187338.6,0.0
188995.5,210511.0,712065.9,331599.6,712022.6,176771.9,686234.3,187318.9,0.0
188642.7,210241.5,712051.8,331381.2,712009.1,176514.5,685905.9,186989.2,0.0
188493.9,210155.4,712052.1,331308.6,712009.1,176420.8,685804.3,186806.6,0.0
188744.8,210364.0,712061.3,331473.8,712018.6,176617.8,685887.4,187015.6,0.0
189051.3,210576.6,712069.2,331641.4,712025.9,176833.4,686200.2,187327.8,0.0
188991.9,210500.6,712063.1,331575.7,712019.4,176772.9,686222.4,187314.3,0.0
188642.7,210238.1,712054.8,331363.7,712011.2,176520.4,685910.8,186993.0,0.0
188480.8,210143.8,712051.9,331288.3,712008.5,176417.9,685806.0,186800.4,0.0
188735.2,210355.9,712062.1,331456.0,712018.9,176617.1,685889.9,187011.8,0.0
189046.5,210575.7,712071.8,331626.6,712027.8,176839.7,686208.0,187333.4,0.0
188987.0,210501.4,712066.8,331564.5,712022.6,176779.2,686233.3,187322.9,0.0
188635.8,210237.3,712054.2,331351.5,712010.8,176523.2,685905.3,186997.8,0.0
188475.6,210146.5,712051.9,331277.5,712008.8,176423.1,685798.4,186808.4,0.0
188729.0,210358.4,712060.1,331446.3,712016.8,176619.7,685886.4,187018.8,0.0
189039.0,210571.8,712067.5,331616.7,712023.7,176838.2,686199.8,187333.8,0.0
188980.6,210494.7,712062.7,331551.2,712018.9,176774.6,686222.1,187319.1,0.0
188632.8,210231.4,712051.9,331338.9,712008.9,176521.4,685902.6,186998.9,0.0
188480.1,210144.3,712053.9,331269.2,712011.2,176422.0,685805.8,186813.1,0.0
188731.5,210351.9,712062.8,331435.7,712019.9,176612.0,685892.8,187015.4,0.0
189041.0,210564.9,712071.1,331607.7,712027.3,176828.6,686203.3,187329.4,0.0
188980.7,210486.2,712064.1,331541.6,712020.5,176765.9,686225.7,187313.7,0.0
188624.5,210219.7,712050.5,331321.5,712007.9,176507.4,685909.6,186982.5,0.0
188466.2,210130.6,712048.3,331247.3,712005.4,176408.7,685809.8,186791.2,0.0
188722.4,210346.4,712057.9,331418.9,712015.2,176608.8,685894.9,187003.4,0.0
189037.5,210568.9,712068.4,331595.8,712025.3,176832.7,686214.7,187329.4,0.0
188980.7,210495.6,712061.7,331534.3,712018.3,176773.7,686240.1,187318.6,0.0
188636.1,210234.8,712051.3,331321.3,712008.9,176522.8,685906.3,186996.8,0.0
188473.2,210138.4,712051.6,331244.7,712009.4,176416.8,685795.8,186801.0,0.0
188725.9,210351.9,712060.8,331415.5,712018.3,176610.0,685899.0,187008.7,0.0
189046.3,210577.0,712071.3,331596.3,712028.1,176836.5,686209.9,187333.4,0.0
188992.6,210500.6,712064.9,331531.7,712021.9,176777.6,686239.1,187324.1,0.0
188636.3,210227.3,712051.9,331309.3,712009.7,176514.8,685914.2,186993.9,0.0
188469.5,210127.7,712047.8,331226.9,712005.3,176406.8,685801.6,186793.4,0.0
188719.6,210337.7,712057.3,331393.4,712015.2,176601.0,685885.9,186997.3,0.0
189039.7,210564.3,712069.8,331573.5,712027.0,176828.2,686209.1,187321.9,0.0
188981.6,210488.3,712062.1,331509.8,712019.3,176766.6,686235.1,187308.5,0.0
188630.0,210220.0,712048.2,331295.4,712005.6,176509.9,685902.5,186982.9,0.0
188471.7,210126.0,712047.4,331222.7,712004.7,176406.4,685786.9,186791.5,0.0
188719.2,210330.3,712054.2,331386.2,712011.6,176591.4,685872.6,186992.1,0.0
189038.6,210558.5,712063.9,331564.5,712020.8,176814.5,686187.6,187315.6,0.0
188985.7,210491.6,712060.1,331509.0,712016.6,176763.3,686225.4,187314.2,0.0
188641.8,210231.2,712050.3,331297.5,712007.7,176515.8,685902.9,186996.8,0.0
188481.7,210138.1,712049.1,331221.9,712006.0,176415.4,685794.3,186801.4,0.0
188723.8,210338.1,712056.1,331381.3,712013.6,176599.7,685867.7,186994.3,0.0
189043.4,210563.4,712066.6,331558.9,712023.7,176824.5,686188.3,187321.2,0.0
188991.8,210495.3,712061.9,331498.2,712018.9,176768.9,686225.3,187319.5,0.0
188635.1,210222.0,712048.3,331276.0,712005.4,176504.5,685900.1,186988.1,0.0
188464.9,210118.8,712046.5,331195.2,712003.6,176396.2,685795.2,186790.4,0.0
188713.5,210330.9,712057.8,331361.8,712015.1,176593.4,685877.1,186995.5,0.0
189030.0,210559.1,712066.6,331538.0,712023.4,176818.0,686192.8,187318.2,0.0
188989.7,210499.8,712062.9,331488.6,712019.7,176773.7,686237.8,187322.6,0.0
188636.8,210231.0,712051.3,331272.9,712008.9,176518.5,685919.0,186998.4,0.0
188463.8,210128.0,712048.8,331191.7,712006.1,176410.6,685802.3,186796.7,0.0
188707.1,210332.4,712057.8,331355.1,712015.2,176597.9,685878.0,186994.6,0.0
189023.4,210558.0,712065.6,331533.2,712022.4,176820.3,686190.4,187318.2,0.0
188975.4,210490.3,712059.4,331473.8,712016.0,176770.6,686227.6,187316.5,0.0
188633.9,210231.0,712048.8,331259.7,712006.1,176516.7,685907.5,186994.6,0.0
188466.2,210130.4,712047.7,331179.4,712004.8,176405.6,685792.1,186793.2,0.0
188713.1,210336.1,712059.0,331343.9,712016.6,176596.3,685879.6,186993.7,0.0
189028.3,210555.5,712068.9,331519.4,712025.4,176819.8,686194.6,187314.1,0.0
188987.0,210492.6,712063.7,331464.1,712020.2,176768.6,686236.6,187313.6,0.0
188631.9,210220.0,712050.7,331248.8,712007.6,176512.5,685910.5,186988.8,0.0
188464.2,210121.3,712049.1,331170.4,712005.9,176406.3,685798.4,186785.0,0.0
188717.4,210336.3,712061.4,331340.4,712018.5,176603.6,685886.4,186988.2,0.0
189034.4,210561.3,712070.6,331518.6,712027.1,176830.1,686200.0,187311.7,0.0
188988.8,210494.4,712066.6,331462.8,712023.0,176779.0,686240.9,187315.0,0.0
188637.2,210226.4,712052.9,331248.3,712010.4,176523.2,685921.7,186993.5,0.0
188463.8,210123.6,712050.3,331168.0,712007.6,176414.7,685812.3,186791.6,0.0
188714.6,210337.4,712062.7,331335.5,712020.1,176607.0,685896.8,186995.0,0.0
189036.1,210565.2,712072.7,331516.1,712029.1,176832.3,686211.8,187323.5,0.0
188994.4,210503.7,712066.5,331460.0,712023.2,176785.1,686255.6,187328.1,0.0
188642.8,210235.5,712054.1,331240.1,712011.2,176527.0,685924.1,187003.7,0.0
188466.2,210127.8,712051.6,331153.0,712008.9,176413.2,685798.9,186794.3,0.0
188701.3,210325.5,712063.1,331312.0,712020.8,176601.0,685881.6,186988.4,0.0
189020.7,210552.2,712073.1,331493.7,712029.3,176824.3,686193.1,187314.3,0.0
188989.1,210497.7,712067.3,331447.3,712023.4,176780.8,686243.1,187325.3,0.0
188640.3,210231.1,712051.9,331231.5,712008.9,176527.4,685916.0,187003.3,0.0
188468.7,210131.4,712051.7,331149.1,712008.3,176416.0,685809.8,186799.4,0.0
188711.4,210337.1,712063.9,331314.4,712021.1,176605.7,685897.6,186997.9,0.0
189038.5,210569.9,712075.1,331499.5,712031.8,176838.9,686213.9,187329.2,0.0
188999.5,210507.2,712071.1,331448.9,712027.6,176792.7,686263.4,187337.0,0.0
188653.8,210244.4,712058.9,331235.7,712015.9,176543.3,685935.3,187021.2,0.0
188477.6,210139.1,712055.3,331151.6,712012.7,176430.6,685805.6,186814.4,0.0
188710.3,210338.1,712063.4,331309.9,712020.8,176611.9,685877.1,187002.5,0.0
189034.7,210571.1,712073.5,331493.7,712029.9,176841.7,686191.1,187329.6,0.0
188999.7,210513.5,712068.6,331445.4,712025.1,176797.8,686243.0,187339.5,0.0
188652.0,210250.4,712056.1,331230.3,712013.4,176544.8,685921.9,187020.4,0.0
188475.0,210145.3,712054.1,331142.2,712011.6,176428.9,685805.6,186810.7,0.0
188708.5,210342.1,712061.2,331297.9,712018.4,176609.0,685891.1,186995.1,0.0
189031.3,210569.2,712072.0,331481.1,712028.3,176835.9,686193.9,187318.4,0.0
189000.0,210512.7,712068.8,331434.9,712025.3,176794.6,686248.1,187331.9,0.0
188653.7,210246.9,712056.0,331218.5,712013.8,176541.2,685927.9,187013.8,0.0
188478.3,210142.6,712054.0,331134.0,712011.8,176428.4,685807.8,186807.8,0.0
188709.3,210337.0,712063.1,331288.4,712020.8,176607.0,685875.0,186990.9,0.0
189040.7,210575.9,712075.6,331474.5,712032.1,176840.0,686198.3,187321.8,0.0
189007.5,210518.7,712070.6,331427.8,712026.9,176798.8,686253.6,187336.3,0.0
188650.3,210243.3,712054.8,331205.4,712012.3,176536.5,685921.6,187007.9,0.0
188472.5,210141.5,712054.1,331123.1,712011.6,176424.9,685809.9,186802.4,0.0
188708.3,210341.9,712064.5,331282.0,712021.9,176611.2,685889.1,186995.1,0.0
189029.3,210569.5,712073.1,331461.8,712029.9,176839.3,686195.3,187321.0,0.0
189004.2,210519.8,712069.8,331418.5,712026.1,176802.2,686254.4,187339.0,0.0
188663.6,210258.9,712059.9,331206.8,712017.0,176555.1,685931.1,187024.5,0.0
188479.4,210148.9,712055.3,331119.3,712012.7,176437.9,685802.3,186809.7,0.0
188707.6,210346.1,712064.8,331277.7,712022.6,176619.2,685879.7,186995.2,0.0
189033.1,210578.6,712075.4,331460.8,712032.1,176848.9,686194.9,187324.7,0.0
189002.7,210519.8,712071.6,331413.7,712028.1,176804.6,686252.1,187339.8,0.0
188655.3,210252.7,712059.3,331194.4,712016.0,176547.8,685933.8,187021.2,0.0
188476.5,210145.5,712057.9,331107.4,712014.4,176433.0,685820.6,186812.2,0.0
188706.2,210341.4,712067.2,331264.4,712023.7,176614.9,685894.3,186998.2,0.0
189028.8,210567.8,712077.1,331444.8,712033.3,176842.6,686199.6,187321.6,0.0
188999.3,210511.5,712066.5,331397.3,712022.6,176797.8,686244.8,187328.3,0.0
188653.6,210246.6,712053.2,331184.8,712010.0,176543.6,685925.9,187005.6,0.0
188476.9,210143.5,712052.1,331101.6,712008.8,176431.5,685807.5,186793.4,0.0
188718.3,210351.6,712065.2,331266.9,712022.1,176623.2,685883.5,186989.7,0.0
189046.1,210583.2,712075.8,331448.8,712031.7,176850.7,686198.3,187320.9,0.0
189016.1,210526.9,712069.3,331400.6,712025.1,176810.0,686254.4,187337.1,0.0
188663.6,210258.0,712055.9,331183.9,712012.5,176555.5,685934.8,187016.9,0.0
188474.3,210140.8,712052.1,331091.6,712008.7,176435.2,685810.2,186799.7,0.0
188704.7,210338.3,712062.3,331247.3,712019.4,176618.0,685881.3,186987.1,0.0
189034.3,210578.0,712073.8,331434.5,712030.3,176855.0,686202.0,187322.4,0.0
189008.1,210528.4,712069.7,331391.3,712026.3,176819.9,686266.8,187341.8,0.0
188659.8,210260.1,712057.3,331175.0,712014.9,176562.6,685939.3,187020.5,0.0
188474.4,210145.8,712052.3,331082.6,712009.9,176438.0,685807.3,186803.2,0.0
188699.1,210339.0,712061.0,331237.1,712018.1,176615.1,685873.3,186981.6,0.0
189025.8,210572.3,712071.6,331422.2,712028.2,176846.4,686184.1,187309.2,0.0
189003.9,210522.8,712067.7,331380.4,712024.1,176812.2,686248.6,187331.7,0.0
188660.7,210263.9,712057.9,331172.2,712015.1,176567.3,685941.8,187025.5,0.0
188477.1,210155.3,712054.3,331083.3,712011.8,176447.9,685813.7,186813.3,0.0
188704.7,210346.4,712063.4,331236.3,712020.8,176624.8,685869.4,186994.6,0.0
189035.5,210581.7,712077.1,331421.4,712033.6,176858.9,686193.7,187328.6,0.0
189015.2,210533.1,712073.5,331375.3,712029.9,176821.7,686262.6,187350.0,0.0
188671.8,210267.9,712060.3,331159.3,712017.4,176562.8,685946.3,187032.6,0.0
188474.5,210143.3,712056.1,331064.2,712013.3,176435.6,685816.9,186810.1,0.0
188698.4,210333.0,712063.4,331217.2,712020.8,176610.4,685880.6,186984.3,0.0
189030.1,210572.4,712075.4,331406.3,712031.8,176846.9,686190.4,187313.5,0.0
189010.4,210526.1,712069.5,331364.0,712025.9,176810.3,686256.8,187335.6,0.0
188667.9,210262.1,712055.4,331150.6,712013.0,176557.1,685935.6,187023.1,0.0
188484.2,210151.0,712055.6,331063.3,712013.3,176441.2,685807.9,186813.0,0.0
188708.5,210340.0,712065.8,331219.0,712023.4,176618.0,685877.4,186993.5,0.0
189035.2,210569.3,712078.9,331403.9,712035.8,176848.3,686192.9,187323.5,0.0
189012.7,210521.3,712072.0,331361.4,712028.4,176814.9,686253.1,187343.5,0.0
188674.3,210266.6,712059.4,331150.8,712016.4,176567.9,685940.0,187033.9,0.0
188479.2,210146.4,712056.3,331053.8,712013.9,176440.3,685814.3,186813.1,0.0
188695.5,210329.8,712064.5,331202.5,712022.6,176609.5,685875.6,186984.9,0.0
189024.9,210562.9,712075.8,331388.0,712032.6,176840.5,686181.9,187313.1,0.0
189011.6,210520.0,712070.9,331350.8,712027.3,176810.6,686253.5,187340.7,0.0
188665.7,210252.9,712058.3,331137.0,712015.6,176557.0,685935.2,187024.5,0.0
188475.5,210137.0,712055.0,331042.8,712012.1,176432.3,685805.3,186802.8,0.0
188698.9,210327.3,712064.6,331195.3,712021.8,176608.2,685868.3,186974.9,0.0
189025.8,210559.5,712075.1,331381.2,712031.4,176838.8,686171.4,187302.8,0.0
189010.9,210514.8,712068.9,331340.7,712025.4,176805.8,686240.3,187328.5,0.0
188670.5,210257.9,712057.1,331130.6,712014.1,176560.4,685933.3,187021.0,0.0
188473.9,210137.5,712054.9,331031.5,712012.1,176431.5,685805.6,186796.0,0.0
188699.7,210329.2,712066.1,331184.1,712023.6,176608.0,685876.2,186972.8,0.0
189030.0,210565.3,712074.9,331370.8,712031.7,176841.7,686182.8,187302.7,0.0
189010.2,210517.4,712068.3,331330.6,712024.5,176807.7,686248.1,187326.8,0.0
188665.1,210251.8,712053.2,331117.1,712010.6,176555.7,685929.6,187013.6,0.0
188474.9,210138.4,712053.6,331022.8,712010.6,176435.6,685811.6,186798.5,0.0
188698.4,210329.8,712067.4,331174.0,712024.6,176608.9,685886.1,186977.7,0.0
189027.7,210562.7,712076.8,331360.0,712033.4,176838.6,686187.8,187302.4,0.0
189020.8,210528.2,712072.3,331330.0,712028.6,176813.6,686262.3,187334.9,0.0
188676.5,210262.6,712062.1,331119.4,712019.6,176563.4,685948.6,187027.9,0.0
188474.0,210133.6,712056.7,331014.3,712014.1,176428.4,685803.3,186796.9,0.0
188691.8,210321.6,712066.4,331161.8,712023.9,176602.3,685865.0,186968.1,0.0
189028.4,210561.8,712079.6,331352.8,712036.4,176841.2,686186.0,187304.6,0.0
189015.3,210516.5,712074.9,331313.4,712031.6,176809.7,686257.7,187332.3,0.0
188665.6,210246.0,712058.9,331093.8,712016.3,176551.1,685944.1,187011.1,0.0
188470.3,210125.5,712052.7,331000.9,712009.9,176422.3,685808.1,186784.7,0.0
188692.7,210317.8,712063.9,331155.1,712021.5,176598.8,685858.5,186958.8,0.0
189024.3,210556.0,712075.6,331342.5,712032.6,176832.5,686171.6,187289.6,0.0
189019.0,210525.1,712072.7,331312.5,712029.3,176814.3,686255.2,187331.0,0.0
188681.3,210266.0,712061.9,331104.6,712019.1,176568.8,685950.1,187025.8,0.0
188472.2,210131.4,712055.9,330996.8,712013.4,176428.2,685807.9,186787.4,0.0
188680.5,210311.7,712062.3,331138.9,712020.5,176592.3,685857.1,186951.3,0.0
189012.8,210549.5,712072.4,331324.0,712029.8,176825.5,686164.7,187282.0,0.0
189013.0,210518.1,712071.8,331295.3,712028.7,176804.5,686253.8,187324.4,0.0
188676.3,210263.1,712061.7,331090.7,712019.3,176562.3,685945.6,187023.0,0.0
188470.7,210137.1,712055.6,330988.8,712013.3,176431.5,685804.2,186794.9,0.0
188683.4,210322.6,712066.6,331138.7,712024.7,176604.2,685866.3,186964.1,0.0
189026.4,210572.1,712081.8,331335.2,712039.1,176847.9,686189.3,187308.5,0.0
189022.4,210537.6,712079.9,331302.5,712036.7,176823.8,686277.4,187347.5,0.0
188680.7,210273.7,712065.9,331087.3,712023.4,176571.5,685959.5,187037.9,0.0
188476.7,210144.3,712060.4,330984.8,712017.7,176437.2,685814.8,186806.0,0.0
188681.7,210320.9,712067.9,331123.9,712025.4,176596.3,685867.4,186964.6,0.0
189010.9,210559.2,712079.1,331313.6,712035.7,176831.0,686175.9,187298.5,0.0
189004.0,210520.7,712076.4,331282.2,712033.0,176809.7,686256.0,187338.4,0.0
188668.1,210261.4,712060.8,331070.0,712018.0,176561.2,685941.9,187026.8,0.0
188471.5,210141.4,712056.3,330972.9,712013.8,176431.6,685808.8,186800.6,0.0
188686.9,210328.0,712068.7,331122.3,712025.9,176605.7,685877.6,186971.3,0.0
189018.3,210562.5,712078.4,331309.1,712035.1,176840.0,686179.8,187299.7,0.0
189016.5,210526.2,712076.4,331277.7,712032.8,176820.5,686268.3,187341.7,0.0
188671.2,210258.6,712065.0,331059.9,712021.8,176569.9,685965.1,187032.9,0.0
188457.8,210122.0,712059.4,330950.1,712016.3,176424.7,685817.8,186790.5,0.0
188671.7,210309.7,712067.9,331100.0,712025.3,176591.9,685868.5,186956.3,0.0
189004.3,210550.2,712078.1,331293.6,712034.8,176834.4,686175.3,187293.7,0.0
189014.3,210524.9,712077.4,331271.6,712033.6,176826.5,686275.8,187350.8,0.0
188675.9,210260.8,712065.0,331057.9,712022.4,176575.0,685961.4,187044.1,0.0
188459.9,210125.1,712057.7,330948.9,712015.1,176429.7,685804.4,186805.3,0.0
188666.0,210305.3,712066.5,331091.8,712024.1,176589.2,685865.6,186966.2,0.0
189004.7,210545.2,712078.3,331284.8,712035.3,176825.6,686168.6,187300.0,0.0
189012.7,210518.8,712076.4,331260.8,712032.6,176814.5,686262.9,187350.5,0.0
188680.7,210260.6,712065.6,331051.2,712022.6,176571.7,685954.9,187049.5,0.0
188472.4,210130.4,712061.2,330947.9,712018.3,176435.5,685815.5,186815.8,0.0
188677.2,210312.5,712071.2,331090.9,712028.6,176597.0,685883.3,186974.3,0.0
189015.0,210555.2,712083.4,331281.7,712039.6,176835.2,686189.6,187308.8,0.0
189018.9,210525.2,712079.8,331254.9,712035.8,176815.9,686280.3,187355.4,0.0
188683.9,210265.5,712067.1,331046.0,712024.8,176571.0,685967.8,187053.2,0.0
188468.8,210130.5,712061.8,330936.1,712019.7,176429.0,685811.3,186812.2,0.0
188671.8,210308.8,712071.6,331080.5,712029.2,176593.1,685868.5,186969.2,0.0
189004.3,210545.5,712081.2,331267.3,712037.9,176827.6,686164.6,187296.5,0.0
189010.9,210517.0,712075.0,331238.9,712031.4,176810.1,686251.9,187340.8,0.0
188672.9,210253.1,712059.2,331024.8,712016.0,176559.0,685942.7,187034.6,0.0
188463.5,210119.0,712057.3,330919.2,712014.3,176421.8,685805.8,186802.0,0.0
188675.1,210306.3,712069.8,331068.6,712026.9,176594.7,685866.4,186967.7,0.0
189009.8,210544.9,712080.4,331258.1,712036.7,176831.1,686168.8,187299.7,0.0
189018.5,210516.3,712077.1,331233.6,712033.3,176815.0,686263.6,187349.1,0.0
188683.0,210257.3,712064.1,331026.9,712020.8,176569.8,685954.8,187043.4,0.0
188469.6,210122.5,712061.6,330920.2,712018.3,176429.6,685811.4,186804.4,0.0
188671.8,210301.0,712069.4,331060.5,712026.5,176589.9,685869.8,186957.5,0.0
189015.7,210548.4,712080.8,331253.8,712036.9,176833.0,686179.6,187295.2,0.0
189021.4,210517.5,712079.1,331226.7,712034.9,176816.9,686277.0,187345.1,0.0
188676.6,210250.6,712064.9,331012.9,712021.6,176564.0,685968.0,187039.5,0.0
188464.9,210118.1,712060.4,330903.5,712017.1,176419.3,685829.4,186799.9,0.0
188662.9,210291.7,712065.3,331044.4,712021.9,176578.4,685878.1,186950.8,0.0
189003.0,210535.7,712075.6,331243.2,712031.8,176825.4,686176.6,187292.4,0.0
189019.1,210515.1,712074.9,331221.9,712031.2,176816.6,686280.5,187349.5,0.0
188693.4,210262.7,712063.9,331016.1,712021.0,176575.7,685969.9,187052.1,0.0
188484.8,210131.2,712061.6,330912.8,712018.9,176439.2,685810.6,186817.3,0.0
188683.2,210307.5,712070.4,331052.3,712027.9,176600.1,685867.4,186969.3,0.0
189019.9,210552.6,712082.7,331246.7,712039.2,176842.6,686174.7,187305.9,0.0
189030.4,210528.6,712079.1,331223.3,712035.3,176824.8,686271.4,187356.0,0.0
188698.7,210269.7,712065.8,331014.7,712022.9,176578.2,685961.9,187055.9,0.0
188479.2,210127.4,712061.5,330900.7,712018.7,176432.7,685812.9,186812.8,0.0
188683.5,210308.8,712073.3,331043.8,712030.6,176596.0,685887.3,186971.5,0.0
189022.1,210554.5,712086.4,331239.5,712042.9,176840.8,686189.8,187310.0,0.0
189038.3,210536.4,712083.0,331217.6,712039.2,176832.5,686288.8,187361.5,0.0
188702.5,210278.2,712068.3,331006.6,712025.3,176585.0,685978.6,187057.4,0.0
188480.9,210137.8,712063.9,330894.1,712021.5,176437.0,685820.5,186811.7,0.0
188675.3,210309.4,712070.6,331030.7,712028.8,176589.3,685864.2,186957.2,0.0
189017.2,210560.1,712081.4,331226.6,712039.1,176832.3,686170.7,187294.8,0.0
189037.7,210541.6,712081.0,331210.8,712038.1,176831.4,686281.6,187356.7,0.0
188698.8,210274.7,712065.0,330996.8,712022.3,176581.3,685973.9,187048.6,0.0
188480.1,210132.7,712058.9,330882.5,712016.3,176432.3,685818.3,186799.0,0.0
188675.9,210302.3,712067.3,331020.9,712025.1,176585.7,685858.3,186947.8,0.0
189014.2,210545.0,712077.4,331213.5,712034.0,176825.9,686160.3,187283.1,0.0
189029.5,210523.8,712075.8,331196.0,712032.4,176820.5,686268.6,187348.7,0.0
188711.6,210281.9,712067.4,330998.9,712024.9,176587.1,685975.4,187062.6,0.0
188490.8,210140.7,712065.4,330886.2,712023.3,176442.2,685820.4,186815.0,0.0
188674.0,210303.5,712073.9,331016.1,712031.3,176592.6,685871.4,186953.5,0.0
189009.1,210545.8,712085.4,331208.3,712041.9,176831.3,686167.0,187284.7,0.0
189025.4,210527.7,712080.0,331184.4,712036.7,176819.7,686266.8,187337.9,0.0
188692.4,210268.5,712066.5,330971.6,712024.3,176572.4,685966.3,187039.9,0.0
188469.0,210124.6,712063.5,330856.1,712021.0,176425.2,685814.9,186794.3,0.0
188660.6,210292.0,712071.3,330993.6,712029.0,176580.2,685859.9,186940.7,0.0
189006.5,210542.2,712082.3,331191.9,712039.4,176822.0,686162.2,187281.3,0.0
189035.4,210533.1,712080.8,331178.5,712037.5,176821.3,686279.6,187350.7,0.0
188703.0,210273.2,712068.3,330969.1,712025.4,176576.5,685978.2,187053.7,0.0
188473.7,210124.1,712062.6,330854.8,712020.1,176422.2,685824.1,186801.6,0.0
188661.1,210293.5,712070.0,330990.4,712027.6,176572.7,685882.4,186940.0,0.0
189014.0,210553.4,712084.5,331199.8,712041.3,176828.2,686183.0,187287.8,0.0
189039.5,210541.1,712081.8,331187.9,712038.2,176826.8,686294.8,187354.4,0.0
188702.5,210280.7,712067.6,330976.3,712024.5,176579.8,685983.6,187060.2,0.0
188476.8,210137.0,712062.9,330861.7,712020.3,176432.1,685818.4,186816.6,0.0
188663.2,210303.8,712072.5,330996.2,712030.3,176585.8,685876.4,186957.8,0.0
189008.0,210555.5,712081.8,331193.5,712038.8,176834.3,686173.4,187294.8,0.0
189039.3,210549.0,712078.8,331181.3,712035.1,176842.5,686287.9,187365.3,0.0
188707.4,210290.4,712066.1,330969.8,712023.0,176596.6,685983.6,187069.3,0.0
188483.2,210141.8,712062.6,330851.3,712019.6,176435.6,685820.8,186818.0,0.0
188670.8,210307.8,712070.2,330983.7,712026.8,176583.8,685863.9,186954.9,0.0
189007.4,210549.4,712079.6,331172.2,712035.9,176824.8,686154.9,187283.6,0.0
189032.6,210536.0,712077.7,331158.5,712034.4,176827.6,686267.1,187351.4,0.0
188704.2,210279.4,712063.9,330952.3,712021.2,176583.2,685966.9,187061.0,0.0
188481.5,210134.9,712060.8,330839.4,712017.8,176433.3,685810.5,186812.6,0.0
188673.0,210305.5,712072.9,330981.2,712030.1,176585.9,685863.3,186956.7,0.0
189019.9,210558.7,712085.5,331181.7,712042.1,176833.8,686171.3,187301.4,0.0
189048.7,210548.2,712082.6,331170.0,712039.2,176837.3,686291.9,187374.1,0.0
188711.1,210284.2,712068.4,330956.4,712025.4,176588.2,685985.4,187073.6,0.0
188486.6,210143.4,712064.8,330837.8,712022.2,176434.5,685826.3,186819.9,0.0
188669.8,210305.9,712071.8,330969.2,712029.6,176579.2,685870.8,186953.8,0.0
189001.1,210542.4,712076.9,331157.8,712033.4,176811.4,686143.1,187276.4,0.0
189035.5,210538.8,712074.6,331151.8,712030.9,176822.7,686261.7,187351.7,0.0
188710.8,210285.3,712062.5,330946.9,712019.4,176585.3,685969.8,187064.3,0.0
188479.0,210132.3,712059.9,330827.1,712016.9,176433.4,685811.3,186815.8,0.0
188663.8,210297.2,712067.0,330956.4,712024.3,176579.8,685854.4,186951.6,0.0
189009.8,210548.5,712077.4,331157.6,712033.7,176825.2,686150.7,187290.2,0.0
189046.6,210544.3,712076.4,331153.4,712032.4,176832.3,686273.7,187366.5,0.0
188718.9,210288.2,712066.0,330947.4,712022.4,176591.0,685980.9,187077.7,0.0
188485.2,210134.6,712061.0,330826.3,712017.4,176434.0,685816.9,186825.4,0.0
188671.4,210306.8,712069.7,330958.9,712026.8,176581.6,685850.2,186961.7,0.0
189019.4,210563.5,712083.3,331156.6,712039.6,176829.8,686157.6,187301.1,0.0
189046.0,210546.1,712078.8,331135.4,712034.4,176826.7,686271.1,187364.2,0.0
188706.6,210277.7,712062.9,330918.3,712019.7,176574.9,685969.3,187061.8,0.0
188468.1,210122.0,712056.3,330791.2,712013.1,176414.4,685802.7,186801.8,0.0
188650.6,210288.8,712065.0,330924.3,712022.2,176564.7,685835.7,186936.2,0.0
189002.4,210546.5,712077.7,331131.2,712033.9,176819.8,686143.4,187279.4,0.0
189042.2,210542.1,712078.7,331127.1,712034.6,176833.9,686273.6,187362.3,0.0
188715.1,210284.2,712067.0,330921.2,712023.3,176593.9,685981.9,187075.5,0.0
188477.8,210128.0,712060.9,330799.0,712017.6,176432.0,685818.2,186817.8,0.0
188663.4,210297.7,712072.3,330936.5,712029.4,176581.5,685865.4,186955.6,0.0
189000.3,210544.8,712080.3,331131.5,712036.7,176819.7,686150.1,187284.7,0.0
189034.0,210535.2,712075.1,331122.6,712031.5,176822.1,686269.8,187355.8,0.0
188713.8,210283.1,712063.1,330917.8,712019.9,176584.3,685980.4,187067.0,0.0
188478.1,210127.9,712058.5,330793.8,712015.2,176425.9,685811.4,186806.6,0.0
188658.7,210290.3,712067.4,330922.7,712024.3,176572.4,685857.1,186939.1,0.0
188999.3,210540.4,712078.7,331119.7,712034.9,176815.1,686144.6,187275.7,0.0
189036.0,210537.6,712076.0,331115.3,712031.8,176824.5,686271.4,187357.3,0.0
188710.3,210282.7,712064.9,330910.4,712022.1,176587.8,685989.6,187073.7,0.0
188473.3,210126.9,712056.8,330784.7,712014.4,176428.3,685830.1,186814.4,0.0
188651.1,210287.3,712065.6,330912.9,712022.8,176571.6,685868.4,186942.0,0.0
188994.6,210534.0,712077.2,331113.8,712033.6,176818.5,686158.7,187280.3,0.0
189035.6,210533.0,712074.4,331110.5,712030.4,176829.7,686283.4,187361.0,0.0
188713.5,210285.0,712062.1,330908.8,712018.7,176592.4,685993.7,187075.7,0.0
188472.1,210128.6,712058.8,330782.8,712015.5,176429.8,685821.1,186814.4,0.0
188644.2,210284.8,712067.7,330904.1,712024.8,176571.1,685846.9,186936.8,0.0
188995.5,210542.3,712079.9,331108.4,712035.8,176821.8,686149.7,187276.7,0.0
189040.1,210544.7,712077.5,331109.3,712033.6,176837.3,686288.3,187364.8,0.0
188712.3,210285.8,712063.9,330902.9,712020.9,176592.7,685992.4,187072.5,0.0
188479.8,210135.3,712060.1,330781.0,712017.4,176434.5,685822.8,186814.5,0.0
188650.5,210292.7,712069.1,330905.3,712026.8,176574.4,685849.8,186938.9,0.0
188985.2,210532.2,712075.1,331094.3,712031.8,176805.3,686127.1,187260.3,0.0
189033.7,210536.4,712072.4,331097.0,712028.9,176822.2,686259.3,187347.3,0.0
188708.6,210279.4,712058.1,330890.4,712015.3,176584.8,685967.3,187062.8,0.0
188473.0,210127.3,712054.2,330767.5,712011.6,176428.5,685803.9,186807.7,0.0
188643.0,210284.2,712064.4,330894.3,712021.8,176568.2,685845.9,186934.0,0.0
188985.4,210534.8,712076.6,331092.7,712033.0,176814.2,686137.6,187273.1,0.0
189032.7,210538.5,712073.3,331089.8,712029.3,176831.7,686274.3,187361.2,0.0
188717.8,210288.4,712061.7,330890.9,712018.7,176598.5,685989.6,187079.3,0.0
188480.1,210131.4,712057.9,330769.0,712014.7,176437.9,685820.4,186819.7,0.0
188651.6,210290.0,712069.7,330896.0,712026.8,176579.5,685861.2,186946.4,0.0
189000.3,210545.7,712079.9,331097.8,712036.4,176827.7,686152.8,187286.0,0.0
189047.0,210545.2,712077.4,331094.2,712033.4,176839.9,686285.3,187369.0,0.0
188720.8,210287.0,712063.6,330883.6,712020.5,176598.5,685993.5,187080.6,0.0
188473.9,210123.8,712054.4,330752.5,712011.2,176431.6,685815.8,186811.7,0.0
188640.2,210276.8,712060.1,330876.3,712017.4,176568.4,685846.6,186928.4,0.0
188983.5,210527.9,712073.4,331079.4,712030.4,176816.9,686134.7,187266.0,0.0
189031.1,210537.2,712072.0,331084.6,712028.6,176837.1,686272.7,187358.9,0.0
188713.5,210289.6,712060.3,330883.0,712017.0,176600.2,685984.8,187077.9,0.0
188469.3,210125.2,712054.6,330752.2,712011.6,176434.1,685810.6,186814.6,0.0
188637.0,210278.2,712061.8,330874.3,712018.9,176571.5,685855.8,186936.1,0.0
188990.8,210537.1,712076.6,331081.8,712032.6,176827.0,686152.3,187284.7,0.0
189048.9,210547.7,712075.1,331082.6,712031.2,176844.2,686293.6,187375.9,0.0
188716.1,210284.7,712058.5,330868.7,712015.6,176595.7,685992.3,187082.0,0.0
188473.8,210129.8,712052.9,330742.6,712010.0,176431.4,685811.3,186821.4,0.0
188643.4,210287.7,712064.9,330868.7,712022.1,176573.3,685845.3,186943.9,0.0
188991.2,210543.3,712077.8,331067.0,712034.2,176821.8,686141.1,187279.6,0.0
189042.9,210546.1,712075.3,331069.1,712031.2,176837.6,686285.5,187373.7,0.0
188720.3,210292.8,712062.9,330867.4,712019.4,176598.5,685998.6,187090.5,0.0
188471.3,210129.1,712055.4,330738.4,712012.1,176434.3,685811.3,186823.4,0.0
188643.7,210290.6,712065.8,330864.6,712023.2,176579.5,685845.6,186948.6,0.0
188993.2,210547.2,712080.3,331069.4,712036.9,176832.2,686147.0,187291.7,0.0
189045.3,210550.0,712079.6,331069.2,712035.7,176848.5,686291.8,187380.8,0.0
188722.8,210290.9,712064.8,330859.4,712021.6,176600.8,685996.8,187092.5,0.0
188472.3,210122.6,712057.6,330725.0,712014.4,176427.4,685808.4,186818.4,0.0
188628.3,210266.4,712063.4,330838.6,712020.6,176554.1,685839.8,186921.2,0.0
188978.5,210528.5,712073.8,331045.3,712030.3,176807.4,686122.4,187262.1,0.0
189030.9,210534.2,712070.2,331045.9,712026.2,176823.1,686260.6,187353.6,0.0
188705.3,210278.3,712055.1,330840.3,712011.9,176582.0,685969.0,187068.0,0.0
188468.8,210128.3,712053.4,330719.2,712010.5,176423.3,685809.6,186810.9,0.0
188637.6,210283.3,712064.4,330846.3,712021.6,176563.5,685868.4,186930.9,0.0
188993.2,210545.2,712078.1,331052.7,712034.2,176822.3,686154.1,187276.1,0.0
189050.8,210554.9,712077.1,331057.9,712033.0,176844.9,686298.6,187373.3,0.0
188726.0,210299.3,712061.6,330851.7,712018.7,176605.1,686003.1,187089.6,0.0
188469.7,210129.7,712055.0,330720.4,712012.4,176437.8,685805.4,186820.3,0.0
188631.6,210278.6,712065.1,330838.1,712022.4,176570.2,685833.7,186931.7,0.0
188986.3,210540.7,712078.1,331042.6,712034.4,176822.6,686132.7,187275.1,0.0
189053.8,210556.8,712077.4,331052.8,712033.3,176850.7,686286.0,187378.9,0.0
188741.6,210307.0,712065.8,330852.8,712022.6,176617.2,686001.7,187102.5,0.0
188486.5,210134.4,712059.9,330714.3,712017.1,176441.5,685812.0,186826.8,0.0
188634.7,210274.2,712066.4,330827.7,712023.3,176566.2,685835.3,186929.5,0.0
188984.7,210535.4,712077.6,331033.0,712033.7,176818.9,686123.9,187270.4,0.0
189055.2,210557.3,712077.9,331045.0,712033.7,176848.7,686279.3,187373.0,0.0
188737.7,210304.3,712066.3,330843.0,712022.8,176612.7,685995.4,187093.9,0.0
188486.5,210141.2,712062.1,330714.9,712018.8,176447.3,685815.1,186827.3,0.0
188636.3,210278.3,712063.9,330826.8,712021.2,176568.3,685843.3,186927.7,0.0
188991.9,210535.2,712076.6,331036.3,712033.3,176823.6,686127.5,187272.2,0.0
189051.1,210547.2,712076.2,331045.6,712032.2,176847.7,686277.2,187374.9,0.0
188741.8,210304.6,712063.3,330845.7,712020.2,176613.1,685998.3,187099.4,0.0
188487.7,210136.6,712057.9,330709.4,712015.5,176437.2,685806.4,186823.6,0.0
188642.6,210283.1,712068.3,330827.8,712025.5,176567.3,685832.2,186929.1,0.0
188995.9,210544.1,712080.8,331035.2,712037.0,176822.5,686124.5,187271.7,0.0
189060.0,210560.0,712079.1,331045.2,712035.3,176849.4,686279.3,187377.2,0.0
188745.9,210310.3,712067.0,330845.2,712024.3,176614.9,686000.9,187102.1,0.0
188497.5,210146.5,712062.3,330709.2,712019.1,176444.1,685814.5,186830.1,0.0
188650.6,210292.6,712069.7,330824.5,712026.9,176577.8,685830.3,186939.2,0.0
189002.9,210556.9,712083.3,331034.7,712039.7,176837.1,686125.4,187285.3,0.0
189064.2,210574.2,712082.8,331046.2,712039.1,176867.3,686279.9,187391.0,0.0
188747.6,210324.2,712070.1,330843.2,712026.6,176626.5,686003.6,187114.2,0.0
188491.1,210152.3,712066.1,330704.5,712023.3,176451.4,685828.2,186841.7,0.0
188643.7,210297.1,712075.3,330819.1,712032.4,176579.7,685855.0,186945.8,0.0
188991.0,210550.4,712086.8,331021.1,712042.7,176825.9,686132.3,187278.8,0.0
189053.7,210564.5,712085.1,331030.0,712040.9,176849.9,686279.3,187377.3,0.0
188738.7,210317.0,712069.9,330829.9,712026.8,176613.8,685995.4,187100.6,0.0
188487.7,210152.5,712062.6,330697.3,712019.4,176444.7,685810.8,186831.4,0.0
188632.5,210289.1,712070.8,330807.4,712028.2,176569.9,685829.9,186933.5,0.0
188979.6,210543.5,712082.9,331008.6,712039.3,176820.7,686114.4,187267.9,0.0
189049.7,210562.3,712080.7,331019.5,712036.9,176851.3,686271.3,187372.0,0.0
188738.2,210317.5,712067.5,330819.2,712024.1,176620.7,685998.1,187099.9,0.0
188487.6,210153.0,712063.9,330685.7,712021.2,176453.6,685820.8,186830.5,0.0
188636.8,210293.1,712072.0,330798.2,712029.5,176577.7,685842.4,186933.2,0.0
188994.6,210556.2,712084.6,331006.9,712041.3,176835.1,686129.6,187277.8,0.0
189064.8,210579.7,712083.3,331019.1,712039.5,176869.6,686290.3,187385.7,0.0
188753.2,210331.2,712073.5,330818.4,712030.1,176638.1,686010.5,187113.5,0.0
188497.7,210160.0,712069.8,330682.6,712026.8,176464.9,685816.4,186843.3,0.0
188635.4,210289.8,712073.1,330784.8,712030.3,176577.7,685841.9,186933.5,0.0
188987.0,210551.0,712087.4,330994.0,712043.9,176832.9,686125.8,187278.0,0.0
189064.4,210579.5,712089.4,331014.7,712045.3,176872.6,686291.4,187394.0,0.0
188754.0,210331.6,712074.4,330815.9,712031.1,176641.5,686015.2,187122.6,0.0
188492.5,210157.6,712065.1,330677.2,712022.4,176466.1,685823.6,186844.4,0.0
188629.2,210286.0,712069.9,330781.5,712027.8,176580.0,685836.3,186932.8,0.0
188978.7,210540.5,712080.5,330983.3,712037.6,176824.0,686110.0,187268.6,0.0
189054.0,210564.5,712080.9,331000.3,712037.1,176858.5,686276.0,187382.0,0.0
188742.7,210315.4,712068.4,330802.8,712025.4,176627.0,686003.5,187111.7,0.0
188479.7,210137.6,712062.8,330661.1,712020.2,176448.3,685815.6,186833.4,0.0
188624.1,210275.4,712070.9,330769.4,712028.4,176566.4,685838.4,186926.6,0.0
188982.3,210541.3,712081.6,330978.9,712038.4,176820.6,686117.7,187266.5,0.0
189060.3,210564.7,712080.5,330998.2,712036.9,176859.1,686279.3,187378.3,0.0
188749.7,210317.7,712068.6,330798.6,712025.7,176627.9,686006.1,187108.6,0.0
188487.7,210145.4,712063.3,330658.0,712020.6,176450.1,685811.2,186831.2,0.0
188629.2,210280.0,712072.6,330766.1,712029.9,176568.8,685830.9,186925.0,0.0
188972.3,210527.7,712082.2,330966.0,712039.0,176815.4,686102.8,187257.1,0.0
189047.6,210551.8,712078.9,330981.4,712035.6,176852.2,686261.4,187367.8,0.0
188745.8,210314.0,712065.4,330783.9,712022.8,176626.3,685996.8,187101.6,0.0
188489.0,210140.7,712062.1,330645.6,712019.6,176450.6,685821.2,186827.0,0.0
188630.9,210272.8,712068.8,330753.9,712026.1,176568.7,685845.4,186921.1,0.0
188984.3,210533.0,712081.1,330958.9,712038.2,176820.6,686119.1,187262.0,0.0
189061.0,210558.1,712081.6,330976.9,712038.3,176859.6,686284.4,187377.4,0.0
188758.3,210319.5,712069.7,330780.6,712026.8,176634.2,686013.2,187111.9,0.0
188488.8,210141.5,712062.1,330636.1,712019.6,176451.9,685813.3,186828.7,0.0
188614.7,210265.6,712067.9,330738.0,712025.1,176564.4,685835.9,186914.3,0.0
188968.9,210528.9,712079.3,330946.6,712035.8,176819.7,686113.9,187257.3,0.0
189057.6,210563.8,712080.9,330968.7,712037.2,176863.4,686289.9,187380.4,0.0
188752.0,210317.8,712069.1,330772.3,712025.9,176634.2,686019.3,187114.9,0.0
188488.5,210142.6,712062.5,330630.0,712019.6,176453.5,685820.5,186832.0,0.0
188624.5,210272.5,712071.0,330732.4,712028.6,176571.5,685837.6,186921.3,0.0
188971.4,210526.8,712081.8,330934.7,712038.4,176818.6,686114.8,187255.7,0.0
189052.9,210555.9,712079.9,330955.7,712035.9,176852.7,686279.3,187369.5,0.0
188751.2,210313.8,712067.9,330762.7,712024.6,176628.8,686015.5,187107.2,0.0
188485.0,210137.2,712063.3,330618.5,712020.1,176452.2,685825.9,186829.7,0.0
188617.5,210270.0,712071.6,330719.8,712028.7,176568.6,685853.6,186916.6,0.0
188966.3,210528.5,712080.7,330923.0,712036.8,176820.7,686120.4,187251.3,0.0
189042.7,210552.0,712077.4,330939.6,712032.8,176856.0,686281.3,187365.4,0.0
188740.3,210311.4,712065.6,330743.5,712021.9,176629.6,686014.1,187102.5,0.0
188473.7,210130.6,712057.3,330596.3,712013.8,176443.9,685813.1,186819.7,0.0
188609.8,210259.7,712065.4,330699.4,712022.1,176555.7,685833.9,186906.6,0.0
188966.9,210525.3,712078.4,330911.3,712034.6,176812.4,686111.3,187249.3,0.0
189054.5,210558.9,712079.1,330937.5,712035.0,176856.5,686288.1,187375.2,0.0
188747.8,210316.4,712066.3,330740.4,712022.8,176627.2,686018.1,187111.3,0.0
188476.1,210131.1,712059.3,330593.8,712016.0,176439.9,685803.8,186823.8,0.0
188606.2,210257.5,712066.8,330696.2,712023.6,176552.7,685831.1,186906.3,0.0
188963.1,210523.4,712078.0,330904.0,712034.3,176808.8,686106.8,187245.8,0.0
189046.2,210551.3,712073.9,330922.9,712029.5,176848.0,686272.3,187362.1,0.0
188741.7,210313.4,712061.3,330730.5,712017.4,176622.9,686006.4,187104.2,0.0
188471.5,210134.7,712055.0,330584.2,712011.8,176439.0,685812.3,186822.9,0.0
188598.8,210260.4,712061.9,330684.3,712018.8,176550.6,685846.8,186905.2,0.0
188951.9,210520.7,712074.6,330893.4,712030.7,176811.1,686116.0,187248.5,0.0
189050.6,210562.7,712077.8,330926.9,712033.8,176870.8,686300.1,187382.9,0.0
188748.6,210323.2,712065.9,330734.8,712022.6,176646.7,686030.9,187120.0,0.0
188470.6,210133.2,712057.7,330581.7,712014.7,176448.6,685810.8,186827.0,0.0
188599.8,210257.0,712064.9,330681.0,712022.2,176551.4,685834.1,186905.2,0.0
188956.7,210523.6,712075.8,330893.7,712032.2,176809.1,686108.8,187245.1,0.0
189049.8,210566.1,712075.1,330925.1,712031.4,176860.6,686286.8,187372.8,0.0
188757.1,210337.1,712064.1,330738.6,712020.8,176647.3,686026.8,187119.2,0.0
188483.6,210147.8,712058.2,330587.2,712015.1,176452.8,685812.2,186827.5,0.0
188602.2,210262.5,712062.5,330680.4,712019.6,176553.4,685828.7,186899.8,0.0
188955.9,210526.3,712075.1,330890.2,712031.5,176810.1,686101.1,187240.1,0.0
189054.5,210570.5,712077.3,330919.5,712033.4,176858.0,686288.5,187373.1,0.0
188752.3,210328.7,712065.1,330725.5,712021.8,176628.0,686028.1,187110.8,0.0
188478.0,210141.5,712059.2,330579.9,712016.3,176439.4,685817.6,186821.0,0.0
188604.2,210266.4,712064.6,330676.6,712021.8,176548.9,685840.1,186896.1,0.0
188962.8,210532.3,712077.7,330888.5,712034.4,176807.9,686110.8,187240.8,0.0
189052.5,210564.0,712075.8,330912.3,712032.0,176850.2,686281.0,187365.1,0.0
188746.8,210317.9,712060.9,330712.7,712018.0,176618.4,686012.3,187101.2,0.0
188475.5,210133.7,712055.4,330565.5,712013.0,176434.5,685815.4,186818.3,0.0
188601.7,210261.1,712065.1,330666.9,712023.0,176545.6,685833.8,186900.0,0.0
188963.3,210533.4,712079.9,330882.4,712037.1,176805.9,686112.1,187245.0,0.0
189059.9,210573.1,712080.7,330912.3,712036.9,176853.8,686296.3,187376.6,0.0
188758.6,210327.5,712064.9,330715.2,712021.8,176625.6,686031.2,187112.5,0.0
188484.1,210138.2,712057.7,330565.2,712015.2,176439.7,685817.1,186823.3,0.0
188603.6,210256.5,712064.8,330660.6,712022.6,176542.8,685809.4,186899.8,0.0
188951.8,210516.5,712076.0,330868.7,712032.4,176794.8,686081.4,187238.1,0.0
189046.5,210555.6,712073.3,330897.3,712029.3,176844.0,686255.1,187366.1,0.0
188754.5,210323.0,712061.7,330709.7,712018.3,176627.2,685999.3,187112.6,0.0
188483.6,210140.3,712057.1,330563.4,712013.9,176442.0,685807.5,186829.2,0.0
188607.0,210261.3,712064.0,330658.6,712020.9,176547.8,685834.2,186903.3,0.0
188960.1,210524.3,712075.9,330865.3,712032.2,176804.8,686092.9,187238.5,0.0
189061.0,210568.3,712077.2,330896.0,712033.4,176865.1,686282.0,187376.9,0.0
188757.4,210322.1,712061.5,330695.5,712018.3,176634.4,686021.4,187115.6,0.0
188480.4,210132.0,712054.3,330545.1,712011.3,176441.7,685812.0,186823.0,0.0
188599.6,210254.2,712063.9,330645.2,712021.6,176550.2,685831.5,186898.2,0.0
188953.9,210521.6,712076.1,330854.9,712032.9,176808.8,686097.4,187234.8,0.0
189054.5,210565.6,712073.1,330884.4,712029.0,176857.7,686279.3,187368.7,0.0
188756.3,210323.6,712059.3,330689.3,712015.9,176629.2,686020.6,187110.0,0.0
188480.8,210134.5,712053.5,330539.8,712010.8,176437.3,685811.1,186818.3,0.0
188595.0,210246.7,712059.4,330629.6,712016.8,176531.7,685807.7,186884.2,0.0
188945.5,210506.2,712071.0,330835.4,712027.6,176784.2,686075.1,187217.9,0.0
189047.5,210552.0,712072.4,330871.0,712028.4,176842.2,686265.4,187355.8,0.0
188751.6,210313.9,712059.1,330676.7,712015.7,176621.3,686011.4,187100.6,0.0
188477.6,210127.3,712053.3,330526.1,712010.1,176428.5,685807.9,186812.3,0.0
188599.3,210250.0,712060.8,330623.2,712018.3,176533.2,685828.4,186884.2,0.0
188952.7,210517.3,712076.2,330839.8,712033.1,176801.0,686099.3,187229.4,0.0
189050.3,210559.5,712078.0,330870.8,712034.2,176860.2,686287.2,187364.7,0.0
188757.6,210324.5,712064.4,330678.6,712021.4,176639.9,686029.1,187112.6,0.0
188486.5,210143.0,712058.8,330532.4,712015.9,176453.8,685816.4,186825.4,0.0
188597.6,210254.3,712063.1,330620.4,712020.1,176553.8,685843.3,186885.3,0.0
188951.6,210518.9,712075.6,330829.6,712031.8,176805.7,686104.2,187223.6,0.0
189055.4,210567.7,712077.4,330864.8,712033.7,176859.8,686297.8,187367.3,0.0
188763.6,210334.0,712066.9,330673.0,712023.4,176637.3,686046.7,187117.8,0.0
188483.6,210142.9,712062.6,330519.5,712019.3,176443.0,685832.8,186824.8,0.0
188596.2,210259.3,712071.3,330613.9,712028.0,176543.4,685846.8,186893.0,0.0
188954.1,210529.8,712083.8,330826.2,712040.0,176805.3,686120.9,187235.6,0.0
189048.8,210567.1,712081.3,330854.9,712037.3,176857.9,686303.3,187368.5,0.0
188747.6,210321.6,712065.9,330657.3,712022.6,176631.9,686041.1,187110.8,0.0
188459.5,210121.7,712050.4,330496.1,712007.4,176429.1,685811.6,186805.5,0.0
188576.4,210241.1,712059.0,330592.9,712016.1,176530.2,685824.5,186873.1,0.0
188934.6,210510.5,712075.6,330806.6,712031.9,176790.1,686096.1,187216.5,0.0
189043.4,210559.3,712078.1,330845.7,712034.1,176853.5,686289.4,187360.5,0.0
188758.3,210330.5,712065.2,330655.4,712021.4,176637.0,686037.0,187113.0,0.0
188477.6,210138.0,712058.1,330503.6,712014.9,176445.0,685812.3,186819.0,0.0
188593.5,210256.3,712066.5,330599.5,712023.9,176551.7,685818.3,186888.8,0.0
188952.7,210526.2,712079.9,330813.3,712037.0,176809.3,686093.4,187230.7,0.0
189061.8,210572.5,712077.5,330847.4,712033.7,176859.2,686281.9,187366.6,0.0
188765.4,210330.3,712062.3,330654.1,712019.1,176636.8,686028.4,187112.9,0.0
188483.8,210140.5,712058.9,330501.5,712016.3,176445.9,685821.4,186822.7,0.0
188601.9,210267.8,712066.5,330599.3,712024.1,176550.5,685838.3,186891.5,0.0
188957.1,210533.9,712080.9,330815.0,712037.5,176812.2,686103.6,187231.5,0.0
189064.5,210580.4,712079.3,330854.2,712035.4,176869.0,686292.8,187373.0,0.0
188779.0,210349.3,712064.2,330665.1,712021.0,176649.3,686037.1,187125.4,0.0
188498.2,210155.6,712058.1,330511.3,712015.4,176457.1,685805.2,186829.7,0.0
188604.8,210265.7,712066.4,330603.3,712023.9,176556.1,685828.4,186894.4,0.0
188952.1,210524.2,712078.3,330810.9,712035.1,176811.2,686085.8,187231.7,0.0
189064.6,210574.9,712078.6,330848.6,712034.5,176872.0,686282.4,187375.9,0.0
188780.3,210344.1,712066.2,330661.9,712022.9,176653.2,686035.3,187129.6,0.0
188497.2,210151.5,712059.4,330507.8,712016.6,176452.5,685812.2,186830.5,0.0
188602.5,210265.4,712067.2,330597.3,712024.5,176546.3,685838.1,186889.4,0.0
188964.9,210535.9,712081.6,330813.9,712038.8,176811.2,686104.1,187237.3,0.0
189084.0,210591.7,712083.3,330857.8,712040.0,176881.1,686310.0,187392.2,0.0
188787.4,210351.7,712069.1,330661.4,712025.9,176655.8,686055.9,187138.9,0.0
188492.2,210147.6,712059.3,330497.5,712016.4,176449.7,685826.8,186832.4,0.0
188591.3,210250.4,712065.3,330581.3,712022.6,176535.5,685831.9,186885.0,0.0
188946.8,210516.2,712076.4,330793.8,712033.2,176792.8,686087.6,187221.4,0.0
189060.7,210568.5,712073.5,330835.2,712029.7,176857.4,686274.1,187364.5,0.0
188782.3,210345.2,712063.1,330653.8,712019.8,176647.8,686036.1,187128.7,0.0
188503.4,210154.3,712057.3,330501.9,712014.1,176456.8,685829.3,186841.6,0.0
188606.6,210263.0,712066.2,330588.6,712023.0,176553.6,685843.3,186897.8,0.0
188955.4,210525.4,712078.5,330796.4,712034.6,176805.3,686097.6,187228.7,0.0
189063.7,210576.6,712075.9,330833.8,712031.9,176863.4,686287.2,187372.3,0.0
188782.3,210348.6,712063.6,330645.0,712020.4,176646.9,686042.7,187128.7,0.0
188493.0,210149.3,712055.8,330484.7,712012.9,176444.6,685811.3,186827.9,0.0
188586.7,210247.5,712061.0,330561.5,712017.6,176527.1,685833.7,186876.6,0.0
188941.6,210512.6,712075.6,330772.9,712032.0,176784.8,686090.5,187215.5,0.0
189062.8,210574.0,712080.0,330822.8,712035.8,176857.7,686298.9,187373.9,0.0
188786.1,210354.3,712070.4,330644.4,712026.5,176657.0,686063.5,187144.7,0.0
188506.4,210168.4,712065.0,330494.3,712021.8,176472.2,685822.8,186854.7,0.0
188598.5,210268.9,712068.9,330577.2,712025.9,176561.7,685818.7,186900.7,0.0
188947.0,210526.9,712077.6,330785.7,712034.1,176809.7,686071.0,187228.1,0.0
189067.6,210583.8,712077.8,330828.5,712033.8,176876.2,686271.6,187380.0,0.0
188780.2,210349.0,712062.8,330635.2,712019.6,176657.7,686033.8,187137.0,0.0
188479.7,210139.4,712054.8,330468.2,712011.6,176447.9,685819.4,186827.2,0.0
188578.2,210244.5,712064.8,330552.2,712021.8,176532.6,685820.1,186875.7,0.0
188929.3,210505.4,712076.9,330762.0,712033.4,176785.0,686077.2,187208.5,0.0
189060.0,210571.1,712079.8,330814.7,712035.6,176858.2,686291.4,187369.6,0.0
188781.8,210345.1,712066.2,330631.6,712022.3,176646.1,686050.4,187130.3,0.0
188487.3,210140.9,712056.5,330465.1,712013.4,176439.5,685812.5,186824.2,0.0
188575.5,210234.3,712061.4,330540.8,712018.3,176517.1,685820.1,186861.8,0.0
188934.8,210506.0,712072.9,330760.1,712029.5,176780.3,686066.4,187198.1,0.0
189062.2,210575.9,712076.4,330812.2,712032.4,176864.5,686277.2,187360.4,0.0
188779.6,210351.5,712064.1,330627.7,712020.4,176655.0,686042.1,187125.3,0.0
188481.8,210146.9,712054.2,330460.8,712010.9,176449.4,685812.1,186820.3,0.0
188576.4,210247.4,712059.0,330539.7,712015.6,176535.3,685823.2,186867.6,0.0
188928.2,210514.4,712071.9,330748.1,712028.1,176790.1,686073.3,187201.5,0.0
189050.8,210577.5,712074.6,330793.1,712030.4,176862.8,686280.7,187358.8,0.0
188772.3,210349.8,712060.0,330609.1,712016.6,176651.1,686043.1,187123.5,0.0
188485.8,210150.3,712053.2,330451.7,712010.1,176453.0,685812.3,186827.6,0.0
188572.2,210243.7,712059.8,330526.5,712016.8,176532.8,685810.0,186867.5,0.0
188923.9,210508.4,712073.5,330737.8,712029.7,176788.6,686061.3,187200.3,0.0
189056.3,210575.4,712074.1,330789.7,712029.7,176864.8,686271.6,187359.8,0.0
188781.5,210354.3,712062.5,330609.3,712019.1,176659.1,686044.0,187129.8,0.0
188496.8,210163.7,712060.3,330455.4,712016.9,176469.1,685829.2,186838.9,0.0
188583.4,210254.6,712065.4,330528.8,712022.2,176542.8,685845.3,186876.0,0.0
188932.4,210509.5,712075.8,330732.9,712032.2,176782.5,686082.7,187198.7,0.0
189059.4,210569.2,712075.6,330779.5,712031.7,176850.0,686290.9,187355.0,0.0
188790.5,210347.7,712064.8,330601.0,712021.5,176645.3,686061.7,187124.9,0.0
188494.9,210142.3,712056.3,330436.0,712013.1,176438.3,685816.1,186816.9,0.0
188583.8,210241.6,712062.3,330512.9,712019.6,176518.3,685822.4,186855.6,0.0
188940.9,210512.4,712076.3,330728.1,712032.9,176780.1,686076.8,187194.6,0.0
189063.2,210574.7,712075.6,330778.4,712031.9,176853.9,686283.0,187354.9,0.0
188787.0,210351.2,712063.6,330598.8,712020.6,176650.6,686049.1,187126.9,0.0
188495.9,210152.3,712057.4,330438.5,712014.3,176449.4,685812.6,186826.1,0.0
188580.3,210243.6,712063.5,330514.7,712020.8,176521.2,685832.4,186863.4,0.0
188928.2,210503.6,712073.6,330723.9,712030.3,176775.3,686072.4,187194.3,0.0
189052.2,210563.2,712072.0,330772.2,712028.0,176845.9,686271.8,187350.0,0.0
188786.2,210345.1,712060.8,330591.2,712017.4,176637.8,686045.1,187122.8,0.0
188495.2,210144.0,712053.2,330428.5,712010.4,176439.2,685819.6,186822.6,0.0
188579.1,210239.1,712061.4,330505.8,712018.4,176523.6,685833.4,186861.3,0.0
188938.4,210514.5,712075.4,330724.3,712031.9,176788.4,686085.1,187202.7,0.0
189071.3,210588.1,712076.9,330774.3,712033.1,176866.5,686300.3,187369.9,0.0
188789.5,210358.2,712066.4,330587.9,712023.2,176657.1,686065.8,187137.7,0.0
188487.0,210147.3,712057.6,330420.0,712014.5,176445.9,685817.2,186829.1,0.0
188575.9,210247.1,712063.7,330497.2,712020.8,176528.2,685822.6,186869.5,0.0
188936.8,210522.1,712079.4,330716.3,712036.3,176794.6,686079.1,187211.8,0.0
189072.9,210592.5,712083.6,330772.8,712039.4,176876.8,686302.8,187380.9,0.0
188803.6,210374.5,712071.9,330590.4,712027.8,176669.3,686076.0,187152.5,0.0
188503.5,210166.1,712063.6,330420.4,712020.4,176459.2,685832.3,186844.0,0.0
188570.9,210243.3,712066.5,330483.5,712023.4,176523.0,685845.4,186864.4,0.0
188927.3,210511.9,712079.6,330699.3,712035.9,176784.0,686089.9,187202.2,0.0
189064.6,210582.8,712081.4,330759.0,712037.3,176867.3,686308.6,187374.5,0.0
188803.6,210370.0,712072.4,330586.4,712028.7,176670.3,686086.8,187154.6,0.0
188508.7,210165.7,712065.6,330422.8,712022.2,176468.3,685825.3,186851.0,0.0
188582.8,210252.7,712068.6,330495.5,712025.4,176541.2,685833.2,186879.0,0.0
188941.2,210527.9,712082.6,330713.4,712038.8,176806.9,686080.5,187215.4,0.0
189085.1,210610.0,712086.8,330774.2,712042.1,176900.7,686305.5,187391.9,0.0
188820.5,210392.8,712075.9,330601.4,712031.8,176700.8,686085.3,187175.1,0.0
188525.0,210185.4,712069.2,330438.6,712025.9,176490.8,685831.3,186871.5,0.0
188603.0,210272.1,712074.9,330509.0,712031.7,176563.7,685833.7,186901.9,0.0
188953.4,210539.0,712085.7,330720.8,712041.6,176822.1,686076.9,187233.5,0.0
189097.5,210619.0,712088.9,330780.8,712044.6,176907.5,686297.9,187408.5,0.0
188828.1,210398.7,712076.2,330601.6,712031.9,176702.3,686074.6,187183.6,0.0
188527.8,210188.3,712068.1,330433.1,712024.6,176492.2,685839.1,186875.5,0.0
188597.8,210266.2,712071.9,330498.1,712028.6,176559.1,685832.1,186898.4,0.0
188948.3,210533.4,712086.4,330709.6,712042.7,176820.4,686073.1,187231.0,0.0
189093.2,210615.5,712087.9,330767.0,712043.8,176910.7,686296.4,187408.7,0.0
188829.6,210401.3,712076.4,330590.0,712032.6,176710.9,686076.9,187188.8,0.0
188534.4,210196.3,712071.7,330427.2,712029.1,176506.0,685831.8,186886.6,0.0
188616.0,210289.6,712079.5,330504.6,712036.9,176583.6,685826.9,186919.0,0.0
188961.9,210549.0,712089.3,330711.7,712045.5,176829.0,686061.8,187241.4,0.0
189098.1,210619.3,712086.6,330762.4,712042.8,176906.4,686278.6,187407.7,0.0
188825.8,210393.8,712074.9,330579.5,712031.1,176698.9,686060.1,187180.5,0.0
188520.8,210179.3,712068.6,330407.1,712024.8,176482.7,685827.4,186864.8,0.0
188599.9,210270.6,712074.4,330479.3,712031.3,176558.0,685832.2,186893.0,0.0
188956.7,210537.2,712083.8,330693.9,712040.4,176813.6,686067.4,187224.1,0.0
189099.0,210610.7,712084.3,330753.0,712040.4,176897.6,686286.4,187398.0,0.0
188830.5,210389.2,712073.1,330574.5,712029.9,176695.7,686073.1,187179.2,0.0
188521.8,210173.1,712065.1,330404.6,712021.9,176481.2,685835.9,186866.1,0.0
188597.7,210262.6,712072.3,330477.3,712029.3,176551.0,685836.9,186894.8,0.0
188955.8,210536.9,712087.4,330693.6,712043.8,176812.7,686080.9,187230.4,0.0
189103.3,210619.4,712090.8,330756.1,712046.8,176905.8,686310.0,187409.4,0.0
188839.3,210399.9,712077.8,330580.2,712034.3,176704.4,686093.8,187188.1,0.0
188531.4,210184.5,712066.8,330405.6,712024.1,176490.5,685845.3,186874.2,0.0
188597.4,210269.5,712072.9,330471.0,712030.1,176561.4,685835.1,186898.0,0.0
188949.9,210540.1,712087.8,330684.8,712044.2,176824.1,686078.9,187231.0,0.0
189090.9,210616.4,712086.1,330739.0,712042.2,176908.3,686295.1,187400.1,0.0
188826.7,210394.1,712073.4,330560.1,712029.6,176700.1,686075.8,187178.1,0.0
188526.1,210182.2,712067.7,330392.0,712024.4,176489.1,685834.1,186869.3,0.0
188594.6,210266.7,712072.9,330456.9,712029.9,176554.7,685836.9,186890.6,0.0
188959.0,210546.6,712090.3,330679.3,712046.9,176825.0,686087.4,187231.6,0.0
189110.0,210631.0,712093.3,330747.4,712048.9,176921.9,686324.4,187417.7,0.0
188846.7,210413.3,712082.1,330569.6,712038.3,176719.3,686110.9,187201.0,0.0
188541.4,210199.0,712075.2,330396.9,712032.1,176505.8,685849.3,186892.7,0.0
188601.0,210273.9,712080.0,330457.4,712037.3,176564.7,685842.2,186904.2,0.0
188939.2,210527.3,712087.8,330660.7,712044.6,176807.0,686058.3,187216.3,0.0
189073.3,210594.2,712080.6,330713.8,712036.7,176883.3,686255.9,187376.3,0.0
188817.2,210382.5,712067.0,330545.6,712024.1,176690.8,686043.6,187164.9,0.0
188523.0,210177.1,712060.6,330383.8,712018.1,176482.0,685816.8,186860.4,0.0
188592.9,210259.6,712068.6,330451.8,712025.7,176547.9,685836.8,186881.9,0.0
188944.0,210528.0,712082.2,330666.6,712038.6,176808.2,686066.4,187215.7,0.0
189097.6,210616.8,712084.8,330733.5,712041.1,176904.7,686298.3,187404.5,0.0
188835.9,210400.2,712071.9,330558.7,712028.6,176709.2,686084.9,187190.4,0.0
188523.3,210178.9,712062.3,330382.0,712020.1,176488.8,685824.3,186873.6,0.0
188584.9,210257.8,712069.9,330446.8,712027.2,176551.4,685830.5,186890.4,0.0
188937.6,210529.5,712083.3,330661.5,712039.9,176810.9,686067.5,187220.0,0.0
189096.5,210620.9,712087.4,330731.3,712043.8,176913.3,686306.4,187408.2,0.0
188841.2,210406.3,712076.4,330558.9,712033.3,176719.0,686097.8,187195.5,0.0
188530.8,210182.8,712066.6,330383.6,712024.1,176493.3,685840.1,186875.6,0.0
188586.0,210252.3,712069.8,330438.9,712027.6,176545.6,685837.4,186882.0,0.0
188937.4,210519.6,712081.3,330650.3,712038.6,176800.3,686064.1,187208.8,0.0
189096.6,210610.9,712084.5,330721.6,712040.5,176900.6,686300.0,187397.8,0.0
188842.2,210402.4,712076.2,330551.6,712032.6,176709.8,686093.7,187191.1,0.0
188531.8,210186.1,712065.6,330377.8,712022.6,176493.9,685833.8,186877.8,0.0
188591.6,210266.1,712072.2,330439.6,712029.2,176558.8,685851.6,186894.2,0.0
188947.3,210537.5,712088.4,330654.8,712044.9,176824.6,686092.1,187229.2,0.0
189097.6,210618.8,712089.9,330717.2,712045.8,176915.0,686320.6,187409.2,0.0
188838.0,210403.4,712076.8,330542.9,712033.0,176716.8,686107.3,187195.7,0.0
188523.8,210180.8,712066.2,330363.6,712023.4,176498.1,685834.3,186876.6,0.0
188581.7,210254.9,712069.9,330425.1,712027.4,176557.5,685836.4,186886.6,0.0
188942.6,210532.3,712087.4,330646.0,712044.4,176822.8,686077.6,187220.5,0.0
189102.7,210623.6,712092.3,330717.2,712048.6,176915.2,686319.0,187412.2,0.0
188842.4,210403.2,712078.0,330540.1,712034.8,176710.3,686105.0,187199.5,0.0
188527.9,210181.6,712066.1,330361.7,712023.6,176487.2,685834.9,186879.5,0.0
188588.3,210260.1,712072.2,330424.2,712029.9,176548.8,685831.2,186891.1,0.0
188944.8,210531.6,712086.4,330640.6,712043.0,176816.1,686068.4,187220.9,0.0
189104.8,210620.9,712090.8,330710.3,712047.2,176913.0,686310.2,187410.9,0.0
188854.1,210413.1,712080.4,330539.7,712037.6,176715.0,686106.9,187204.0,0.0
188540.7,210192.3,712071.3,330363.2,712028.7,176495.5,685845.3,186886.2,0.0
188589.5,210259.4,712074.8,330417.7,712031.9,176549.5,685830.6,186886.6,0.0
188940.9,210525.6,712086.3,330631.8,712042.8,176805.2,686058.9,187213.8,0.0
189098.5,210613.3,712088.0,330698.5,712043.9,176900.1,686290.3,187401.1,0.0
188846.8,210404.9,712076.6,330529.7,712033.1,176707.0,686083.5,187192.3,0.0
188537.5,210187.7,712068.1,330357.3,712025.3,176490.5,685835.7,186878.1,0.0
188591.1,210258.5,712073.1,330417.8,712030.6,176547.1,685847.8,186888.4,0.0
188938.7,210523.2,712085.1,330630.7,712041.7,176803.3,686066.2,187215.7,0.0
189103.0,210617.2,712087.3,330702.8,712043.6,176905.4,686305.4,187409.4,0.0
188857.1,210410.4,712075.6,330531.6,712032.3,176712.5,686101.9,187201.5,0.0
188545.9,210192.9,712067.9,330354.0,712024.9,176495.5,685833.9,186883.8,0.0
188597.4,210263.3,712073.3,330412.8,712030.3,176548.6,685830.1,186890.0,0.0
188953.3,210534.3,712087.6,330632.7,712044.3,176814.6,686063.3,187222.4,0.0
189109.5,210620.0,712090.7,330698.6,712046.4,176912.5,686299.0,187408.9,0.0
188856.6,210411.3,712077.4,330525.7,712033.6,176718.2,686097.2,187200.6,0.0
188541.7,210188.3,712070.4,330347.2,712027.1,176496.2,685838.1,186880.0,0.0
188592.0,210254.0,712079.3,330403.2,712035.8,176551.6,685833.4,186886.0,0.0
188950.6,210529.7,712092.3,330620.8,712048.5,176818.9,686071.6,187221.7,0.0
189113.6,210622.2,712094.6,330687.9,712050.4,176915.9,686315.1,187412.8,0.0
188863.1,210417.6,712086.8,330519.7,712043.1,176724.5,686120.9,187210.7,0.0
188546.6,210196.1,712074.8,330341.5,712031.8,176498.6,685849.3,186886.3,0.0
188579.3,210247.8,712074.3,330386.8,712031.2,176537.9,685838.2,186872.0,0.0
188924.1,210511.3,712082.9,330596.1,712039.2,176788.9,686044.3,187189.1,0.0
189095.2,210613.3,712084.1,330674.5,712039.9,176894.9,686282.9,187387.6,0.0
188844.2,210403.5,712070.1,330506.0,712026.0,176704.5,686084.5,187187.0,0.0
188530.0,210181.2,712062.6,330327.6,712019.3,176488.3,685840.4,186873.3,0.0
188578.0,210249.1,712070.0,330383.9,712026.8,176544.7,685840.1,186880.3,0.0
188927.1,210518.0,712081.4,330596.5,712037.8,176800.8,686060.8,187204.8,0.0
189094.9,210617.5,712084.1,330674.1,712040.4,176904.6,686302.2,187401.9,0.0
188854.8,210417.2,712074.7,330513.5,712031.1,176719.5,686113.0,187207.3,0.0
188538.2,210195.9,712068.4,330333.6,712024.6,176496.6,685851.5,186888.2,0.0
188574.0,210251.3,712072.1,330378.4,712028.6,176542.0,685829.5,186882.4,0.0
188927.9,210521.2,712085.4,330589.8,712041.4,176799.1,686057.9,187206.1,0.0
189100.1,210620.1,712088.7,330666.1,712044.1,176906.2,686309.1,187404.6,0.0
188855.7,210413.9,712077.1,330504.2,712033.4,176720.2,686115.2,187207.0,0.0
188543.5,210195.5,712067.3,330326.4,712024.1,176501.1,685835.9,186889.2,0.0
188590.4,210264.1,712075.1,330378.1,712031.7,176552.5,685827.4,186890.7,0.0
188935.2,210525.0,712087.3,330587.3,712043.8,176799.8,686049.8,187210.5,0.0
189098.8,210614.6,712086.0,330659.3,712042.2,176899.2,686288.4,187402.8,0.0
188850.7,210404.0,712073.7,330488.5,712030.1,176705.7,686091.0,187196.9,0.0
188533.4,210177.4,712064.9,330306.4,712021.9,176478.8,685829.5,186874.5,0.0
188575.3,210244.0,712069.9,330357.6,712027.0,176530.4,685834.2,186870.5,0.0
188927.1,210515.8,712084.1,330572.1,712040.9,176789.1,686055.8,187195.7,0.0
189097.9,210612.0,712086.9,330647.5,712042.9,176896.3,686300.5,187391.9,0.0
188852.2,210403.6,712074.7,330481.4,712031.1,176706.1,686101.9,187189.5,0.0
188538.4,210183.7,712065.4,330307.3,712022.8,176489.9,685835.7,186876.6,0.0
188576.6,210243.8,712072.0,330354.5,712029.3,176537.0,685849.4,186871.6,0.0
188917.0,210503.3,712082.0,330561.5,712038.6,176785.4,686057.6,187190.0,0.0
189093.7,210607.9,712083.1,330640.9,712039.0,176893.1,686301.1,187391.1,0.0
188850.0,210404.3,712071.9,330477.8,712027.9,176706.7,686109.4,187194.9,0.0
188532.7,210181.3,712064.3,330301.8,712021.2,176485.6,685835.3,186876.2,0.0
188566.2,210237.2,712066.4,330346.6,712023.4,176528.9,685825.6,186864.4,0.0
188920.7,210507.7,712079.3,330564.3,712035.5,176794.1,686049.0,187190.9,0.0
189094.5,210609.0,712084.5,330647.2,712040.0,176908.2,686298.1,187396.9,0.0
188854.8,210409.6,712072.6,330482.3,712028.4,176717.8,686106.1,187202.2,0.0
188535.5,210186.1,712062.8,330303.0,712019.6,176494.8,685838.1,186881.4,0.0
188574.8,210250.3,712067.1,330354.6,712024.1,176543.8,685840.3,186877.0,0.0
188921.3,210515.8,712082.4,330565.3,712038.6,176798.1,686060.0,187201.2,0.0
189090.5,210611.0,712084.9,330635.6,712040.7,176900.3,686307.8,187399.0,0.0
188854.0,210409.8,712073.7,330473.1,712030.1,176719.9,686122.3,187207.0,0.0
188541.2,210189.0,712065.0,330297.1,712021.8,176498.1,685834.8,186887.5,0.0
188570.6,210239.9,712067.0,330338.7,712023.6,176536.1,685836.1,186869.2,0.0
188917.9,210507.6,712080.2,330551.3,712036.7,176794.8,686056.2,187191.7,0.0
189092.2,210610.8,712083.5,330632.0,712039.5,176903.3,686304.7,187393.6,0.0
188850.5,210407.7,712073.9,330466.6,712030.1,176714.2,686117.9,187199.2,0.0
188528.3,210176.3,712062.9,330280.0,712019.4,176479.1,685841.3,186872.0,0.0
188566.4,210236.8,712067.6,330327.9,712024.5,176523.3,685804.8,186861.0,0.0
188912.7,210499.8,712078.6,330537.2,712035.1,176775.6,686016.8,187175.1,0.0
189092.6,210605.1,712080.0,330621.4,712036.3,176889.2,686270.0,187381.5,0.0
188852.5,210402.4,712065.8,330458.2,712022.8,176704.4,686085.9,187190.3,0.0
188528.0,210171.5,712055.6,330273.5,712012.5,176478.6,685828.6,186866.5,0.0
188555.0,210225.9,712059.4,330316.8,712016.9,176520.0,685813.1,186851.7,0.0
188906.3,210502.7,712076.1,330539.0,712033.2,176784.9,686036.9,187182.7,0.0
189095.2,210618.8,712083.9,330631.6,712040.4,176908.1,686301.1,187400.5,0.0
188860.8,210416.0,712072.3,330466.2,712029.1,176721.7,686115.2,187208.8,0.0
188532.1,210182.5,712060.9,330276.2,712018.1,176487.4,685837.0,186878.3,0.0
188560.0,210238.3,712067.1,330321.4,712023.9,176529.3,685830.5,186865.3,0.0
188905.8,210506.0,712079.8,330534.8,712036.4,176788.5,686041.9,187185.0,0.0
189089.4,210613.9,712082.4,330619.0,712038.8,176903.3,686296.8,187395.3,0.0
188861.4,210418.4,712072.3,330459.8,712029.4,176722.0,686118.7,187212.0,0.0
188542.5,210191.6,712068.1,330274.8,712025.5,176499.1,685834.8,186894.4,0.0
188572.6,210245.3,712076.2,330318.9,712033.6,176540.7,685830.3,186879.9,0.0
188911.2,210503.9,712084.9,330526.3,712042.1,176783.4,686033.2,187186.9,0.0
189099.1,210617.3,712089.8,330616.9,712046.4,176906.1,686294.2,187403.7,0.0
188866.8,210422.1,712078.1,330457.4,712034.6,176729.5,686119.4,187220.8,0.0
188533.5,210184.3,712064.8,330266.5,712022.1,176492.6,685841.7,186889.9,0.0
188552.0,210227.5,712067.3,330301.8,712024.6,176523.0,685819.9,186862.8,0.0
188898.1,210491.5,712078.6,330515.0,712035.7,176774.9,686025.9,187179.2,0.0
189083.5,210599.8,712080.5,330600.6,712036.5,176891.5,686279.3,187390.2,0.0
188852.0,210402.6,712068.3,330438.5,712024.5,176710.6,686097.4,187199.4,0.0
188534.1,210177.8,712058.8,330257.2,712015.4,176484.4,685841.3,186872.5,0.0
188559.9,210229.9,712063.1,330301.8,712020.1,176523.8,685820.8,186852.3,0.0
188908.5,210500.7,712075.3,330516.9,712032.0,176784.7,686028.4,187172.4,0.0
189097.6,210614.6,712078.3,330606.5,712034.6,176904.6,686283.7,187387.1,0.0
188870.5,210418.8,712068.1,330448.8,712025.1,176723.7,686107.8,187203.3,0.0
188547.5,210191.5,712059.6,330263.2,712016.9,176495.3,685833.9,186879.2,0.0
188566.3,210238.4,712063.9,330299.3,712021.5,176530.4,685812.2,186855.3,0.0
188914.5,210506.5,712078.1,330514.8,712035.1,176786.9,686025.9,187174.3,0.0
189102.9,210617.5,712081.8,330605.3,712038.1,176901.0,686286.6,187389.1,0.0
188877.3,210424.6,712071.1,330450.8,712027.6,176726.9,686118.1,187211.0,0.0
188547.6,210187.8,712061.2,330261.6,712018.3,176493.5,685851.6,186882.1,0.0
188561.1,210229.7,712063.4,330294.5,712020.6,176518.3,685828.8,186852.2,0.0
188900.7,210492.9,712075.6,330502.5,712032.6,176770.3,686034.0,187167.5,0.0
189086.0,210605.7,712079.1,330590.4,712035.5,176891.8,686292.4,187382.2,0.0
188867.0,210419.9,712071.7,330443.4,712028.4,176723.5,686130.3,187212.1,0.0
188555.6,210203.1,712065.6,330267.2,712023.0,176506.8,685849.8,186896.9,0.0
188576.2,210251.8,712070.3,330303.3,712027.8,176539.0,685832.6,186872.9,0.0
188915.8,210512.7,712084.4,330512.7,712041.1,176788.5,686044.6,187186.7,0.0
189098.1,210619.4,712088.1,330597.5,712043.8,176903.7,686298.6,187394.4,0.0
188870.3,210424.5,712077.2,330439.0,712033.4,176724.3,686125.6,187209.4,0.0
188540.9,210188.4,712064.4,330250.6,712021.2,176491.9,685849.4,186880.6,0.0
188555.8,210231.3,712065.1,330284.9,712022.3,176516.6,685819.6,186850.8,0.0
188900.4,210495.8,712074.9,330497.2,712031.8,176771.5,686018.2,187164.9,0.0
189099.6,210618.1,712081.6,330594.8,712037.9,176906.1,686287.8,187391.9,0.0
188878.7,210429.6,712072.1,330440.9,712028.7,176735.6,686124.6,187219.3,0.0
188550.3,210193.0,712061.0,330250.1,712018.3,176499.4,685850.4,186891.3,0.0
188566.8,210235.4,712064.4,330287.2,712021.8,176526.4,685823.9,186863.6,0.0
188910.5,210500.8,712078.7,330500.7,712035.7,176781.2,686029.2,187180.7,0.0
189107.9,210622.4,712083.1,330593.7,712039.4,176905.4,686295.4,187400.3,0.0
188890.0,210433.5,712071.9,330438.3,712028.6,176730.4,686128.6,187223.3,0.0
188556.1,210193.5,712062.9,330247.1,712020.2,176497.1,685843.0,186894.0,0.0
188568.7,210234.4,712068.3,330280.8,712025.4,176525.4,685835.9,186862.1,0.0
188915.9,210505.5,712080.8,330487.9,712037.8,176778.5,686041.1,187175.4,0.0
189111.1,210623.1,712084.8,330582.0,712040.7,176903.0,686304.4,187396.0,0.0
188890.0,210431.5,712072.9,330433.7,712029.3,176733.0,686139.1,187223.0,0.0
188560.1,210195.6,712064.5,330247.0,712021.5,176502.2,685844.1,186896.2,0.0
188580.9,210244.9,712070.1,330284.4,712027.0,176533.3,685826.6,186871.3,0.0
188924.5,210511.3,712083.1,330494.1,712039.5,176785.2,686038.1,187187.4,0.0
189115.5,210628.5,712085.4,330581.7,712041.5,176907.6,686301.8,187406.3,0.0
188884.7,210432.1,712071.0,330424.3,712027.4,176729.8,686125.1,187221.9,0.0
188551.0,210191.7,712060.1,330236.8,712017.0,176495.7,685831.2,186888.7,0.0
