EEG 1,EEG 2,EEG 3,EEG 4,EEG 5,EEG 6,EEG 7,EEG 8,TRIG
193176.8,200321.8,274793.9,712268.6,197847.0,184258.0,220781.8,194105.3,0.0
193154.8,200287.4,274540.8,712268.1,197776.6,184221.8,220719.5,194015.8,0.0
193203.7,200317.2,274374.8,712274.4,197795.3,184244.2,220734.9,194048.2,0.0
193273.1,200385.6,274262.9,712282.3,197885.5,184309.0,220811.0,194168.5,0.0
193276.3,200405.9,274089.1,712283.8,197917.0,184332.7,220838.4,194210.4,0.0
193229.3,200380.6,273849.8,712281.4,197872.8,184310.4,220801.4,194143.2,0.0
193173.1,200320.4,273577.3,712273.1,197775.4,184248.8,220714.3,194031.6,0.0
193210.3,200341.4,273407.5,712276.9,197783.4,184262.5,220719.9,194056.3,0.0
193255.0,200380.0,273277.3,712275.8,197841.3,184296.8,220766.0,194149.4,0.0
193246.8,200383.5,273109.7,712276.3,197868.9,184313.0,220787.0,194190.0,0.0
193189.6,200342.2,272866.9,712271.1,197808.1,184274.3,220734.0,194109.4,0.0
193148.9,200290.5,272608.5,712264.3,197715.3,184214.5,220652.2,194000.2,0.0
193185.0,200302.8,272443.3,712265.3,197717.7,184219.2,220650.0,194016.6,0.0
193257.4,200375.4,272357.1,712275.0,197814.4,184291.1,220734.1,194144.9,0.0
193249.0,200380.4,272193.3,712274.1,197839.6,184308.6,220755.0,194179.3,0.0
193192.8,200332.5,271956.5,712268.6,197778.3,184270.3,220702.3,194096.4,0.0
193160.0,200294.0,271722.4,712264.7,197701.9,184223.4,220636.0,194003.1,0.0
193199.0,200316.2,271600.4,712266.6,197716.1,184236.6,220642.9,194029.9,0.0
193254.1,200361.8,271535.5,712270.9,197785.5,184281.7,220695.9,194129.2,0.0
193262.1,200381.9,271388.0,712272.4,197816.9,184304.8,220723.6,194172.0,0.0
193220.9,200354.7,271169.6,712273.3,197769.9,184282.0,220686.7,194105.3,0.0
193190.8,200317.0,270938.9,712269.5,197693.4,184239.5,220619.7,194010.9,0.0
193224.9,200332.7,270786.4,712269.9,197699.4,184245.7,220619.1,194027.3,0.0
193279.2,200379.0,270690.2,712274.5,197770.9,184291.4,220675.9,194128.4,0.0
193278.5,200393.6,270547.8,712276.0,197797.8,184309.6,220698.7,194167.6,0.0
193200.6,200340.6,270310.8,712266.2,197719.3,184257.2,220631.3,194071.3,0.0
193161.8,200291.5,270082.0,712263.5,197635.6,184209.9,220560.6,193972.9,0.0
193202.9,200310.2,269947.7,712265.8,197648.7,184226.2,220569.6,193997.8,0.0
193260.1,200369.8,269865.4,712269.8,197726.3,184277.9,220632.7,194103.2,0.0
193250.4,200373.1,269723.1,712268.3,197749.9,184289.7,220651.6,194137.6,0.0
193189.4,200322.0,269504.4,712263.1,197685.9,184245.8,220596.7,194053.9,0.0
193162.4,200289.2,269300.1,712262.1,197618.6,184209.8,220539.3,193968.7,0.0
193215.5,200326.5,269186.9,712269.4,197646.4,184238.5,220560.6,194008.3,0.0
193274.0,200377.9,269110.0,712273.3,197723.6,184289.9,220625.2,194116.1,0.0
193259.3,200380.4,268971.7,712270.9,197743.8,184301.4,220645.5,194148.4,0.0
193193.8,200333.2,268759.4,712263.7,197678.2,184258.0,220588.8,194062.0,0.0
193161.9,200294.2,268554.6,712261.0,197602.2,184213.8,220524.9,193970.5,0.0
193191.4,200308.0,268423.8,712258.5,197603.6,184215.3,220522.1,193982.4,0.0
193246.3,200354.0,268351.8,712262.8,197680.0,184265.6,220582.6,194087.2,0.0
193239.2,200359.6,268220.2,712261.1,197698.8,184272.6,220595.4,194118.0,0.0
193171.5,200303.3,268008.3,712253.1,197626.4,184220.4,220530.6,194027.1,0.0
193169.3,200298.1,267838.4,712260.6,197578.0,184205.1,220492.7,193961.5,0.0
193243.5,200356.9,267758.5,712275.6,197629.0,184256.4,220539.7,194024.8,0.0
193292.4,200394.9,267683.6,712278.7,197700.3,184298.1,220595.4,194125.6,0.0
193258.5,200372.8,267531.3,712270.2,197693.5,184280.7,220583.9,194131.5,0.0
193190.8,200322.4,267326.3,712261.3,197622.4,184232.4,220518.2,194039.6,0.0
193164.7,200290.8,267141.9,712259.6,197556.3,184199.0,220459.4,193953.9,0.0
193199.5,200311.9,267034.2,712259.5,197568.1,184213.4,220467.9,193978.6,0.0
193270.0,200376.7,266992.2,712266.3,197657.4,184275.9,220542.1,194098.5,0.0
193270.5,200388.4,266885.0,712268.4,197686.7,184295.9,220569.1,194140.0,0.0
193203.5,200332.8,266687.0,712260.6,197614.4,184246.7,220505.9,194049.6,0.0
193180.7,200308.2,266510.3,712260.8,197548.1,184215.0,220451.1,193967.7,0.0
193216.5,200331.9,266407.3,712264.2,197562.0,184231.2,220461.9,193995.0,0.0
193267.5,200378.2,266348.7,712264.8,197634.7,184277.0,220518.8,194096.4,0.0
193249.5,200374.5,266230.1,712262.3,197648.3,184278.3,220528.8,194122.8,0.0
193192.4,200332.4,266048.5,712255.6,197585.2,184236.6,220476.8,194043.1,0.0
193157.3,200290.3,265862.2,712251.3,197507.4,184192.8,220408.9,193950.9,0.0
193184.7,200304.4,265754.3,712250.5,197511.6,184199.2,220407.3,193967.9,0.0
193233.7,200346.9,265698.1,712253.1,197579.2,184240.8,220460.9,194067.5,0.0
193236.6,200362.9,265602.7,712256.2,197610.6,184262.0,220489.8,194114.5,0.0
193200.4,200341.7,265448.8,712257.1,197573.3,184245.9,220461.6,194060.1,0.0
193182.5,200315.6,265287.7,712259.4,197514.2,184215.8,220411.4,193982.1,0.0
193209.7,200320.6,265182.5,712260.4,197514.1,184215.8,220406.6,193994.2,0.0
193265.8,200376.2,265142.8,712265.9,197597.4,184273.6,220478.6,194108.8,0.0
193249.4,200367.0,265028.5,712260.6,197604.9,184271.1,220483.7,194130.4,0.0
193175.1,200302.8,264838.3,712247.5,197524.0,184211.4,220414.4,194031.8,0.0
193146.4,200264.9,264669.2,712245.4,197451.1,184169.4,220351.8,193941.7,0.0
193199.8,200305.3,264599.0,712254.0,197482.7,184205.0,220379.5,193986.2,0.0
193274.6,200369.3,264576.9,712264.0,197575.7,184273.0,220459.4,194109.8,0.0
193257.6,200360.7,264469.5,712260.8,197585.1,184270.8,220467.1,194134.2,0.0
193184.5,200299.5,264284.1,712248.0,197506.2,184212.2,220397.0,194037.1,0.0
193162.4,200270.7,264126.2,712247.3,197442.3,184180.3,220342.9,193956.0,0.0
193190.8,200279.7,264030.8,712246.9,197444.2,184181.9,220339.5,193972.3,0.0
193247.1,200330.6,263997.0,712248.5,197522.3,184229.3,220400.5,194079.7,0.0
193245.3,200344.3,263915.5,712248.9,197555.5,184249.8,220430.0,194125.6,0.0
193205.2,200318.9,263768.1,712249.6,197514.6,184229.3,220398.2,194063.0,0.0
193177.9,200284.6,263608.9,712249.2,197444.7,184188.6,220339.7,193973.7,0.0
193209.9,200301.0,263526.5,712250.4,197458.7,184201.5,220346.6,193996.8,0.0
193262.1,200347.9,263490.6,712250.1,197530.6,184249.8,220405.3,194101.0,0.0
193250.4,200347.3,263395.5,712249.0,197547.2,184256.0,220419.4,194131.5,0.0
193198.3,200306.0,263237.1,712244.1,197487.3,184220.2,220372.0,194055.4,0.0
193167.3,200268.0,263076.8,712241.1,197412.3,184176.7,220306.5,193962.9,0.0
193204.2,200293.2,263004.1,712245.6,197430.6,184193.8,220320.1,193992.8,0.0
193260.0,200343.7,262979.3,712248.8,197510.8,184245.1,220387.3,194101.8,0.0
193260.2,200351.2,262901.6,712245.2,197539.0,184257.3,220410.4,194139.8,0.0
193226.5,200327.4,262766.3,712240.9,197496.7,184234.5,220376.7,194079.8,0.0
193189.4,200287.4,262608.5,712236.9,197422.6,184190.9,220311.6,193984.9,0.0
193206.3,200288.3,262515.1,712232.4,197417.0,184185.0,220301.6,193986.7,0.0
193272.9,200356.0,262508.1,712238.6,197511.3,184252.4,220381.6,194106.9,0.0
193254.5,200349.3,262420.1,712232.8,197527.7,184259.7,220395.5,194134.6,0.0
193191.4,200305.0,262266.1,712224.4,197466.9,184219.9,220344.8,194055.3,0.0
193151.5,200257.9,262104.2,712216.1,197383.5,184167.8,220270.8,193952.4,0.0
193193.0,200282.0,262037.7,712217.6,197399.6,184185.5,220280.8,193976.4,0.0
193249.0,200332.8,262021.6,712218.6,197480.0,184238.3,220344.9,194082.7,0.0
193240.5,200333.2,261941.3,712212.4,197498.2,184243.4,220357.6,194112.7,0.0
193187.6,200295.6,261797.1,712204.7,197443.3,184206.4,220311.3,194037.2,0.0
193149.8,200256.1,261642.7,712198.1,197364.4,184157.0,220240.9,193938.8,0.0
193202.2,200294.1,261593.3,712202.2,197392.2,184186.3,220262.3,193974.7,0.0
193261.2,200345.9,261585.3,712206.2,197477.9,184246.7,220334.3,194087.3,0.0
193234.2,200330.0,261491.9,712195.8,197486.5,184241.7,220336.2,194106.8,0.0
193198.6,200317.8,261371.5,712193.8,197453.4,184227.5,220311.2,194055.7,0.0
193160.2,200269.9,261219.0,712185.4,197373.6,184181.0,220243.5,193959.2,0.0
193195.4,200281.8,261148.9,712183.8,197377.6,184188.4,220244.6,193976.6,0.0
193248.9,200327.3,261135.1,712183.6,197454.7,184237.9,220308.0,194082.5,0.0
193243.9,200328.3,261066.6,712179.6,197480.7,184250.4,220326.8,194118.2,0.0
193189.8,200292.1,260928.4,712170.5,197426.6,184213.3,220280.3,194039.3,0.0
193152.5,200246.2,260777.9,712162.6,197347.0,184162.6,220209.2,193936.3,0.0
193182.2,200255.2,260709.2,712160.9,197353.0,184169.4,220208.3,193949.8,0.0
193242.4,200303.2,260700.4,712163.6,197428.6,184219.6,220270.5,194057.3,0.0
193255.9,200329.2,260656.8,712163.1,197472.1,184252.2,220315.2,194116.8,0.0
193205.4,200301.0,260527.3,712153.7,197420.3,184222.1,220276.5,194045.9,0.0
193170.8,200260.4,260383.2,712146.8,197342.6,184177.0,220210.2,193949.6,0.0
193213.6,200283.2,260327.5,712147.3,197358.7,184194.1,220220.3,193976.4,0.0
193277.3,200338.3,260327.7,712148.6,197444.9,184253.3,220292.8,194090.9,0.0
193262.0,200339.9,260257.8,712142.8,197464.1,184261.1,220310.7,194121.6,0.0
193199.8,200291.7,260116.9,712131.2,197402.6,184219.8,220258.2,194040.2,0.0
193160.6,200246.5,259970.2,712118.5,197319.4,184167.5,220185.8,193936.9,0.0
193198.9,200269.5,259919.8,712117.1,197337.7,184183.9,220199.2,193961.9,0.0
193248.2,200313.0,259907.3,712111.9,197406.7,184223.0,220253.5,194058.1,0.0
193233.4,200304.6,259837.3,712099.6,197423.8,184226.1,220265.8,194086.1,0.0
193170.8,200265.3,259702.5,712080.8,197364.5,184187.5,220215.6,194008.8,0.0
193139.2,200228.4,259569.8,712017.9,197289.0,184144.9,220153.0,193917.0,0.0
193177.9,200248.8,259517.7,711501.1,197301.0,184157.7,220160.7,193937.0,0.0
193239.3,200298.8,259517.3,710461.7,197382.4,184210.9,220227.8,194047.0,0.0
193242.9,200310.1,259468.4,709186.4,197417.8,184231.8,220261.2,194097.9,0.0
193170.6,200253.6,259321.6,707657.5,197343.5,184174.6,220197.7,194004.7,0.0
193126.1,200205.1,259176.5,706106.8,197258.1,184122.3,220123.7,193901.7,0.0
193175.3,200240.8,259136.2,704788.2,197281.0,184149.7,220142.4,193935.6,0.0
193250.4,200311.3,259154.8,703649.4,197376.7,184219.2,220225.1,194059.9,0.0
193254.4,200328.8,259109.4,702457.1,197416.6,184244.3,220262.1,194111.0,0.0
193198.3,200287.5,258979.5,701110.9,197358.4,184204.0,220212.6,194032.9,0.0
193153.8,200229.0,258833.3,699719.3,197268.4,184146.3,220132.0,193925.0,0.0
193192.7,200249.2,258782.0,698497.3,197275.9,184156.0,220132.4,193940.7,0.0
193254.4,200312.1,258791.5,697423.6,197358.8,184211.4,220198.2,194050.9,0.0
193236.7,200301.5,258726.0,696264.6,197374.3,184212.5,220208.4,194077.1,0.0
193191.3,200271.7,258610.9,694976.4,197327.7,184185.5,220173.3,194012.3,0.0
193169.9,200249.3,258495.1,693655.9,197266.8,184155.9,220124.1,193931.7,0.0
193201.1,200262.3,258443.3,692468.2,197273.0,184162.9,220124.5,193945.5,0.0
193255.7,200310.2,258446.7,691418.1,197349.9,184211.2,220186.5,194050.1,0.0
193247.9,200314.0,258392.8,690297.7,197373.9,184222.0,220207.7,194086.3,0.0
193181.1,200264.3,258264.3,689023.8,197311.0,184176.2,220152.4,194002.4,0.0
193143.5,200216.9,258132.1,687715.3,197231.9,184126.2,220080.6,193901.9,0.0
193174.3,200231.6,258079.8,686557.8,197237.0,184134.0,220082.8,193917.0,0.0
193230.7,200289.2,258086.3,685552.9,197316.7,184185.5,220149.1,194023.3,0.0
193232.5,200299.3,258037.2,684707.6,197350.1,184199.0,220175.5,194066.7,0.0
193182.6,200259.7,257904.5,683916.6,197298.2,184163.7,220131.2,193996.3,0.0
193149.4,200220.0,257759.4,682937.8,197222.1,184122.1,220065.4,193902.5,0.0
193193.1,200241.2,257700.1,682083.0,197232.7,184136.5,220070.7,193923.7,0.0
193253.7,200290.5,257693.4,681358.2,197312.6,184186.3,220132.6,194029.0,0.0
193233.9,200282.5,257618.4,680545.8,197327.7,184182.2,220137.3,194049.7,0.0
193165.8,200234.1,257478.2,679590.9,197267.4,184137.2,220083.4,193967.8,0.0
193141.2,200199.6,257348.3,678608.6,197200.3,184101.8,220026.7,193881.6,0.0
193192.9,200233.8,257308.7,677776.9,197224.5,184128.9,220045.3,193911.6,0.0
193260.5,200295.3,257317.3,677072.0,197312.2,184186.8,220115.0,194022.9,0.0
193239.8,200290.2,257253.8,676281.5,197333.6,184191.9,220129.7,194054.5,0.0
193209.5,200283.0,257160.5,675381.9,197314.4,184190.9,220121.9,194014.0,0.0
193157.2,200225.7,257009.2,674384.7,197221.2,184127.3,220039.2,193899.6,0.0
193181.6,200232.6,256948.5,673543.8,197223.4,184128.7,220033.8,193910.0,0.0
193243.5,200289.4,256961.1,672855.9,197311.2,184186.1,220106.2,194025.8,0.0
193231.6,200288.0,256901.4,672079.8,197328.6,184189.8,220119.8,194056.6,0.0
193179.4,200250.3,256783.0,671164.7,197277.8,184159.3,220075.1,193987.1,0.0
193154.8,200217.0,256660.0,670207.6,197210.3,184121.5,220015.7,193901.1,0.0
193181.6,200221.8,256597.7,669375.4,197207.5,184120.1,220004.8,193906.7,0.0
193237.8,200274.0,256608.0,668693.3,197288.6,184172.4,220068.8,194016.4,0.0
193252.7,200300.0,256584.4,667962.1,197341.1,184206.0,220115.3,194080.6,0.0
193195.7,200258.6,256463.8,667054.4,197287.1,184167.9,220069.1,194006.1,0.0
193149.3,200204.0,256326.5,666094.0,197202.8,184112.8,219994.5,193900.4,0.0
193196.2,200239.1,256297.6,665306.7,197230.4,184143.3,220017.1,193934.0,0.0
193251.0,200283.2,256299.7,664624.1,197300.1,184184.0,220068.9,194028.3,0.0
193246.7,200289.3,256257.7,663883.7,197332.8,184197.6,220090.9,194067.3,0.0
193192.7,200255.7,256149.2,663001.1,197289.6,184171.5,220052.8,193999.8,0.0
193161.0,200221.8,256030.8,662075.1,197221.2,184136.0,219995.4,193907.2,0.0
193169.1,200209.0,255962.3,661259.3,197201.0,184119.9,219973.7,193895.5,0.0
193237.5,200265.0,255982.8,660608.9,197285.3,184176.1,220042.2,194006.5,0.0
193237.0,200274.9,255946.1,659887.4,197318.8,184193.0,220070.7,194052.3,0.0
193164.5,200215.8,255812.4,658988.6,197245.0,184134.5,220003.1,193957.4,0.0
193134.4,200188.1,255704.9,658086.2,197185.4,184105.8,219955.8,193875.8,0.0
193163.3,200199.0,255659.7,657305.1,197190.0,184110.7,219955.8,193886.7,0.0
193226.5,200250.5,255675.8,656660.3,197268.0,184158.4,220017.0,193991.3,0.0
193232.0,200268.5,255645.6,655956.5,197305.2,184177.2,220047.8,194040.3,0.0
193165.7,200228.6,255534.4,655104.7,197258.1,184145.5,220010.0,193971.7,0.0
193123.7,200179.2,255410.2,654194.8,197180.0,184096.8,219941.1,193868.1,0.0
193185.7,200222.6,255400.5,653467.3,197219.7,184138.3,219976.6,193914.2,0.0
193266.1,200291.2,255434.3,652859.5,197315.8,184205.0,220055.9,194035.3,0.0
193249.2,200284.8,255381.2,652147.3,197329.4,184199.9,220060.8,194057.6,0.0
193204.1,200265.9,255293.7,651328.0,197302.5,184188.9,220042.7,194009.0,0.0
193157.6,200210.0,255159.1,650418.8,197209.4,184126.3,219961.8,193895.0,0.0
193203.2,200238.4,255133.0,649678.1,197226.1,184146.0,219973.9,193920.9,0.0
193276.3,200308.9,255172.3,649085.6,197326.8,184218.5,220058.1,194047.6,0.0
193245.9,200285.8,255105.7,648367.8,197321.9,184197.2,220047.0,194051.0,0.0
193190.5,200256.0,255006.0,647544.1,197279.1,184169.4,220009.6,193984.4,0.0
193164.3,200223.3,254903.7,646677.5,197218.5,184137.0,219956.2,193899.3,0.0
193182.4,200209.6,254847.1,645914.1,197201.9,184121.4,219935.0,193889.6,0.0
193235.2,200255.6,254860.7,645303.6,197271.8,184161.0,219989.4,193985.7,0.0
193243.5,200291.2,254856.4,644674.3,197336.4,184208.9,220049.2,194061.3,0.0
193192.5,200266.5,254761.3,643873.9,197296.4,184187.4,220019.9,194001.2,0.0
193133.0,200190.1,254619.7,642981.7,197192.5,184116.6,219929.4,193877.2,0.0
193159.8,200187.1,254568.0,642238.7,197178.7,184106.8,219911.8,193872.0,0.0
193243.9,200271.5,254617.0,641680.3,197283.6,184181.8,220000.5,194004.8,0.0
193250.3,200291.1,254599.0,641044.3,197330.2,184209.0,220039.4,194061.2,0.0
193184.6,200235.9,254477.2,640221.4,197259.9,184153.4,219975.4,193969.3,0.0
193142.4,200188.5,254356.7,639363.0,197176.0,184099.9,219902.3,193864.2,0.0
193170.9,200193.3,254314.9,638639.5,197170.8,184100.0,219895.0,193868.6,0.0
193228.5,200241.6,254337.2,638061.3,197243.4,184145.2,219953.6,193968.8,0.0
193250.3,200275.3,254332.4,637444.7,197294.7,184177.4,219997.1,194030.0,0.0
193212.3,200271.9,254261.7,636692.5,197276.8,184175.5,219988.0,193989.4,0.0
193154.7,200201.3,254123.0,635823.1,197169.8,184102.9,219894.7,193862.9,0.0
193197.4,200227.5,254104.1,635138.2,197189.1,184124.7,219910.3,193888.8,0.0
193261.8,200284.1,254138.1,634587.6,197276.8,184183.3,219982.0,194002.8,0.0
193255.1,200294.1,254114.1,633974.6,197314.9,184202.6,220015.0,194051.4,0.0
193196.5,200243.8,254001.9,633183.8,197247.3,184151.2,219957.8,193966.5,0.0
193156.7,200191.5,253884.8,632349.6,197161.3,184095.8,219885.0,193861.1,0.0
193193.6,200204.1,253858.7,631667.8,197170.6,184106.8,219891.2,193876.5,0.0
193252.2,200250.7,253878.2,631111.2,197241.1,184147.9,219942.0,193970.3,0.0
193258.3,200268.9,253860.0,630507.0,197280.7,184170.0,219970.4,194016.6,0.0
193204.9,200239.1,253769.8,629751.7,197235.3,184140.8,219932.1,193951.4,0.0
193171.3,200203.5,253664.5,628941.1,197160.9,184097.3,219869.9,193856.1,0.0
193192.0,200201.5,253617.3,628251.5,197149.2,184088.3,219855.3,193852.8,0.0
193254.6,200257.6,253648.8,627724.3,197232.3,184143.0,219924.4,193963.8,0.0
193247.9,200255.6,253617.0,627118.8,197254.0,184147.5,219940.4,193998.6,0.0
193195.2,200222.7,253527.0,626379.1,197210.5,184117.9,219904.2,193935.4,0.0
193148.0,200177.6,253418.3,625581.4,197132.8,184071.7,219838.9,193837.8,0.0
193171.4,200185.3,253382.4,624921.2,197131.6,184073.7,219834.8,193845.2,0.0
193243.3,200248.0,253424.5,624417.3,197223.8,184137.5,219911.6,193966.3,0.0
193272.1,200289.1,253430.7,623865.4,197287.3,184184.2,219968.6,194041.6,0.0
193221.8,200261.0,253342.2,623141.8,197246.4,184159.9,219934.9,193977.3,0.0
193167.5,200198.9,253220.0,622342.9,197156.6,184101.6,219855.2,193864.6,0.0
193209.9,200220.0,253197.7,621702.7,197168.0,184115.7,219860.4,193883.5,0.0
193273.2,200280.0,253229.4,621194.6,197244.9,184165.9,219922.0,193989.0,0.0
193279.5,200301.0,253218.6,620637.0,197289.2,184192.2,219962.5,194044.9,0.0
193228.3,200272.5,253134.0,619926.4,197250.0,184169.1,219933.0,193985.5,0.0
193188.8,200232.9,253030.0,619156.3,197176.8,184126.3,219870.4,193891.0,0.0
193193.6,200220.7,252975.1,618495.9,197156.8,184109.4,219845.2,193879.0,0.0
193244.1,200262.5,252997.3,617990.8,197226.5,184152.8,219901.1,193980.4,0.0
193242.0,200275.9,252981.2,617438.4,197263.5,184173.5,219933.9,194031.1,0.0
193198.9,200252.1,252898.9,616739.4,197222.8,184148.8,219902.9,193972.0,0.0
193153.6,200206.3,252789.1,615972.4,197141.0,184098.7,219832.0,193869.1,0.0
193189.5,200225.1,252766.6,615353.8,197147.7,184109.7,219836.0,193884.8,0.0
193258.6,200285.0,252809.6,614881.1,197235.4,184170.6,219909.3,194001.8,0.0
193241.4,200269.9,252769.0,614309.6,197242.3,184162.9,219909.7,194024.9,0.0
193191.0,200241.2,252687.6,613626.3,197206.6,184143.5,219882.4,193971.8,0.0
193149.5,200201.4,252583.5,612880.3,197131.9,184098.7,219823.0,193876.9,0.0
193174.9,200207.3,252550.5,612264.4,197127.3,184096.7,219817.3,193881.1,0.0
193233.6,200262.3,252586.9,611802.1,197211.6,184151.0,219886.5,193990.7,0.0
193230.9,200271.6,252568.3,611268.6,197244.4,184167.8,219913.9,194035.0,0.0
193187.0,200244.6,252487.8,610595.9,197206.2,184148.3,219883.1,193978.2,0.0
193172.8,200223.6,252408.3,609885.2,197154.7,184129.8,219843.8,193905.7,0.0
193216.6,200251.0,252395.1,609295.3,197167.8,184144.9,219854.3,193925.6,0.0
193266.1,200291.5,252418.4,608820.6,197233.5,184179.5,219902.5,194017.1,0.0
193258.6,200301.0,252403.0,608301.1,197270.8,184197.6,219933.6,194066.1,0.0
193190.7,200245.7,252297.9,607612.0,197205.3,184148.8,219877.6,193983.8,0.0
193136.4,200183.0,252176.2,606864.9,197110.3,184083.3,219792.7,193868.5,0.0
193162.5,200191.4,252148.2,606272.3,197112.8,184087.0,219791.5,193879.7,0.0
193232.5,200253.1,252192.3,605832.4,197198.2,184145.4,219863.6,193996.8,0.0
193262.7,200292.7,252206.7,605356.1,197263.5,184194.3,219923.6,194077.1,0.0
193218.6,200267.9,252130.9,604706.4,197228.9,184175.1,219895.8,194025.8,0.0
193168.7,200212.1,252019.2,603976.8,197139.3,184117.5,219817.4,193916.4,0.0
193195.6,200223.0,251993.5,603399.5,197141.6,184123.3,219815.4,193923.6,0.0
193247.3,200265.1,252018.7,602950.9,197209.6,184163.4,219866.3,194017.9,0.0
193249.7,200279.0,252006.6,602458.6,197247.1,184183.5,219899.7,194069.1,0.0
193193.4,200239.3,251918.6,601807.8,197199.3,184149.5,219861.1,194001.0,0.0
193160.1,200200.7,251825.3,601104.1,197130.7,184108.7,219801.7,193908.1,0.0
193191.1,200210.8,251804.9,600533.3,197135.6,184114.7,219802.0,193917.6,0.0
193242.1,200252.1,251832.3,600093.7,197203.1,184151.2,219855.3,194011.3,0.0
193238.3,200257.6,251815.2,599600.9,197233.0,184162.2,219878.1,194053.8,0.0
193182.1,200220.1,251730.9,598962.3,197190.2,184131.1,219838.9,193990.0,0.0
193163.0,200193.2,251646.6,598280.3,197129.5,184101.4,219788.8,193908.5,0.0
193214.6,200228.4,251645.8,597744.4,197154.3,184131.4,219811.5,193939.7,0.0
193270.5,200276.0,251677.6,597322.8,197230.1,184177.7,219869.9,194039.3,0.0
193251.7,200266.0,251646.9,596828.8,197249.1,184177.5,219881.8,194068.0,0.0
193190.5,200224.8,251557.8,596194.8,197195.2,184143.3,219837.7,193992.2,0.0
193141.4,200175.0,251448.5,595497.4,197105.2,184091.3,219762.9,193880.3,0.0
193175.8,200195.5,251429.4,594951.0,197112.1,184103.8,219765.5,193892.1,0.0
193245.0,200257.3,251475.5,594552.9,197201.6,184166.2,219838.2,194008.2,0.0
193245.1,200269.9,251466.6,594090.5,197241.9,184188.5,219871.9,194060.5,0.0
193201.6,200244.9,251395.3,593485.1,197206.8,184167.2,219844.7,194005.5,0.0
193169.0,200208.4,251303.2,592816.2,197138.3,184129.1,219787.4,193915.0,0.0
193184.9,200206.5,251268.8,592265.3,197129.3,184124.1,219776.8,193913.1,0.0
193246.7,200261.3,251311.5,591870.6,197210.3,184176.4,219842.1,194021.1,0.0
193250.9,200276.8,251308.5,591421.0,197252.3,184199.9,219876.6,194075.6,0.0
193200.2,200242.7,251230.0,590818.8,197210.1,184172.5,219844.3,194015.8,0.0
193156.7,200190.4,251123.4,590143.8,197123.2,184119.9,219770.9,193906.6,0.0
193202.6,200221.4,251118.0,589626.4,197138.9,184143.8,219783.7,193926.5,0.0
193238.2,200259.5,251140.5,589226.5,197204.5,184181.9,219834.2,194015.8,0.0
193233.8,200261.1,251123.0,588776.4,197238.6,184196.2,219859.3,194057.9,0.0
193183.6,200224.7,251040.1,588174.4,197192.2,184164.9,219818.6,193988.4,0.0
193146.3,200179.6,250943.5,587512.9,197115.4,184115.7,219749.8,193888.1,0.0
193179.7,200195.0,250926.0,586990.6,197118.3,184122.4,219750.1,193897.2,0.0
193245.6,200255.8,250973.9,586617.9,197204.0,184180.3,219820.2,194008.2,0.0
193244.0,200261.7,250963.5,586178.4,197237.1,184196.5,219846.2,194054.6,0.0
193197.0,200228.6,250888.5,585590.9,197193.0,184167.3,219809.6,193991.7,0.0
193180.5,200212.3,250814.9,584964.1,197136.9,184141.4,219766.1,193913.7,0.0
193192.8,200207.9,250778.9,584435.2,197124.3,184130.7,219751.1,193906.8,0.0
193245.7,200250.1,250816.7,584064.8,197199.4,184178.7,219814.6,194010.5,0.0
193255.5,200273.7,250816.2,583644.6,197239.2,184200.5,219850.8,194064.5,0.0
193200.7,200237.7,250737.0,583068.2,197195.2,184170.6,219814.4,193999.4,0.0
193150.2,200182.8,250631.9,582419.3,197107.6,184113.6,219738.7,193890.8,0.0
193189.5,200204.1,250621.7,581922.7,197117.5,184122.4,219743.9,193906.0,0.0
193248.6,200254.0,250661.0,581561.1,197192.8,184167.8,219804.2,194007.6,0.0
193236.6,200257.0,250640.6,581131.3,197214.5,184176.0,219821.3,194045.0,0.0
193185.3,200221.0,250563.2,580561.8,197172.3,184150.9,219786.9,193984.6,0.0
193158.8,200196.1,250487.5,579953.1,197117.0,184125.7,219744.6,193907.4,0.0
193195.6,200215.2,250478.4,579467.3,197128.0,184136.5,219752.8,193923.0,0.0
193257.8,200272.9,250526.3,579120.4,197211.4,184188.3,219819.6,194030.5,0.0
193253.5,200274.0,250512.9,578703.7,197239.7,184197.9,219841.7,194070.7,0.0
193198.3,200230.5,250431.5,578138.4,197188.5,184164.7,219800.5,194003.0,0.0
193150.5,200176.2,250323.1,577503.8,197098.0,184103.3,219721.3,193890.2,0.0
193182.3,200187.7,250304.1,577016.8,197099.9,184102.6,219719.3,193895.4,0.0
193249.7,200245.1,250355.0,576683.8,197187.7,184160.1,219793.3,194007.8,0.0
193248.5,200247.0,250339.8,576270.4,197211.1,184166.7,219811.8,194045.8,0.0
193198.0,200214.8,250265.8,575721.9,197171.1,184141.9,219779.3,193986.2,0.0
193177.5,200197.5,250194.7,575131.5,197115.6,184117.5,219735.9,193907.5,0.0
193250.9,200253.1,250222.8,574698.8,197159.7,184166.8,219777.0,193959.6,0.0
193283.4,200280.8,250242.5,574343.8,197216.1,184197.2,219817.9,194044.4,0.0
193263.3,200272.4,250217.9,573934.1,197232.8,184197.7,219830.0,194072.0,0.0
193211.3,200231.3,250136.4,573383.6,197181.3,184162.6,219788.6,193999.5,0.0
193170.3,200187.7,250043.9,572781.7,197107.0,184117.4,219725.8,193901.8,0.0
193201.0,200203.3,250030.3,572320.1,197114.6,184126.1,219731.2,193915.8,0.0
193269.1,200265.0,250084.7,572005.8,197202.1,184185.2,219805.5,194031.1,0.0
193274.3,200277.1,250082.8,571626.9,197239.0,184204.6,219839.3,194083.7,0.0
193221.2,200243.3,250003.3,571094.3,197191.0,184172.9,219799.3,194017.5,0.0
193167.0,200187.2,249897.2,570490.4,197099.7,184113.2,219721.6,193905.7,0.0
193205.7,200206.5,249891.5,570041.8,197111.2,184124.7,219727.9,193922.0,0.0
193265.6,200254.7,249936.2,569723.8,197188.3,184173.6,219788.9,194024.3,0.0
193253.5,200250.4,249919.3,569335.5,197207.7,184176.7,219803.8,194056.9,0.0
193200.9,200209.3,249842.7,568807.1,197160.1,184144.5,219764.5,193991.4,0.0
193177.3,200185.1,249768.2,568239.4,197104.8,184119.1,219719.7,193912.2,0.0
193216.8,200216.0,249767.8,567804.6,197123.4,184140.9,219734.9,193935.1,0.0
193248.8,200245.4,249790.0,567473.6,197178.5,184166.6,219778.1,194017.4,0.0
193244.7,200250.1,249780.0,567101.9,197206.6,184176.5,219804.0,194059.3,0.0
193183.2,200208.1,249696.2,566576.2,197151.7,184138.1,219757.5,193985.5,0.0
193136.3,200157.9,249600.3,565994.4,197072.0,184088.5,219688.5,193882.7,0.0
193173.0,200173.9,249594.3,565561.8,197085.4,184103.4,219698.1,193900.0,0.0
193256.9,200253.1,249663.3,565285.4,197187.1,184176.1,219784.6,194027.0,0.0
193290.2,200291.0,249685.4,564952.7,197248.2,184218.7,219840.9,194100.2,0.0
193242.3,200259.5,249614.8,564444.7,197205.2,184189.8,219807.4,194037.9,0.0
193195.6,200216.8,249521.6,563873.4,197128.4,184144.7,219742.2,193939.1,0.0
193220.6,200222.3,249501.1,563430.8,197125.7,184144.0,219736.3,193940.8,0.0
193276.4,200263.9,249540.2,563129.3,197196.1,184183.3,219791.2,194037.2,0.0
193265.7,200272.0,249528.4,562771.8,197220.4,184188.8,219811.1,194076.3,0.0
193215.0,200239.7,249452.0,562267.8,197173.8,184156.4,219771.6,194011.6,0.0
193171.9,200194.8,249359.1,561699.4,197094.8,184108.4,219703.5,193910.5,0.0
193195.8,200204.9,249343.6,561267.0,197096.3,184112.7,219699.5,193914.9,0.0
193260.4,200261.3,249396.5,560984.0,197178.3,184170.0,219767.1,194023.3,0.0
193254.7,200262.1,249387.5,560633.6,197206.5,184181.9,219788.8,194063.8,0.0
193214.8,200239.7,249328.0,560156.4,197175.2,184166.2,219766.5,194015.3,0.0
193173.0,200188.3,249236.6,559602.3,197097.8,184121.3,219704.7,193918.5,0.0
193185.0,200181.0,249204.2,559160.8,197080.3,184106.5,219683.1,193903.8,0.0
193240.9,200228.1,249247.6,558875.7,197153.9,184151.7,219742.3,194003.4,0.0
193253.6,200253.9,249262.1,558557.8,197204.9,184184.1,219790.2,194068.8,0.0
193183.5,200204.0,249175.7,558057.9,197145.8,184137.6,219739.1,193988.7,0.0
193155.0,200170.9,249097.5,557520.8,197081.5,184100.8,219685.7,193899.6,0.0
193194.1,200186.8,249088.8,557109.1,197088.5,184109.9,219689.8,193912.8,0.0
193262.0,200244.1,249142.3,556844.6,197173.7,184166.7,219759.0,194023.4,0.0
193268.0,200263.1,249145.5,556525.5,197215.5,184191.3,219796.1,194078.2,0.0
193205.0,200216.6,249062.5,556038.2,197162.0,184153.1,219750.7,194006.7,0.0
193169.8,200180.8,248982.6,555506.3,197094.9,184113.4,219696.7,193916.5,0.0
193170.1,200172.0,248948.6,555078.6,197073.9,184093.7,219675.7,193901.6,0.0
193251.0,200243.7,249014.0,554832.8,197167.8,184160.4,219755.3,194023.8,0.0
193250.2,200254.0,249012.0,554512.3,197202.6,184177.6,219781.9,194072.0,0.0
193182.5,200205.5,248925.8,554026.3,197144.3,184132.9,219730.0,193995.6,0.0
193141.1,200159.8,248836.9,553490.6,197065.9,184087.6,219663.0,193894.3,0.0
193176.4,200172.0,248824.2,553086.1,197064.6,184094.1,219660.1,193898.5,0.0
193249.3,200242.4,248891.7,552850.4,197163.5,184165.9,219744.8,194022.8,0.0
193260.6,200263.4,248904.6,552550.9,197208.9,184194.4,219783.9,194083.9,0.0
193220.2,200240.9,248846.9,552101.4,197176.0,184176.0,219758.9,194034.3,0.0
193160.5,200175.2,248735.0,551548.4,197076.1,184107.8,219671.7,193912.2,0.0
193192.6,200192.7,248724.0,551151.7,197076.4,184111.9,219671.5,193915.3,0.0
193252.6,200248.8,248773.9,550902.6,197156.2,184162.2,219736.8,194018.6,0.0
193254.9,200263.6,248779.0,550603.3,197199.3,184183.3,219772.1,194072.0,0.0
193211.4,200234.1,248716.3,550154.9,197162.3,184157.4,219741.4,194015.9,0.0
193160.6,200176.7,248614.8,549622.0,197071.2,184096.5,219663.2,193902.5,0.0
193197.3,200198.9,248611.4,549244.6,197082.0,184110.7,219672.6,193916.8,0.0
193264.7,200253.8,248659.1,548993.1,197155.5,184154.4,219729.3,194014.8,0.0
193256.5,200259.8,248655.9,548690.4,197187.5,184166.2,219753.1,194058.2,0.0
193200.1,200220.7,248589.7,548248.9,197149.4,184139.1,219721.1,193998.9,0.0
193171.6,200187.0,248514.4,547748.3,197086.9,184106.8,219668.8,193910.7,0.0
193211.8,200203.5,248510.8,547374.4,197098.6,184122.9,219676.4,193925.6,0.0
193271.8,200261.1,248560.9,547136.7,197174.6,184171.3,219739.1,194028.0,0.0
193266.0,200266.5,248556.8,546844.1,197207.1,184182.6,219766.3,194077.0,0.0
193208.3,200231.0,248483.4,546400.1,197160.4,184147.1,219727.9,194013.1,0.0
193175.9,200199.9,248408.3,545906.3,197096.4,184113.0,219676.0,193925.5,0.0
193201.0,200208.8,248398.6,545534.9,197100.6,184122.0,219679.9,193935.5,0.0
193246.8,200245.8,248434.6,545287.2,197161.1,184156.8,219728.0,194023.3,0.0
193241.8,200251.6,248428.1,544993.8,197185.8,184165.1,219749.8,194063.8,0.0
193180.5,200215.0,248355.0,544556.4,197139.8,184132.3,219711.7,193997.7,0.0
193134.2,200165.5,248264.1,544047.1,197057.4,184081.0,219641.4,193890.8,0.0
193167.9,200181.1,248257.6,543678.8,197062.3,184091.8,219645.1,193900.5,0.0
193238.3,200235.7,248314.8,543461.4,197150.0,184150.8,219717.2,194014.4,0.0
193253.0,200257.9,248327.1,543193.8,197198.3,184177.6,219757.5,194075.4,0.0
193210.5,200234.9,248267.5,542773.8,197164.4,184154.0,219729.5,194019.1,0.0
193141.0,200164.1,248153.2,542249.8,197060.4,184078.2,219638.7,193887.6,0.0
193164.4,200167.6,248132.3,541871.3,197048.7,184070.9,219624.1,193877.6,0.0
193236.5,200220.5,248190.5,541655.4,197130.5,184127.8,219691.9,193986.2,0.0
193254.4,200251.2,248214.3,541408.6,197189.2,184167.9,219745.9,194056.8,0.0
193211.8,200227.7,248156.1,540997.1,197155.9,184147.7,219721.5,194004.1,0.0
193181.6,200184.3,248077.0,540510.6,197083.3,184106.1,219662.0,193910.4,0.0
193211.3,200185.2,248058.2,540136.4,197070.3,184097.8,219645.6,193902.5,0.0
193269.6,200248.6,248116.1,539934.9,197156.3,184155.6,219717.5,194014.6,0.0
193271.9,200258.0,248122.2,539675.3,197195.5,184176.6,219752.9,194069.4,0.0
193207.3,200210.0,248041.0,539243.2,197136.4,184131.6,219705.7,193992.9,0.0
193152.0,200150.8,247941.5,538740.9,197044.9,184071.9,219627.7,193877.3,0.0
193185.2,200171.3,247938.3,538392.7,197052.0,184086.7,219633.1,193887.6,0.0
193253.3,200231.3,248000.5,538193.0,197138.4,184147.9,219705.1,194000.0,0.0
193261.1,200252.2,248010.3,537938.6,197184.0,184170.7,219741.4,194055.9,0.0
193214.0,200224.5,247953.7,537542.9,197153.9,184151.8,219718.0,194007.3,0.0
193176.3,200181.4,247870.2,537069.0,197077.3,184107.7,219658.4,193910.0,0.0
193180.3,200170.3,247833.6,536691.0,197046.5,184080.3,219627.2,193883.0,0.0
193244.0,200224.3,247886.1,536489.2,197127.8,184129.3,219691.5,193987.6,0.0
193259.9,200247.9,247903.3,536250.0,197180.9,184159.9,219735.1,194053.0,0.0
193216.9,200225.7,247851.4,535867.3,197156.6,184147.2,219718.2,194008.8,0.0
193169.5,200173.5,247754.3,535388.1,197069.3,184093.1,219644.6,193898.7,0.0
193210.4,200203.6,247758.5,535062.6,197085.0,184114.7,219659.0,193919.2,0.0
193258.9,200244.6,247802.0,534858.3,197153.8,184155.9,219712.9,194014.8,0.0
193251.8,200248.3,247800.2,534606.6,197183.3,184164.8,219736.0,194057.1,0.0
193204.5,200221.2,247741.0,534219.1,197148.5,184141.4,219708.5,194002.5,0.0
193190.2,200204.1,247686.1,533779.6,197099.1,184122.6,219671.4,193929.0,0.0
193209.3,200201.4,247666.6,533431.0,197090.4,184119.6,219662.1,193923.5,0.0
193246.0,200231.3,247693.9,533212.3,197141.0,184144.2,219698.6,194000.6,0.0
193246.3,200242.2,247697.7,532966.8,197174.0,184156.8,219723.0,194047.9,0.0
193192.3,200206.5,247629.5,532572.4,197128.6,184127.3,219686.1,193985.7,0.0
193140.1,200151.8,247532.7,532097.7,197037.7,184069.0,219607.8,193872.8,0.0
193180.9,200181.3,247541.6,531786.6,197053.1,184091.9,219622.8,193892.1,0.0
193261.8,200250.9,247618.1,531625.0,197152.5,184165.5,219708.5,194018.6,0.0
193267.1,200266.1,247625.7,531394.3,197192.4,184182.9,219740.5,194075.0,0.0
193215.4,200243.8,247567.0,531021.1,197157.7,184158.2,219714.3,194024.7,0.0
193173.4,200201.9,247484.2,530572.1,197083.8,184114.5,219654.5,193930.7,0.0
193195.0,200203.4,247465.1,530237.1,197075.7,184109.9,219645.2,193926.9,0.0
193253.1,200249.3,247513.0,530052.5,197149.5,184155.0,219704.7,194026.4,0.0
193253.3,200256.5,247517.8,529823.4,197188.3,184172.0,219734.3,194079.1,0.0
193203.0,200219.3,247452.9,529444.3,197148.4,184140.2,219697.6,194021.3,0.0
193162.8,200182.1,247370.2,528999.9,197073.8,184097.0,219635.4,193924.9,0.0
193192.0,200189.4,247360.2,528679.3,197071.1,184100.1,219631.3,193927.2,0.0
193246.4,200232.6,247405.1,528499.3,197140.9,184143.6,219687.7,194026.0,0.0
193245.1,200243.6,247412.7,528280.8,197180.0,184164.8,219723.3,194083.1,0.0
193190.0,200203.8,247343.4,527905.7,197133.5,184131.4,219687.5,194021.5,0.0
193138.2,200146.0,247243.8,527446.6,197042.5,184073.1,219609.8,193907.5,0.0
193179.3,200177.9,247249.3,527144.8,197056.4,184095.8,219624.0,193923.0,0.0
193233.9,200223.8,247295.1,526966.9,197125.2,184137.1,219678.9,194018.0,0.0
193250.1,200250.0,247317.5,526765.6,197178.3,184168.5,219726.2,194087.9,0.0
193215.3,200233.5,247272.4,526419.8,197159.4,184159.9,219714.2,194050.6,0.0
193175.4,200189.7,247190.5,525983.4,197085.0,184118.5,219654.5,193955.1,0.0
193210.9,200200.8,247185.8,525673.4,197085.3,184124.4,219653.5,193961.7,0.0
193283.2,200265.0,247250.7,525518.7,197171.7,184181.4,219724.7,194074.6,0.0
193269.0,200260.1,247245.2,525292.8,197196.4,184182.8,219742.1,194114.0,0.0
193223.9,200231.2,247190.3,524936.3,197163.8,184157.7,219714.9,194062.2,0.0
193149.5,200155.8,247074.8,524467.8,197055.3,184081.6,219619.5,193930.1,0.0
193178.9,200167.1,247066.3,524159.7,197053.5,184087.7,219617.3,193932.4,0.0
193253.9,200231.3,247132.6,524013.2,197143.2,184151.2,219692.7,194049.2,0.0
193275.1,200258.5,247156.8,523821.1,197197.7,184185.0,219736.9,194118.1,0.0
193221.8,200220.2,247086.4,523452.5,197149.2,184148.6,219692.5,194049.8,0.0
193181.0,200184.3,247008.1,523030.9,197081.1,184111.2,219637.9,193955.9,0.0
193202.8,200187.7,246992.2,522720.5,197073.1,184108.7,219627.9,193951.1,0.0
193271.9,200247.6,247057.8,522575.0,197160.6,184167.6,219700.1,194065.9,0.0
193281.2,200273.1,247081.0,522389.1,197214.4,184198.9,219749.2,194135.6,0.0
193189.6,200194.2,246976.9,521992.0,197130.0,184124.9,219672.2,194035.1,0.0
193143.0,200143.1,246887.9,521558.8,197045.5,184073.2,219601.3,193929.5,0.0
193187.4,200167.3,246891.0,521264.7,197053.3,184090.8,219607.5,193940.5,0.0
193265.3,200238.7,246966.8,521129.9,197149.4,184160.0,219687.3,194062.0,0.0
193263.1,200247.6,246973.8,520931.0,197185.8,184173.3,219714.6,194112.4,0.0
193204.6,200201.3,246904.4,520577.6,197136.9,184136.8,219674.2,194047.7,0.0
193176.2,200169.8,246835.2,520169.0,197075.2,184107.0,219625.3,193960.9,0.0
193215.4,200189.0,246834.2,519876.4,197081.4,184120.1,219627.7,193967.5,0.0
193276.9,200246.7,246893.8,519734.1,197164.8,184176.4,219695.8,194073.2,0.0
193261.6,200245.4,246888.3,519526.1,197189.3,184179.8,219713.3,194110.3,0.0
193208.2,200209.0,246822.5,519178.2,197143.4,184145.8,219674.7,194047.7,0.0
193164.9,200163.7,246737.7,518758.3,197063.1,184099.2,219607.3,193941.5,0.0
193194.9,200182.8,246733.0,518468.3,197063.1,184107.0,219607.7,193943.5,0.0
193269.2,200251.3,246805.4,518341.7,197155.5,184172.2,219687.3,194062.3,0.0
193276.8,200271.2,246824.7,518164.5,197203.5,184199.8,219730.3,194126.3,0.0
193230.2,200242.3,246769.9,517833.2,197169.1,184177.3,219702.3,194073.7,0.0
193177.5,200186.1,246675.6,517405.9,197080.6,184120.2,219625.8,193958.8,0.0
193196.8,200194.8,246661.1,517107.7,197073.4,184118.1,219615.6,193951.0,0.0
193264.6,200251.7,246721.2,516969.6,197153.6,184170.9,219679.9,194056.6,0.0
193292.8,200289.2,246759.3,516809.8,197218.4,184213.6,219738.1,194134.9,0.0
193225.8,200240.6,246683.1,516458.0,197164.2,184168.8,219690.2,194061.8,0.0
193174.3,200182.0,246586.6,516031.7,197071.6,184109.2,219612.3,193945.8,0.0
193207.1,200198.4,246585.7,515754.3,197074.8,184120.7,219617.5,193953.1,0.0
193271.0,200249.9,246640.3,515614.8,197148.9,184167.1,219678.1,194053.7,0.0
193288.9,200270.9,246662.1,515443.3,197199.2,184194.4,219721.1,194120.3,0.0
193230.0,200230.3,246597.3,515108.8,197158.2,184162.6,219685.8,194057.9,0.0
193177.5,200182.6,246513.5,514703.3,197080.6,184115.3,219621.1,193952.9,0.0
193214.4,200199.3,246514.4,514431.4,197088.7,184127.3,219624.4,193961.1,0.0
193269.9,200244.7,246563.6,514290.4,197159.6,184167.8,219677.7,194055.0,0.0
193275.5,200261.9,246576.2,514117.1,197201.7,184187.6,219710.5,194112.0,0.0
193231.9,200240.6,246525.5,513802.4,197173.2,184169.1,219685.7,194065.7,0.0
193173.1,200178.3,246429.4,513384.7,197080.2,184108.7,219604.6,193949.1,0.0
193192.9,200179.5,246413.0,513096.7,197066.5,184102.6,219589.7,193938.6,0.0
193261.1,200242.0,246480.1,512981.6,197155.6,184165.3,219666.5,194052.6,0.0
193283.8,200267.1,246505.9,512823.1,197208.4,184197.7,219713.4,194120.5,0.0
193238.8,200244.7,246457.0,512513.6,197178.6,184176.6,219692.4,194071.6,0.0
193172.8,200177.5,246353.7,512095.3,197077.9,184106.3,219606.3,193944.9,0.0
193190.9,200179.0,246338.7,511816.8,197068.1,184103.7,219593.7,193936.2,0.0
193243.3,200216.8,246383.7,511686.8,197138.2,184147.2,219646.7,194030.5,0.0
193265.3,200249.6,246410.6,511535.2,197194.3,184180.6,219694.2,194100.8,0.0
193232.1,200240.9,246376.1,511244.2,197180.9,184176.2,219686.5,194070.2,0.0
193191.9,200195.9,246299.6,510852.5,197107.6,184135.9,219624.8,193973.7,0.0
193207.3,200191.4,246276.0,510565.2,197087.2,184127.1,219605.3,193957.8,0.0
193282.6,200258.3,246342.4,510452.4,197172.2,184185.1,219674.6,194067.1,0.0
193269.0,200259.3,246344.5,510281.9,197203.0,184193.0,219697.8,194112.3,0.0
193219.9,200220.5,246284.2,509967.7,197161.9,184164.3,219666.0,194055.0,0.0
193208.5,200203.9,246234.6,509610.6,197117.7,184153.4,219636.2,193987.8,0.0
193233.2,200206.2,246219.6,509334.9,197106.1,184151.1,219623.7,193978.4,0.0
193284.0,200250.9,246265.2,509205.7,197169.8,184187.1,219673.0,194065.7,0.0
193292.4,200275.9,246285.3,509055.4,197215.4,184211.3,219714.2,194125.2,0.0
193239.9,200238.0,246223.3,508743.4,197172.2,184179.5,219679.8,194064.5,0.0
193179.5,200175.9,246122.1,508337.7,197075.5,184113.8,219596.0,193944.8,0.0
193218.2,200201.5,246128.6,508087.3,197085.7,184132.0,219605.1,193955.7,0.0
193254.5,200232.1,246164.9,507953.6,197141.9,184162.2,219645.4,194036.3,0.0
193281.9,200265.1,246202.1,507824.3,197208.1,184203.8,219699.8,194115.3,0.0
193248.2,200248.3,246160.5,507537.0,197187.5,184190.5,219682.7,194075.2,0.0
193197.8,200197.1,246072.9,507146.0,197103.3,184134.6,219610.6,193965.1,0.0
193231.2,200214.5,246071.3,506892.1,197106.5,184143.5,219613.9,193968.9,0.0
193285.6,200258.4,246119.5,506771.6,197174.2,184182.7,219668.0,194062.7,0.0
193289.7,200271.0,246132.0,506620.9,197213.6,184200.6,219701.7,194120.1,0.0
193240.6,200240.7,246079.0,506328.1,197182.3,184179.5,219678.6,194070.9,0.0
193197.7,200196.0,246000.0,505950.7,197108.5,184137.3,219619.5,193969.7,0.0
193214.6,200193.1,245978.8,505676.4,197090.4,184127.5,219600.6,193949.0,0.0
193262.8,200229.2,246019.2,505551.7,197151.8,184162.2,219646.0,194035.0,0.0
193275.7,200253.8,246041.2,505416.2,197202.9,184192.5,219690.7,194103.4,0.0
193237.5,200234.4,245994.0,505132.4,197176.6,184176.4,219670.6,194061.4,0.0
193198.5,200188.9,245912.9,504756.6,197098.9,184130.2,219606.4,193961.4,0.0
193222.1,200195.2,245900.0,504493.9,197088.2,184128.6,219595.7,193953.7,0.0
193286.1,200255.6,245963.6,504394.5,197170.5,184182.0,219662.1,194059.0,0.0
193296.2,200278.6,245989.3,504267.8,197226.5,184212.7,219709.6,194128.8,0.0
193237.5,200239.6,245926.8,503977.2,197187.5,184180.4,219675.5,194070.8,0.0
193201.5,200201.9,245855.8,503617.9,197120.4,184144.2,219622.2,193981.0,0.0
193218.1,200198.3,245836.5,503353.3,197103.6,184134.8,219603.3,193966.9,0.0
193275.1,200242.4,245887.9,503244.5,197173.8,184175.3,219657.6,194062.2,0.0
193287.3,200265.3,245910.4,503114.5,197223.7,184201.5,219700.2,194124.6,0.0
193242.1,200243.7,245861.4,502837.5,197197.2,184184.7,219678.4,194079.7,0.0
193200.4,200197.7,245778.4,502470.0,197120.8,184139.0,219612.8,193980.3,0.0
193217.5,200194.6,245761.1,502213.2,197108.8,184132.6,219598.2,193969.7,0.0
193276.1,200245.8,245818.3,502115.8,197184.1,184181.6,219660.1,194069.8,0.0
193279.1,200256.5,245829.0,501976.8,197219.5,184197.3,219689.8,194122.9,0.0
193229.6,200227.7,245776.8,501700.6,197186.8,184174.9,219663.5,194074.8,0.0
193185.6,200180.2,245693.4,501333.5,197105.9,184125.7,219595.3,193967.8,0.0
193216.3,200193.1,245684.3,501085.4,197098.8,184125.4,219586.8,193957.9,0.0
193279.8,200244.0,245744.3,500993.3,197177.4,184176.4,219650.5,194061.1,0.0
193298.2,200267.4,245770.7,500872.4,197230.4,184206.8,219693.9,194130.5,0.0
193245.0,200235.3,245709.5,500588.4,197188.1,184175.3,219657.6,194071.8,0.0
193197.1,200189.1,245624.7,500223.4,197106.7,184126.3,219589.2,193964.3,0.0
193230.0,200207.5,245625.9,499991.6,197111.9,184137.4,219593.9,193969.0,0.0
193300.9,200268.6,245694.2,499911.2,197198.5,184195.8,219666.8,194079.0,0.0
193311.9,200292.1,245716.7,499793.7,197248.3,184222.3,219709.5,194143.8,0.0
193254.8,200256.5,245657.5,499511.9,197207.3,184188.8,219674.3,194086.5,0.0
193197.1,200198.9,245564.5,499141.2,197118.3,184131.7,219599.7,193972.1,0.0
193218.9,200197.7,245545.9,498888.2,197098.9,184123.8,219581.2,193954.4,0.0
193277.2,200247.8,245600.8,498793.9,197165.6,184168.3,219637.9,194049.6,0.0
193295.0,200272.0,245629.1,498679.6,197216.5,184196.6,219682.8,194119.0,0.0
193252.2,200248.0,245586.0,498417.9,197190.3,184179.0,219661.9,194077.2,0.0
193182.9,200185.3,245485.5,498044.4,197092.6,184113.4,219577.4,193956.2,0.0
193204.3,200186.1,245469.5,497798.7,197078.1,184108.9,219564.9,193945.1,0.0
193283.7,200253.1,245541.6,497728.5,197166.6,184170.9,219641.8,194059.3,0.0
193287.9,200262.8,245557.7,497609.7,197208.9,184190.4,219676.2,194114.9,0.0
193215.2,200209.3,245485.0,497324.7,197157.3,184147.6,219628.3,194044.3,0.0
193174.2,200170.9,245407.7,496975.0,197083.3,184105.5,219566.0,193945.1,0.0
193219.3,200201.4,245418.1,496760.2,197098.8,184128.9,219579.6,193960.3,0.0
193271.9,200242.5,245462.0,496664.9,197160.6,184166.7,219627.6,194047.0,0.0
193283.7,200267.7,245486.3,496558.4,197212.0,184194.4,219670.1,194112.7,0.0
193225.4,200237.8,245433.4,496296.5,197179.0,184170.1,219643.5,194059.4,0.0
193167.1,200174.1,245337.5,495929.5,197084.0,184108.1,219562.6,193940.8,0.0
193192.2,200184.8,245328.6,495697.4,197075.8,184110.1,219554.3,193933.8,0.0
193262.5,200244.7,245397.0,495632.5,197163.9,184171.7,219626.1,194045.8,0.0
193278.9,200267.4,245423.1,495528.2,197217.8,184200.0,219670.1,194112.7,0.0
193240.6,200240.3,245375.0,495268.2,197185.0,184176.7,219645.5,194064.0,0.0
193168.4,200162.6,245265.0,494892.8,197077.0,184099.9,219552.6,193931.9,0.0
193212.2,200188.4,245270.7,494676.7,197082.9,184113.8,219558.7,193938.5,0.0
193277.7,200248.2,245335.0,494608.7,197168.1,184170.4,219629.5,194048.0,0.0
193283.6,200264.2,245356.3,494503.8,197217.3,184195.2,219673.0,194114.2,0.0
193245.6,200245.8,245313.6,494253.9,197192.1,184177.6,219652.9,194074.2,0.0
193191.3,200196.0,245231.2,493910.5,197113.4,184129.8,219587.2,193972.3,0.0
193204.5,200192.9,245209.3,493671.7,197091.8,184118.8,219567.1,193954.2,0.0
193294.6,200271.5,245294.2,493620.3,197189.7,184192.5,219651.7,194077.4,0.0
193294.4,200284.2,245309.8,493513.6,197233.5,184212.5,219687.6,194135.8,0.0
193228.1,200238.4,245241.8,493247.7,197187.2,184173.3,219647.2,194072.3,0.0
193171.0,200175.8,245145.6,492892.3,197095.1,184111.2,219567.1,193955.0,0.0
193194.7,200177.9,245129.4,492659.2,197080.5,184106.3,219549.9,193940.8,0.0
193272.7,200247.9,245199.9,492598.6,197165.5,184165.7,219619.0,194051.1,0.0
193278.6,200260.7,245217.8,492493.4,197205.7,184182.8,219649.5,194107.6,0.0
193220.3,200217.4,245155.5,492228.5,197158.9,184144.7,219608.4,194044.1,0.0
193180.1,200181.0,245085.5,491900.6,197091.6,184108.6,219554.9,193949.7,0.0
193205.6,200187.3,245075.5,491674.8,197082.3,184106.3,219544.8,193937.7,0.0
193275.5,200244.6,245140.9,491612.6,197162.3,184161.5,219614.1,194043.5,0.0
193285.8,200267.7,245167.2,491518.5,197212.0,184188.1,219658.0,194107.6,0.0
193239.4,200232.6,245114.0,491261.2,197172.9,184158.1,219626.0,194052.1,0.0
193186.9,200187.2,245032.2,490922.8,197092.6,184108.6,219558.2,193948.4,0.0
193221.5,200203.8,245032.3,490709.3,197091.1,184116.8,219555.8,193949.0,0.0
193254.5,200225.0,245061.9,490613.0,197135.8,184136.8,219587.5,194021.6,0.0
193266.3,200246.2,245085.9,490519.7,197185.6,184163.5,219628.4,194089.0,0.0
193224.8,200224.0,245046.6,490289.1,197166.8,184154.5,219617.3,194054.2,0.0
193176.5,200174.9,244964.8,489956.6,197090.5,184108.6,219554.3,193953.3,0.0
193217.3,200203.3,244971.4,489759.2,197100.1,184124.9,219562.3,193962.3,0.0
193276.4,200256.8,245028.3,489695.1,197170.8,184170.3,219618.3,194056.9,0.0
193285.2,200270.2,245046.6,489599.3,197212.0,184189.2,219648.8,194113.2,0.0
193230.0,200232.8,244989.5,489350.4,197172.5,184157.1,219614.8,194056.9,0.0
193179.9,200181.3,244905.4,489011.9,197088.8,184101.3,219544.6,193948.4,0.0
193201.7,200184.3,244894.5,488788.8,197074.4,184095.1,219532.9,193934.6,0.0
193286.2,200258.8,244976.9,488749.3,197170.0,184167.8,219617.9,194056.7,0.0
193312.5,200293.5,245018.0,488682.5,197236.1,184210.2,219676.2,194138.7,0.0
193243.7,200238.5,244941.2,488420.8,197178.4,184158.9,219623.6,194064.4,0.0
193191.4,200182.5,244853.5,488088.4,197094.8,184104.9,219554.6,193957.6,0.0
193218.0,200189.5,244846.3,487877.1,197086.6,184107.0,219545.9,193949.8,0.0
193284.0,200251.9,244914.3,487829.2,197170.3,184166.0,219614.5,194056.3,0.0
193293.0,200266.4,244933.8,487740.9,197211.6,184185.9,219647.3,194114.7,0.0
193240.5,200232.4,244878.4,487503.9,197172.2,184156.8,219613.8,194060.3,0.0
193192.5,200189.3,244799.6,487182.0,197091.8,184112.1,219552.1,193958.3,0.0
193214.8,200194.7,244790.1,486970.0,197080.3,184113.0,219543.0,193946.8,0.0
193276.9,200236.7,244845.0,486907.0,197149.2,184157.3,219597.3,194041.4,0.0
193296.2,200269.3,244878.9,486833.4,197204.9,184188.8,219644.0,194115.7,0.0
193244.2,200238.7,244829.0,486600.9,197171.8,184163.6,219618.0,194068.5,0.0
193211.8,200204.0,244761.4,486290.0,197105.8,184126.7,219567.0,193978.2,0.0
193211.4,200191.1,244731.8,486062.6,197077.9,184109.9,219538.8,193952.1,0.0
193255.1,200221.0,244770.0,485985.9,197130.1,184138.1,219576.9,194030.4,0.0
193270.2,200245.5,244801.0,485917.4,197188.5,184171.5,219625.4,194104.6,0.0
193230.0,200232.3,244764.2,485707.7,197171.0,184161.7,219613.0,194073.3,0.0
193197.2,200201.6,244698.3,485405.4,197106.0,184125.9,219561.4,193983.7,0.0
193210.2,200201.2,244677.7,485193.4,197087.5,184114.4,219541.9,193965.1,0.0
193279.1,200258.6,244740.6,485148.6,197163.1,184167.3,219606.6,194070.0,0.0
193321.9,200309.9,244798.0,485109.4,197243.4,184225.9,219679.3,194169.6,0.0
193286.1,200291.0,244761.4,484901.1,197225.5,184216.0,219666.5,194136.7,0.0
193201.1,200208.9,244644.0,484552.0,197109.5,184133.8,219564.7,193998.7,0.0
193199.5,200190.5,244611.0,484328.3,197075.0,184112.8,219531.4,193964.3,0.0
193271.9,200254.0,244685.5,484298.3,197160.6,184175.9,219606.6,194075.6,0.0
193288.2,200275.9,244712.6,484231.6,197208.6,184202.4,219649.5,194142.4,0.0
193240.3,200239.5,244656.7,484000.3,197168.1,184168.6,219614.0,194087.1,0.0
193198.8,200204.9,244591.5,483704.6,197107.1,184135.1,219566.9,194000.9,0.0
193219.3,200205.5,244576.9,483498.0,197093.8,184131.6,219552.8,193987.3,0.0
193279.9,200247.8,244630.0,483445.3,197161.3,184175.0,219606.2,194078.3,0.0
193293.5,200270.2,244657.6,483378.0,197211.1,184203.8,219647.5,194146.7,0.0
193227.8,200222.5,244592.7,483139.7,197160.3,184163.5,219602.4,194083.7,0.0
193178.0,200173.5,244509.9,482824.5,197077.4,184111.8,219534.6,193976.4,0.0
193212.7,200199.1,244513.3,482637.9,197078.8,184121.9,219539.1,193977.0,0.0
193295.3,200273.2,244593.5,482614.6,197171.5,184191.4,219622.0,194097.5,0.0
193297.5,200285.7,244610.3,482539.1,197210.7,184207.8,219654.5,194156.2,0.0
193233.5,200242.8,244549.5,482311.0,197166.4,184171.3,219616.7,194096.8,0.0
193182.2,200190.4,244464.9,481996.2,197084.0,184117.9,219546.0,193987.9,0.0
193203.2,200193.3,244453.3,481796.1,197071.6,184117.9,219535.5,193974.8,0.0
193264.3,200240.1,244508.1,481748.0,197140.5,184166.0,219593.0,194069.9,0.0
193273.8,200261.3,244532.0,481683.6,197189.3,184190.5,219632.5,194136.4,0.0
193228.1,200227.7,244482.9,481466.7,197156.1,184164.3,219602.8,194089.0,0.0
193195.3,200200.7,244421.9,481176.6,197096.2,184136.9,219557.0,194003.6,0.0
193225.6,200216.6,244422.1,480990.2,197094.9,184149.0,219558.9,194000.8,0.0
193280.2,200259.5,244475.2,480946.4,197163.3,184192.3,219614.2,194094.3,0.0
193289.0,200275.0,244498.0,480882.3,197213.2,184214.0,219654.1,194159.0,0.0
193241.6,200242.8,244448.3,480665.4,197180.2,184185.8,219627.6,194109.4,0.0
193190.9,200196.4,244367.1,480357.9,197101.4,184138.2,219561.6,194002.7,0.0
193223.8,200206.4,244362.3,480165.0,197094.7,184142.3,219554.8,193995.0,0.0
193272.3,200246.9,244408.0,480107.7,197151.4,184174.1,219598.6,194077.3,0.0
193282.6,200265.4,244434.6,480045.4,197199.7,184198.4,219638.8,194144.3,0.0
193224.1,200219.7,244375.6,479823.0,197155.3,184162.4,219602.1,194088.3,0.0
193174.6,200171.3,244293.5,479519.4,197075.4,184113.2,219537.2,193984.7,0.0
193205.6,200185.7,244289.8,479334.3,197074.1,184121.9,219535.4,193978.8,0.0
193265.5,200233.2,244346.0,479292.2,197143.6,184166.1,219592.0,194071.5,0.0
193278.8,200253.6,244374.9,479235.6,197197.2,184194.1,219636.4,194141.4,0.0
193234.3,200225.2,244332.6,479033.1,197173.6,184175.3,219617.3,194102.2,0.0
193181.0,200169.4,244243.4,478721.2,197083.8,184118.2,219543.2,193990.4,0.0
193212.3,200188.6,244242.8,478542.0,197080.7,184129.3,219544.7,193989.8,0.0
193266.7,200236.4,244299.5,478504.5,197149.4,184174.0,219599.2,194081.3,0.0
193281.1,200260.7,244331.2,478454.9,197203.3,184202.4,219643.1,194151.1,0.0
193244.5,200246.2,244298.4,478264.8,197186.7,184193.0,219630.0,194117.1,0.0
193203.5,200205.3,244222.2,477967.8,197113.0,184149.4,219566.7,194014.7,0.0
193210.8,200193.1,244192.6,477755.3,197080.3,184127.5,219535.3,193980.4,0.0
193245.9,200218.8,244224.4,477693.0,197125.9,184147.2,219566.0,194050.1,0.0
193270.1,200247.1,244264.7,477652.7,197188.3,184185.9,219620.3,194132.2,0.0
193238.0,200231.2,244231.2,477460.2,197170.5,184175.2,219607.5,194097.5,0.0
193216.9,200212.8,244175.3,477181.3,197114.7,184150.2,219562.0,194010.8,0.0
193246.0,200223.6,244169.2,476991.0,197103.8,184149.1,219551.0,193997.2,0.0
193304.6,200273.1,244232.2,476963.7,197181.1,184202.0,219616.3,194098.3,0.0
193300.0,200268.9,244238.4,476890.5,197207.8,184206.0,219633.9,194144.8,0.0
193258.2,200237.0,244191.1,476686.1,197175.4,184181.5,219605.5,194099.8,0.0
193241.4,200238.2,244155.2,476440.0,197144.9,184181.2,219586.3,194040.1,0.0
193239.7,200230.0,244128.5,476239.9,197117.5,184164.9,219561.3,194011.0,0.0
193276.6,200253.7,244159.9,476179.5,197158.8,184182.0,219591.4,194079.1,0.0
193288.8,200263.2,244180.5,476122.7,197200.3,184199.6,219623.1,194139.7,0.0
193233.9,200220.3,244119.5,475908.4,197155.9,184162.4,219581.9,194080.6,0.0
193186.0,200182.0,244048.0,475623.6,197085.4,184121.3,219526.1,193984.0,0.0
193205.9,200178.8,244031.7,475431.0,197065.3,184112.8,219509.9,193963.8,0.0
193280.5,200248.3,244106.2,475417.7,197151.4,184176.1,219584.3,194074.7,0.0
193297.3,200274.8,244145.4,475380.7,197212.0,184211.1,219638.3,194154.3,0.0
193244.0,200234.8,244095.9,475183.3,197179.4,184185.2,219613.8,194109.7,0.0
193191.5,200174.3,244003.1,474874.6,197083.6,184121.3,219529.9,193988.8,0.0
193220.0,200195.9,244003.5,474701.5,197080.6,184130.6,219528.0,193983.9,0.0
193275.4,200243.3,244056.7,474669.4,197145.6,184170.3,219581.0,194074.7,0.0
193296.6,200269.3,244090.5,474634.8,197207.2,184203.4,219632.8,194150.3,0.0
193275.4,200273.3,244072.7,474476.3,197212.0,184212.9,219643.7,194136.9,0.0
193199.5,200188.5,243958.7,474147.2,197095.4,184127.4,219540.5,193995.1,0.0
193214.7,200183.6,243937.4,473949.8,197070.2,184114.3,219513.8,193967.7,0.0
193274.7,200247.1,244004.0,473935.2,197153.2,184171.2,219581.6,194073.9,0.0
193276.3,200257.6,244024.2,473884.4,197197.5,184189.4,219616.9,194135.4,0.0
193239.5,200234.8,243988.6,473703.1,197179.6,184177.8,219603.7,194102.6,0.0
193192.1,200179.9,243904.8,473408.3,197095.1,184123.8,219530.9,193992.2,0.0
193217.5,200194.4,243904.8,473240.5,197094.0,184133.6,219532.9,193988.6,0.0
193271.6,200233.4,243958.3,473212.4,197160.2,184176.8,219587.7,194081.7,0.0
193303.3,200273.8,244002.7,473188.5,197225.2,184218.8,219644.0,194167.7,0.0
193259.8,200251.1,243960.2,473005.3,197201.8,184202.3,219624.5,194127.4,0.0
193193.9,200190.1,243868.8,472712.1,197114.3,184146.4,219550.4,194010.7,0.0
193212.5,200190.5,243854.7,472528.6,197098.6,184143.0,219538.2,193991.3,0.0
193268.7,200226.1,243899.5,472486.4,197154.2,184173.1,219581.2,194069.9,0.0
193283.9,200239.5,243922.1,472433.5,197192.3,184187.2,219610.3,194128.4,0.0
193234.1,200220.6,243882.9,472254.5,197169.3,184172.2,219594.6,194092.2,0.0
193186.9,200176.1,243808.3,471972.8,197093.8,184128.4,219534.2,193993.4,0.0
193197.0,200164.6,243784.5,471778.6,197063.3,184111.2,219507.5,193965.0,0.0
193268.5,200219.0,243849.8,471763.4,197137.0,184164.9,219571.6,194064.9,0.0
193296.9,200255.4,243895.2,471743.3,197203.0,184206.5,219627.7,194148.6,0.0
193235.9,200211.8,243836.4,471540.8,197160.0,184169.7,219589.2,194091.9,0.0
193208.0,200185.4,243778.3,471278.1,197101.8,184143.4,219546.4,194009.5,0.0
193242.8,200204.2,243780.1,471111.7,197099.4,184153.3,219547.2,194004.8,0.0
193301.7,200253.8,243839.5,471091.3,197170.9,184202.3,219607.6,194099.7,0.0
193304.1,200268.4,243861.0,471048.6,197214.6,184222.1,219642.7,194161.0,0.0
193257.3,200241.8,243818.2,470869.1,197189.3,184202.6,219622.5,194121.3,0.0
193198.7,200179.9,243728.1,470578.3,197102.6,184143.9,219547.4,194007.8,0.0
193222.2,200179.7,243711.0,470396.8,197084.5,184138.0,219532.5,193987.6,0.0
193297.1,200248.1,243783.3,470393.0,197167.7,184197.5,219605.9,194095.6,0.0
193294.5,200254.6,243800.7,470351.4,197204.7,184208.2,219635.0,194151.5,0.0
193251.2,200230.4,243762.2,470176.4,197181.6,184189.6,219617.2,194114.0,0.0
193200.6,200184.4,243683.0,469897.7,197104.0,184141.4,219554.1,194011.3,0.0
193220.4,200183.8,243665.1,469713.3,197081.7,184132.3,219534.6,193987.6,0.0
193272.3,200224.3,243717.4,469692.1,197148.1,184175.3,219589.2,194076.5,0.0
193283.6,200245.7,243746.8,469663.7,197199.7,184200.4,219632.2,194143.5,0.0
193242.8,200219.5,243703.1,469483.3,197170.8,184175.6,219606.3,194098.0,0.0
193203.3,200183.7,243636.3,469215.4,197104.0,184136.8,219550.7,194002.3,0.0
193232.9,200204.2,243641.9,469061.1,197108.3,184154.3,219556.7,194003.6,0.0
193295.1,200249.7,243698.5,469041.0,197174.9,184199.0,219610.9,194094.5,0.0
193313.1,200269.4,243731.4,469014.0,197228.3,184227.2,219655.9,194167.2,0.0
193252.1,200227.9,243675.6,468824.7,197187.7,184190.5,219622.7,194113.4,0.0
193167.3,200144.1,243560.0,468511.7,197072.0,184105.2,219523.5,193973.9,0.0
193179.3,200141.5,243536.3,468326.0,197044.4,184089.3,219498.3,193945.7,0.0
193294.2,200246.7,243647.9,468362.4,197166.7,184188.6,219609.8,194092.2,0.0
193343.0,200307.2,243714.8,468375.5,197256.3,184253.2,219694.5,194199.9,0.0
193286.5,200266.3,243656.7,468187.6,197214.3,184217.1,219659.5,194143.4,0.0
193227.5,200203.4,243562.3,467898.9,197120.4,184155.2,219579.3,194023.7,0.0
193247.5,200202.3,243545.4,467721.8,197098.7,184145.4,219557.6,193999.0,0.0
193317.2,200260.6,243612.3,467714.7,197175.7,184196.9,219618.8,194098.5,0.0
193325.0,200270.3,243632.9,467680.2,197218.1,184212.0,219650.0,194156.8,0.0
193289.7,200247.8,243595.2,467511.0,197193.3,184194.0,219629.2,194117.0,0.0
193240.8,200198.1,243514.2,467235.3,197111.2,184143.3,219560.0,194008.2,0.0
193257.5,200198.9,243502.4,467067.7,197095.5,184141.4,219547.0,193990.0,0.0
193322.4,200242.8,243557.8,467053.5,197158.6,184181.9,219599.5,194080.2,0.0
193361.9,200285.0,243608.7,467052.1,197229.8,184226.9,219662.2,194170.0,0.0
193299.1,200241.6,243549.4,466866.8,197185.6,184186.7,219622.3,194111.3,0.0
193245.0,200183.7,243462.2,466584.9,197096.5,184127.1,219547.7,193998.8,0.0
193269.4,200190.0,243454.1,466420.7,197085.4,184128.6,219539.1,193985.4,0.0
193332.9,200245.8,243517.8,466415.9,197160.6,184181.4,219600.9,194084.1,0.0
193356.4,200283.1,243559.5,466408.5,197227.9,184220.9,219655.8,194167.3,0.0
193306.7,200253.7,243514.3,466235.9,197198.1,184195.4,219630.6,194123.2,0.0
193242.5,200188.2,243420.3,465950.8,197104.2,184134.0,219553.6,194004.3,0.0
193257.6,200194.3,243405.2,465782.0,197088.0,184127.7,219538.0,193983.5,0.0
193313.8,200245.5,243464.3,465776.8,197160.1,184175.3,219598.1,194079.0,0.0
193323.2,200261.3,243493.1,465755.5,197211.2,184200.8,219641.5,194148.7,0.0
193279.8,200237.5,243455.9,465596.3,197190.3,184184.6,219625.9,194112.6,0.0
193220.9,200183.9,243373.8,465323.7,197108.3,184132.9,219557.7,194003.2,0.0
193218.4,200172.5,243343.9,465138.4,197076.2,184113.1,219526.2,193968.0,0.0
193292.4,200239.0,243418.0,465146.8,197160.5,184177.0,219600.0,194077.6,0.0
193336.0,200292.8,243478.5,465159.8,197240.5,184234.4,219672.9,194178.3,0.0
193293.3,200271.3,243446.6,465010.0,197225.5,184223.6,219664.7,194149.9,0.0
193234.3,200211.4,243363.7,464739.8,197140.0,184170.6,219595.9,194038.5,0.0
193245.1,200206.5,243339.5,464557.0,197106.2,184151.6,219567.4,194003.9,0.0
193285.6,200231.1,243373.9,464520.9,197150.4,184171.0,219596.6,194074.5,0.0
193295.6,200238.3,243393.4,464491.5,197191.2,184184.7,219624.5,194133.8,0.0
193245.7,200211.1,243347.3,464327.3,197162.2,184159.6,219599.5,194088.3,0.0
193196.2,200174.1,243280.1,464080.4,197097.7,184122.4,219549.6,193997.1,0.0
193225.8,200182.0,243275.2,463923.7,197088.1,184122.7,219542.1,193982.8,0.0
193310.3,200257.3,243355.0,463942.1,197181.6,184191.5,219620.3,194095.8,0.0
193315.3,200277.8,243383.2,463928.0,197231.7,184217.1,219661.8,194163.9,0.0
193256.9,200233.0,243326.3,463749.6,197187.0,184179.8,219625.4,194106.5,0.0
193209.0,200188.0,243246.8,463482.0,197104.1,184128.0,219558.8,193997.8,0.0
193225.3,200184.7,243232.1,463312.5,197084.1,184121.4,219540.3,193976.0,0.0
193274.5,200223.5,243278.3,463291.4,197137.8,184153.4,219581.6,194054.4,0.0
193290.9,200245.5,243313.8,463283.7,197193.1,184185.4,219628.0,194130.4,0.0
193255.3,200226.1,243283.6,463136.7,197181.4,184181.9,219620.7,194106.8,0.0
193230.7,200209.1,243230.2,462899.2,197128.5,184160.6,219580.2,194026.8,0.0
193241.8,200194.6,243199.1,462715.0,197091.7,184135.3,219542.8,193984.8,0.0
193297.1,200248.2,243259.3,462717.2,197167.4,184186.3,219604.5,194081.8,0.0
193313.9,200276.0,243298.9,462722.0,197234.8,184224.3,219661.4,194166.8,0.0
193268.0,200251.3,243259.7,462569.7,197212.0,184202.2,219642.9,194131.9,0.0
193186.0,200169.1,243147.8,462277.4,197100.2,184120.4,219545.4,193996.7,0.0
193192.9,200158.5,243117.5,462094.3,197064.0,184097.8,219510.7,193959.2,0.0
193250.6,200203.3,243171.7,462084.3,197126.0,184139.8,219562.2,194049.2,0.0
193279.2,200237.1,243216.9,462089.2,197191.9,184181.4,219617.1,194133.8,0.0
193227.6,200209.2,243172.8,461934.1,197166.4,184157.3,219592.1,194090.8,0.0
193180.1,200162.9,243098.8,461681.0,197091.3,184111.7,219529.4,193988.9,0.0
193212.7,200179.5,243101.3,461535.8,197084.5,184119.1,219525.3,193980.9,0.0
193274.1,200226.1,243160.1,461535.3,197152.4,184163.5,219581.8,194071.6,0.0
193300.7,200265.1,243208.3,461547.8,197224.1,184205.5,219643.7,194161.5,0.0
193242.5,200219.6,243152.3,461380.7,197184.1,184169.3,219608.9,194107.3,0.0
193198.8,200171.8,243071.3,461117.6,197099.2,184115.0,219539.4,193995.8,0.0
193226.6,200188.3,243071.3,460972.1,197092.0,184120.8,219536.1,193985.3,0.0
193292.3,200241.5,243137.3,460976.8,197162.2,184171.3,219594.8,194080.8,0.0
193311.0,200262.6,243169.6,460968.7,197211.5,184198.9,219634.6,194152.3,0.0
193272.1,200247.1,243135.8,460827.4,197195.7,184191.5,219623.5,194125.7,0.0
193222.7,200196.2,243057.6,460570.5,197118.2,184147.0,219559.3,194024.1,0.0
193225.4,200184.4,243027.8,460393.9,197082.0,184124.3,219525.3,193986.2,0.0
193290.1,200237.6,243087.6,460393.8,197151.1,184170.2,219580.2,194078.5,0.0
193330.3,200289.6,243148.6,460418.8,197234.7,184225.4,219651.9,194179.6,0.0
193277.2,200257.1,243103.3,460266.0,197204.3,184198.7,219628.4,194137.8,0.0
193194.5,200177.1,242993.2,459978.6,197092.6,184117.9,219531.8,194003.7,0.0
193210.2,200177.8,242982.2,459826.7,197076.8,184115.8,219518.4,193987.3,0.0
193274.7,200230.5,243044.2,459836.4,197149.6,184164.4,219577.2,194084.9,0.0
193312.7,200280.4,243099.1,459860.4,197226.3,184212.2,219642.9,194180.5,0.0
193261.4,200250.5,243055.0,459713.5,197197.9,184189.4,219619.7,194140.7,0.0
193208.8,200197.3,242975.2,459456.5,197112.7,184136.9,219551.0,194031.4,0.0
193220.6,200193.9,242957.6,459295.7,197086.8,184126.9,219529.6,194004.8,0.0
193276.0,200239.3,243014.0,459302.9,197154.7,184174.2,219587.0,194097.7,0.0
193286.0,200253.8,243040.9,459299.7,197202.1,184196.0,219624.8,194166.1,0.0
193254.5,200242.4,243013.8,459166.5,197188.5,184187.0,219614.0,194140.9,0.0
193202.2,200188.8,242933.3,458914.2,197109.6,184136.1,219544.3,194033.6,0.0
193220.1,200187.9,242915.7,458757.2,197087.0,184127.3,219521.0,194005.7,0.0
193283.9,200239.9,242975.3,458764.9,197155.6,184173.7,219578.6,194097.8,0.0
193289.5,200252.2,242997.9,458758.8,197199.4,184188.5,219612.5,194161.9,0.0
193257.6,200234.0,242970.8,458627.0,197187.2,184180.0,219603.0,194137.3,0.0
193203.4,200188.1,242889.6,458374.0,197105.8,184127.3,219533.7,194028.0,0.0
193202.5,200177.6,242864.0,458209.6,197074.5,184109.7,219505.9,193993.3,0.0
193263.8,200228.4,242927.6,458219.5,197145.7,184160.1,219567.9,194089.9,0.0
193273.4,200247.3,242956.6,458217.4,197195.0,184183.4,219608.4,194159.5,0.0
193217.3,200212.5,242908.0,458069.6,197162.6,184157.2,219582.5,194115.3,0.0
193194.8,200191.5,242859.6,457850.3,197114.9,184142.4,219549.2,194039.8,0.0
193224.2,200200.3,242853.8,457703.8,197102.6,184146.3,219539.8,194023.2,0.0
193282.3,200240.5,242906.7,457705.7,197163.9,184187.1,219590.4,194110.3,0.0
193302.7,200265.5,242942.5,457714.4,197219.8,184215.8,219637.1,194185.6,0.0
193263.1,200245.5,242907.2,457579.5,197199.2,184197.9,219618.1,194150.9,0.0
193205.3,200192.9,242821.3,457326.8,197114.0,184142.7,219545.6,194038.3,0.0
193203.1,200176.1,242790.1,457160.8,197079.7,184121.3,219513.6,194001.8,0.0
193264.1,200221.3,242847.9,457164.9,197145.0,184165.8,219566.5,194090.1,0.0
193286.3,200248.8,242887.8,457175.5,197203.3,184199.1,219615.2,194167.5,0.0
193244.1,200229.6,242853.1,457041.3,197182.7,184183.0,219599.0,194133.0,0.0
193193.4,200183.8,242774.5,456795.5,197104.6,184135.5,219533.8,194025.7,0.0
193205.9,200172.1,242749.4,456634.0,197076.1,184119.6,219506.5,193995.1,0.0
193267.8,200221.9,242806.1,456641.4,197145.3,184165.8,219562.6,194087.3,0.0
193299.6,200261.2,242858.7,456668.4,197218.8,184210.1,219624.0,194178.7,0.0
193256.1,200233.0,242820.8,456530.0,197191.8,184186.7,219602.7,194142.4,0.0
193192.3,200174.9,242734.1,456275.7,197104.6,184129.0,219530.7,194029.8,0.0
193203.4,200169.8,242711.0,456117.1,197078.1,184117.9,219509.3,194001.0,0.0
193259.1,200209.8,242757.9,456115.4,197135.6,184153.4,219554.8,194083.3,0.0
193277.3,200234.8,242793.6,456127.3,197193.5,184181.3,219602.7,194160.3,0.0
193239.0,200214.3,242761.4,456001.7,197180.7,184169.5,219593.6,194132.6,0.0
193186.7,200161.1,242682.1,455755.0,197102.5,184119.4,219525.0,194028.0,0.0
193203.1,200166.0,242671.2,455608.8,197087.2,184117.4,219511.5,194007.7,0.0
193261.3,200209.6,242726.4,455617.0,197153.8,184160.9,219565.0,194094.4,0.0
193286.8,200240.4,242770.4,455634.9,197217.1,184197.3,219617.5,194175.1,0.0
193260.5,200232.9,242746.2,455511.6,197204.2,184191.0,219609.2,194151.1,0.0
193200.5,200178.8,242660.7,455265.5,197120.8,184136.3,219537.8,194039.6,0.0
193207.2,200169.1,242637.9,455112.3,197093.5,184123.0,219514.7,194009.9,0.0
193263.1,200209.0,242689.3,455112.2,197150.5,184159.3,219558.6,194090.8,0.0
193297.8,200259.2,242748.4,455145.7,197229.8,184213.1,219627.1,194189.5,0.0
193252.1,200232.6,242707.4,455009.3,197205.3,184193.0,219608.0,194151.5,0.0
193190.3,200172.0,242618.0,454753.3,197112.4,184131.6,219531.9,194032.0,0.0
193206.2,200175.2,242606.3,454605.3,197090.5,184124.7,219516.5,194005.4,0.0
193272.5,200223.3,242668.3,454619.5,197156.5,184170.7,219574.0,194095.3,0.0
193297.7,200244.8,242704.7,454630.8,197209.0,184199.4,219617.9,194169.1,0.0
193256.9,200226.1,242670.1,454500.3,197188.3,184182.9,219599.3,194134.8,0.0
193189.6,200159.8,242574.1,454239.7,197094.0,184117.5,219515.9,194012.8,0.0
193212.2,200159.7,242559.2,454088.3,197075.3,184111.2,219496.5,193990.4,0.0
193275.6,200215.0,242619.8,454100.2,197143.3,184158.9,219550.8,194081.9,0.0
193291.5,200239.3,242655.3,454113.6,197198.1,184187.6,219595.5,194156.0,0.0
193241.9,200202.3,242610.2,453976.8,197168.8,184160.4,219570.7,194114.9,0.0
193198.9,200153.5,242534.9,453733.4,197089.6,184110.1,219503.6,194008.5,0.0
193219.9,200172.3,242537.5,453604.3,197087.6,184119.5,219503.2,194001.0,0.0
193278.6,200222.1,242596.0,453619.0,197155.5,184162.4,219558.6,194091.9,0.0
193313.5,200268.9,242657.1,453662.3,197239.3,184218.3,219631.1,194196.7,0.0
193290.2,200260.7,242640.5,453555.0,197237.5,184222.7,219633.7,194185.6,0.0
193206.9,200186.3,242530.6,453284.1,197124.3,184140.9,219536.8,194045.9,0.0
193220.8,200185.1,242512.1,453133.4,197099.6,184130.2,219515.1,194015.1,0.0
193280.3,200237.4,242572.0,453151.9,197170.0,184178.0,219572.0,194107.2,0.0
193297.5,200260.4,242609.1,453173.3,197231.0,184211.1,219619.8,194186.3,0.0
193253.6,200229.4,242569.4,453043.8,197207.6,184189.9,219599.3,194150.9,0.0
193197.1,200178.0,242486.1,452800.1,197120.2,184134.8,219526.2,194038.9,0.0
193218.8,200190.1,242477.4,452659.1,197103.1,184134.9,219514.2,194018.2,0.0
193270.1,200229.3,242527.0,452665.8,197160.6,184171.9,219559.3,194097.1,0.0
193298.2,200260.3,242570.8,452690.9,197223.3,184206.9,219611.1,194179.1,0.0
193262.0,200234.3,242539.8,452571.1,197207.2,184193.2,219599.1,194152.4,0.0
193200.5,200175.1,242450.4,452323.0,197117.0,184132.6,219524.4,194036.0,0.0
193219.4,200178.8,242437.2,452179.8,197095.7,184126.3,219510.5,194011.6,0.0
193271.8,200212.9,242481.0,452179.2,197146.2,184155.4,219550.3,194086.2,0.0
193284.8,200231.3,242511.3,452192.3,197196.1,184180.1,219591.2,194158.0,0.0
193278.0,200240.2,242511.3,452101.3,197210.2,184195.3,219609.0,194157.9,0.0
193234.2,200201.1,242443.6,451877.3,197144.2,184159.1,219558.4,194063.0,0.0
193234.8,200182.5,242410.8,451710.9,197106.1,184134.5,219520.6,194017.4,0.0
193293.4,200231.8,242467.3,451724.3,197168.4,184176.3,219570.5,194104.7,0.0
193309.1,200257.7,242503.4,451745.8,197223.3,184204.2,219615.7,194180.4,0.0
193269.5,200236.1,242469.8,451623.6,197201.4,184186.3,219597.0,194147.7,0.0
193217.1,200187.8,242393.0,451387.7,197123.5,184137.9,219530.5,194041.5,0.0
193229.8,200183.8,242373.3,451237.9,197097.9,184126.9,219507.9,194009.7,0.0
193300.8,200244.7,242443.8,451268.7,197178.5,184184.9,219577.4,194110.0,0.0
193304.4,200252.6,242466.0,451273.1,197220.1,184197.8,219605.9,194168.8,0.0
193249.5,200218.8,242418.4,451139.1,197188.4,184168.8,219576.5,194123.9,0.0
193201.6,200172.7,242343.3,450907.6,197113.3,184124.4,219515.0,194023.1,0.0
193246.0,200207.8,242362.5,450797.9,197124.0,184151.2,219530.3,194030.1,0.0
193285.8,200235.8,242399.9,450793.9,197169.8,184177.5,219564.6,194097.3,0.0
193296.9,200249.5,242425.8,450804.2,197216.6,184197.6,219599.0,194162.1,0.0
193279.0,200241.2,242411.3,450705.7,197218.1,184199.5,219604.4,194151.3,0.0
193232.5,200201.2,242338.3,450476.5,197142.9,184155.0,219542.7,194050.2,0.0
193230.7,200194.6,242316.3,450331.9,197116.4,184145.0,219521.8,194020.0,0.0
193281.4,200226.0,242360.3,450336.7,197169.5,184177.4,219562.5,194096.6,0.0
193314.1,200258.6,242406.7,450368.0,197234.9,184215.8,219616.5,194182.4,0.0
193283.3,200251.0,242385.2,450263.1,197227.3,184208.9,219612.3,194162.1,0.0
193199.2,200167.1,242279.2,450005.0,197122.1,184133.3,219521.8,194030.6,0.0
193214.5,200172.0,242263.3,449867.0,197103.1,184129.5,219507.5,194006.1,0.0
193276.4,200224.3,242320.7,449883.3,197164.3,184172.0,219559.1,194090.6,0.0
193302.2,200251.6,242366.1,449916.2,197226.8,184208.0,219612.3,194175.5,0.0
193282.1,200242.0,242351.7,449817.8,197224.1,184208.4,219615.8,194163.5,0.0
193215.3,200177.0,242256.4,449567.9,197123.5,184141.2,219530.1,194040.2,0.0
193230.6,200178.9,242242.3,449425.6,197103.0,184135.1,219511.2,194015.0,0.0
193286.8,200223.4,242292.3,449433.2,197159.6,184170.1,219555.2,194093.4,0.0
193306.6,200259.5,242333.3,449463.1,197222.0,184205.1,219607.1,194175.0,0.0
193261.9,200236.6,242301.9,449354.8,197211.1,184197.8,219599.8,194153.0,0.0
193201.9,200181.6,242218.4,449122.2,197129.3,184147.2,219532.5,194043.2,0.0
193213.5,200172.8,242194.8,448969.3,197096.4,184130.8,219503.5,194003.7,0.0
193287.8,200234.7,242265.3,449001.3,197173.8,184187.0,219569.6,194102.5,0.0
193315.5,200269.0,242311.4,449039.1,197239.2,184225.9,219624.1,194189.1,0.0
193259.2,200233.0,242263.0,448910.6,197207.0,184197.5,219593.7,194143.7,0.0
193200.9,200179.4,242182.8,448676.3,197124.0,184147.8,219524.5,194033.3,0.0
193226.6,200184.4,242177.3,448540.6,197109.0,184149.9,219514.6,194013.4,0.0
193289.1,200227.9,242231.0,448552.7,197170.6,184191.3,219565.0,194097.8,0.0
193301.0,200252.8,242268.3,448580.7,197228.8,184222.5,219614.7,194177.1,0.0
193275.9,200245.1,242248.8,448482.3,197223.4,184218.3,219611.9,194157.9,0.0
193225.5,200196.2,242172.3,448255.8,197147.4,184172.0,219546.3,194053.9,0.0
193226.7,200183.8,242142.7,448104.9,197114.1,184153.3,219516.1,194015.0,0.0
193284.3,200225.4,242188.9,448116.0,197167.5,184185.6,219557.6,194090.8,0.0
193331.6,200275.5,242251.1,448166.3,197247.5,184235.8,219623.2,194190.3,0.0
193288.7,200254.0,242220.9,448058.7,197231.5,184221.2,219610.1,194163.4,0.0
193221.1,200185.5,242125.6,447813.3,197132.8,184153.2,219527.0,194038.2,0.0
193233.9,200187.5,242107.6,447674.4,197108.3,184145.4,219506.8,194008.1,0.0
193287.4,200230.3,242160.7,447695.7,197167.7,184183.8,219556.1,194091.3,0.0
193318.7,200263.2,242211.5,447737.6,197235.8,184223.4,219615.1,194180.3,0.0
193284.3,200259.4,242192.2,447641.0,197231.4,184219.5,219616.6,194164.3,0.0
193217.9,200195.5,242101.7,447405.3,197140.4,184158.3,219542.4,194047.8,0.0
193221.2,200175.2,242066.9,447246.1,197096.0,184129.0,219499.6,193999.1,0.0
193283.8,200233.7,242133.2,447281.0,197171.5,184184.1,219563.8,194095.8,0.0
193290.0,200250.5,242166.0,447309.9,197227.7,184211.8,219610.6,194169.2,0.0
193268.8,200247.0,242150.5,447219.7,197227.3,184212.6,219615.5,194156.8,0.0
193238.1,200220.1,242096.1,447022.0,197173.2,184186.1,219575.5,194074.7,0.0
193276.7,200241.6,242102.6,446909.2,197173.0,184197.7,219579.6,194068.9,0.0
193334.2,200289.8,242160.2,446934.6,197241.4,184241.1,219634.8,194157.1,0.0
193340.2,200301.6,242188.7,446959.2,197288.8,184258.9,219672.2,194225.8,0.0
193297.2,200277.6,242154.7,446853.9,197266.8,184239.7,219656.2,194193.6,0.0
193235.5,200212.5,242067.3,446621.0,197177.6,184179.8,219580.5,194078.5,0.0
193234.6,200191.3,242030.2,446460.3,197135.0,184149.4,219539.6,194029.3,0.0
193293.2,200236.9,242079.5,446470.6,197189.7,184181.3,219581.8,194105.6,0.0
193311.2,200258.8,242114.7,446499.4,197244.8,184208.9,219624.5,194178.9,0.0
193279.9,200255.8,242100.8,446414.3,197247.5,184213.8,219631.3,194168.8,0.0
193232.2,200211.6,242030.0,446194.4,197172.2,184168.8,219570.9,194066.4,0.0
193222.2,200191.5,241997.3,446044.2,197134.6,184145.5,219539.2,194023.5,0.0
193264.4,200215.8,242033.5,446049.6,197179.2,184169.5,219574.3,194093.0,0.0
193300.0,200263.1,242093.2,446108.8,197259.3,184222.4,219645.2,194194.6,0.0
193268.0,200247.6,242068.4,446011.3,197248.7,184214.6,219637.2,194173.0,0.0
193208.2,200189.5,241983.4,445781.8,197163.2,184160.8,219565.9,194062.1,0.0
193219.1,200186.2,241961.8,445640.2,197136.4,184149.1,219542.5,194026.8,0.0
193287.0,200247.1,242026.4,445670.2,197205.5,184198.9,219601.4,194116.9,0.0
193308.2,200271.5,242068.1,445708.2,197264.8,184230.8,219650.7,194198.1,0.0
193268.7,200249.6,242037.9,445607.9,197249.1,184217.3,219637.9,194171.4,0.0
193193.6,200177.7,241941.4,445370.5,197153.0,184152.9,219555.4,194047.2,0.0
193208.8,200181.6,241925.1,445233.5,197128.3,184144.5,219535.6,194014.8,0.0
193304.3,200263.9,242015.6,445291.0,197223.7,184219.8,219619.7,194131.7,0.0
193316.9,200279.1,242047.6,445317.0,197272.8,184239.4,219657.7,194200.4,0.0
193267.9,200249.7,242010.8,445208.0,197250.9,184215.0,219639.8,194166.6,0.0
193220.9,200209.2,241943.7,445005.2,197188.5,184180.5,219593.5,194076.1,0.0
193241.0,200206.6,241929.0,444874.9,197166.2,184174.8,219578.3,194047.5,0.0
193309.9,200258.5,241990.7,444907.9,197235.3,184221.8,219635.3,194138.6,0.0
193324.2,200274.7,242021.3,444939.9,197286.1,184243.5,219674.5,194211.2,0.0
193285.5,200255.7,241990.8,444839.4,197270.0,184229.0,219661.0,194185.1,0.0
193226.6,200204.7,241911.2,444621.7,197190.8,184178.7,219595.4,194078.7,0.0
193231.6,200191.4,241881.7,444479.0,197156.6,184160.6,219565.8,194036.8,0.0
193291.9,200237.3,241935.0,444504.8,197216.9,184203.2,219617.0,194120.5,0.0
193323.3,200275.9,241984.2,444556.6,197282.7,184242.1,219675.0,194209.3,0.0
193302.9,200263.7,241965.7,444467.1,197272.5,184233.6,219669.6,194191.2,0.0
193246.1,200221.8,241899.6,444260.7,197203.5,184193.9,219614.9,194095.2,0.0
193239.7,200205.6,241866.1,444110.4,197161.9,184171.7,219579.1,194048.6,0.0
193294.4,200239.5,241910.0,444122.0,197210.6,184200.6,219614.8,194120.4,0.0
193329.6,200273.3,241959.7,444169.3,197277.7,184238.0,219667.0,194208.5,0.0
193293.6,200263.7,241939.3,444085.4,197272.8,184234.5,219666.8,194195.4,0.0
193228.7,200203.3,241850.7,443858.5,197183.4,184174.6,219591.1,194079.8,0.0
193216.3,200162.3,241793.0,443673.9,197111.2,184120.6,219519.9,194003.1,0.0
193267.1,200203.8,241843.4,443693.0,197166.1,184157.2,219563.3,194080.5,0.0
193302.6,200258.4,241911.6,443771.1,197256.5,184219.3,219646.0,194193.0,0.0
193269.6,200246.3,241892.1,443693.2,197255.0,184217.5,219649.9,194182.5,0.0
193220.0,200199.0,241813.5,443477.9,197175.6,184165.2,219583.0,194073.5,0.0
193237.2,200195.9,241792.6,443338.8,197143.3,184150.2,219555.4,194034.0,0.0
193311.6,200271.9,241879.9,443405.7,197239.2,184227.8,219643.4,194153.3,0.0
193339.8,200308.8,241931.1,443470.4,197314.0,184275.4,219707.5,194249.3,0.0
193279.7,200264.0,241878.8,443360.6,197276.9,184239.2,219674.1,194203.6,0.0
193210.1,200191.4,241782.7,443127.7,197174.6,184168.9,219585.2,194077.8,0.0
193222.3,200187.8,241764.9,442997.7,197148.1,184162.0,219563.0,194045.8,0.0
193277.4,200235.5,241819.2,443028.8,197208.8,184204.8,219614.5,194127.5,0.0
193312.6,200279.0,241878.3,443093.8,197284.5,184250.7,219683.3,194225.8,0.0
193278.5,200259.1,241850.7,443003.6,197269.0,184234.8,219673.0,194203.1,0.0
193213.9,200197.1,241759.9,442777.2,197178.6,184173.6,219594.5,194085.8,0.0
193218.1,200184.7,241733.5,442639.4,197146.6,184157.2,219566.0,194044.3,0.0
193277.6,200222.6,241787.0,442668.9,197205.5,184196.2,219616.1,194124.8,0.0
193322.1,200269.7,241850.6,442738.1,197284.5,184249.0,219685.9,194226.5,0.0
193287.8,200249.6,241820.2,442641.5,197262.7,184229.2,219667.7,194197.8,0.0
193225.7,200203.4,241744.2,442431.6,197185.4,184180.0,219602.2,194093.8,0.0
193205.4,200172.0,241695.6,442269.0,197128.6,184135.8,219548.0,194029.1,0.0
193262.4,200209.9,241742.0,442287.8,197178.9,184166.6,219588.0,194101.9,0.0
193310.4,200264.8,241811.5,442364.8,197266.0,184226.7,219665.6,194211.0,0.0
193279.2,200252.0,241789.7,442283.5,197261.0,184220.5,219662.8,194194.7,0.0
193229.8,200208.3,241720.7,442078.5,197191.3,184177.8,219606.0,194098.0,0.0
193229.0,200189.5,241685.8,441929.3,197147.8,184150.0,219567.1,194048.3,0.0
193263.6,200209.9,241715.2,441932.7,197182.9,184164.0,219592.0,194106.9,0.0
193288.6,200239.7,241762.0,441984.9,197245.4,184198.3,219645.0,194193.2,0.0
193259.1,200226.0,241740.5,441901.6,197235.6,184189.4,219638.4,194175.5,0.0
193201.2,200177.2,241664.3,441695.1,197161.3,184144.5,219577.9,194073.4,0.0
193208.8,200166.4,241637.0,441556.2,197127.5,184125.6,219547.0,194031.4,0.0
193295.9,200240.6,241720.7,441614.9,197217.8,184194.8,219624.2,194141.8,0.0
193349.1,200296.4,241795.0,441693.7,197307.2,184255.8,219701.1,194250.9,0.0
193328.5,200295.6,241785.8,441627.7,197313.4,184262.5,219710.8,194244.4,0.0
193221.8,200196.8,241660.6,441371.7,197187.2,184167.1,219600.5,194091.2,0.0
193220.1,200177.9,241626.7,441224.3,197142.8,184142.4,219559.8,194039.9,0.0
193295.6,200240.0,241697.9,441269.4,197219.4,184200.4,219621.8,194136.6,0.0
193325.1,200274.0,241742.9,441315.2,197280.2,184234.4,219668.0,194217.7,0.0
193285.7,200256.3,241720.5,441231.9,197272.3,184227.9,219662.8,194200.4,0.0
193218.7,200201.3,241635.7,441015.5,197186.1,184170.4,219592.8,194088.5,0.0
193232.4,200191.5,241611.5,440877.3,197152.2,184151.9,219565.3,194047.2,0.0
193298.7,200237.3,241665.5,440904.4,197211.8,184192.8,219611.4,194127.8,0.0
193316.3,200262.3,241705.1,440957.0,197274.2,184227.7,219659.2,194209.2,0.0
193283.9,200250.6,241685.7,440883.1,197272.7,184224.1,219658.2,194195.4,0.0
193233.0,200204.5,241610.5,440675.8,197197.7,184176.1,219594.2,194091.0,0.0
193246.4,200190.2,241583.5,440533.3,197161.1,184156.1,219560.6,194046.5,0.0
193322.3,200249.3,241656.0,440584.8,197239.9,184217.1,219632.1,194149.4,0.0
193328.3,200258.5,241680.3,440615.4,197281.2,184228.3,219660.8,194211.7,0.0
193280.0,200227.6,241636.4,440508.3,197250.4,184197.9,219628.7,194169.3,0.0
193232.7,200194.4,241575.5,440317.8,197190.0,184170.2,219582.0,194081.3,0.0
193234.0,200185.1,241548.6,440182.1,197157.1,184155.0,219554.1,194038.0,0.0
193291.4,200221.8,241600.8,440208.1,197212.5,184190.8,219599.2,194114.5,0.0
193322.0,200258.6,241652.2,440267.6,197280.3,184231.0,219653.9,194204.6,0.0
193273.4,200226.8,241611.0,440169.8,197255.0,184206.8,219630.0,194169.3,0.0
193204.4,200161.3,241516.2,439943.4,197159.2,184143.0,219547.0,194048.1,0.0
193205.5,200154.4,241490.0,439807.1,197126.1,184125.4,219518.2,194006.4,0.0
193278.7,200209.9,241556.5,439850.0,197198.5,184179.1,219580.3,194102.2,0.0
193343.0,200281.8,241638.3,439941.0,197296.9,184251.2,219669.9,194225.2,0.0
193292.9,200253.8,241602.7,439852.2,197280.3,184232.8,219657.1,194198.0,0.0
193232.5,200201.6,241519.0,439639.6,197199.8,184180.4,219589.5,194087.5,0.0
193238.7,200198.1,241500.8,439511.1,197174.6,184172.9,219570.9,194056.7,0.0
193299.1,200243.3,241553.3,439539.4,197230.5,184211.1,219619.2,194136.5,0.0
193322.4,200271.4,241596.4,439593.5,197293.8,184245.2,219671.9,194219.1,0.0
193280.7,200239.5,241563.9,439504.2,197275.0,184228.0,219657.8,194191.4,0.0
193238.1,200204.2,241502.4,439308.9,197208.9,184190.5,219605.1,194099.2,0.0
193244.6,200198.1,241480.9,439172.1,197175.3,184174.0,219574.4,194057.9,0.0
193282.1,200218.8,241513.8,439180.5,197210.7,184193.5,219601.3,194120.0,0.0
193301.0,200244.6,241555.6,439236.8,197270.7,184225.3,219650.5,194201.4,0.0
193265.7,200219.3,241520.1,439140.4,197244.7,184196.9,219624.7,194166.0,0.0
193221.4,200189.7,241464.8,438956.3,197190.7,184169.3,219583.5,194083.9,0.0
193225.9,200184.3,241443.5,438828.5,197164.2,184158.6,219561.7,194048.4,0.0
193288.7,200231.6,241495.8,438858.1,197220.0,184195.6,219606.9,194124.3,0.0
193312.0,200259.9,241538.7,438915.6,197282.5,184229.5,219657.0,194206.6,0.0
193269.3,200235.1,241505.9,438833.3,197266.2,184214.4,219644.7,194183.0,0.0
193205.7,200178.9,241418.3,438617.2,197178.0,184154.3,219568.9,194068.2,0.0
193223.6,200178.5,241403.9,438491.0,197154.6,184149.2,219549.9,194037.2,0.0
193269.7,200204.9,241442.0,438502.2,197193.5,184172.6,219579.4,194101.0,0.0
193309.9,200253.4,241504.4,438575.9,197272.5,184222.9,219648.2,194204.1,0.0
193326.3,200300.4,241539.8,438563.9,197322.0,184270.4,219702.5,194245.8,0.0
193267.0,200240.3,241457.6,438353.4,197235.9,184213.9,219632.3,194135.7,0.0
193242.5,200193.7,241396.4,438184.3,197169.0,184165.0,219568.7,194062.6,0.0
193277.5,200209.2,241420.5,438184.0,197198.2,184174.8,219587.8,194112.9,0.0
193306.8,200257.3,241478.9,438255.4,197270.2,184221.4,219652.8,194207.1,0.0
193283.1,200255.8,241470.6,438200.0,197279.3,184231.6,219665.3,194204.8,0.0
193218.7,200191.3,241378.4,437979.0,197186.7,184169.2,219584.6,194084.4,0.0
193230.7,200192.7,241361.2,437853.4,197161.4,184161.7,219563.5,194052.1,0.0
193293.5,200242.8,241421.9,437895.4,197227.7,184208.9,219621.4,194142.3,0.0
193322.8,200275.0,241470.0,437957.2,197289.4,184244.0,219675.5,194230.0,0.0
193284.1,200251.2,241441.7,437877.5,197273.2,184228.2,219662.6,194205.9,0.0
193223.2,200194.1,241358.1,437667.2,197187.7,184171.0,219588.3,194090.4,0.0
193231.6,200188.2,241333.7,437533.5,197155.5,184157.3,219559.7,194046.9,0.0
193296.8,200242.4,241398.9,437579.3,197224.8,184209.8,219620.7,194137.8,0.0
193339.2,200288.5,241463.8,437660.1,197304.9,184260.4,219691.1,194241.3,0.0
193276.3,200238.7,241406.3,437549.0,197260.2,184212.8,219646.8,194187.6,0.0
193216.6,200178.9,241322.5,437335.4,197176.0,184157.2,219574.0,194076.6,0.0
193226.6,200177.1,241301.3,437202.6,197143.8,184143.4,219546.4,194035.6,0.0
193284.0,200229.9,241361.3,437242.4,197208.9,184189.8,219602.1,194120.7,0.0
193313.7,200259.1,241406.1,437300.1,197269.3,184219.3,219651.3,194203.3,0.0
193290.4,200258.7,241398.8,437244.0,197277.3,184226.8,219661.6,194201.5,0.0
193243.3,200223.4,241341.8,437061.7,197218.5,184199.0,219620.3,194117.4,0.0
193245.1,200207.5,241312.0,436922.3,197180.2,184176.0,219588.1,194071.6,0.0
193289.7,200230.2,241346.2,436938.3,197219.4,184195.5,219617.4,194133.3,0.0
193317.4,200263.8,241388.8,436994.2,197276.2,184222.5,219665.4,194211.5,0.0
193277.0,200249.7,241364.1,436920.8,197265.1,184210.0,219658.9,194191.3,0.0
193213.2,200195.1,241286.1,436721.2,197186.1,184160.9,219595.5,194086.5,0.0
193231.6,200192.4,241270.0,436592.5,197160.4,184151.0,219574.4,194054.5,0.0
193298.8,200239.7,241326.1,436622.2,197218.3,184191.0,219621.7,194134.6,0.0
193321.4,200276.2,241379.8,436699.2,197295.5,184238.2,219686.9,194231.0,0.0
193267.9,200237.4,241335.2,436606.6,197266.0,184208.6,219660.2,194192.1,0.0
193198.9,200175.0,241244.9,436392.0,197171.6,184143.3,219580.9,194071.8,0.0
193217.7,200173.6,241226.8,436264.0,197143.6,184133.8,219556.8,194034.9,0.0
193312.6,200250.6,241309.4,436323.9,197229.8,184202.4,219633.1,194141.7,0.0
193363.5,200315.1,241392.9,436426.1,197332.9,184275.5,219726.3,194265.7,0.0
193300.0,200271.5,241344.6,436332.8,197302.3,184243.6,219698.8,194224.6,0.0
193221.5,200191.5,241240.7,436103.9,197199.7,184169.3,219607.5,194094.0,0.0
193225.9,200174.0,241209.2,435964.3,197160.6,184147.9,219572.5,194048.0,0.0
193284.0,200219.3,241261.1,435995.7,197217.0,184183.9,219617.3,194125.1,0.0
193308.7,200252.3,241308.3,436061.0,197281.8,184218.7,219671.5,194215.0,0.0
193274.9,200234.8,241285.5,435989.9,197272.4,184208.4,219665.9,194201.1,0.0
193231.7,200195.6,241220.3,435800.0,197204.9,184169.7,219612.3,194105.6,0.0
193248.6,200192.4,241198.8,435668.4,197173.5,184156.4,219584.6,194063.5,0.0
193283.0,200218.5,241233.3,435682.8,197210.9,184178.6,219610.3,194120.5,0.0
193307.3,200250.0,241280.2,435744.9,197273.2,184212.3,219660.3,194204.7,0.0
193275.6,200237.7,241259.1,435676.5,197268.2,184205.7,219656.5,194191.5,0.0
193223.3,200191.9,241187.1,435481.7,197193.6,184159.1,219593.3,194089.4,0.0
193231.8,200186.1,241165.8,435353.4,197161.1,184147.3,219567.3,194049.9,0.0
193292.4,200235.3,241226.7,435397.1,197226.6,184196.0,219624.7,194135.9,0.0
193318.0,200261.7,241269.6,435457.9,197286.2,184226.4,219671.7,194215.0,0.0
193284.3,200241.3,241242.8,435386.2,197273.1,184212.0,219659.8,194192.0,0.0
193229.0,200189.8,241166.9,435189.8,197197.7,184162.6,219595.3,194088.8,0.0
193240.3,200185.2,241143.7,435060.5,197166.4,184150.3,219567.5,194047.7,0.0
193310.2,200238.7,241209.6,435104.9,197233.8,184200.6,219623.9,194138.3,0.0
193328.7,200267.0,241257.3,435174.9,197296.8,184236.1,219676.7,194226.6,0.0
193286.7,200249.1,241233.5,435110.6,197285.4,184225.3,219671.0,194209.0,0.0
193219.9,200189.3,241148.9,434907.1,197197.7,184165.9,219598.6,194093.8,0.0
193216.9,200169.1,241113.3,434765.4,197151.9,184138.8,219558.0,194038.4,0.0
193281.4,200218.7,241170.9,434805.4,197214.9,184182.1,219610.3,194120.3,0.0
193338.8,200282.3,241246.6,434900.9,197305.8,184245.2,219692.8,194236.3,0.0
193320.1,200277.6,241234.4,434841.1,197303.0,184243.0,219693.3,194228.5,0.0
193243.3,200214.5,241146.5,434634.5,197216.3,184185.4,219619.0,194114.2,0.0
193237.4,200193.6,241106.0,434487.8,197168.3,184154.9,219572.6,194055.7,0.0
193296.9,200240.7,241162.2,434526.6,197227.9,184198.8,219621.1,194134.2,0.0
193330.5,200278.7,241215.6,434600.5,197295.6,184240.1,219677.3,194224.7,0.0
193291.6,200256.8,241187.6,434528.5,197281.8,184223.4,219663.8,194200.3,0.0
193222.9,200194.8,241101.0,434321.5,197193.9,184163.9,219587.3,194083.3,0.0
193226.5,200181.3,241075.7,434190.0,197159.2,184149.4,219556.5,194039.8,0.0
193303.2,200246.3,241147.3,434245.3,197236.0,184207.8,219621.2,194138.9,0.0
193329.5,200276.9,241193.4,434313.1,197299.7,184240.8,219672.8,194222.1,0.0
193278.1,200241.1,241150.2,434226.7,197270.3,184209.3,219643.5,194182.5,0.0
193220.8,200186.6,241075.2,434034.3,197194.5,184162.6,219581.7,194081.9,0.0
193224.7,200170.2,241044.1,433896.6,197153.7,184141.0,219545.1,194032.7,0.0
193295.7,200225.5,241107.9,433938.3,197219.2,184188.7,219597.6,194120.0,0.0
193335.4,200273.1,241169.8,434021.1,197296.8,184236.8,219663.6,194218.7,0.0
193289.9,200250.6,241135.9,433947.7,197275.5,184215.7,219647.1,194189.6,0.0
193221.8,200188.8,241048.5,433743.0,197186.8,184157.8,219572.5,194075.2,0.0
193222.9,200173.7,241014.0,433606.6,197145.7,184135.1,219534.6,194024.2,0.0
193300.4,200236.2,241087.9,433667.0,197226.9,184198.0,219606.3,194126.6,0.0
193360.0,200303.3,241167.1,433766.4,197322.2,184263.0,219690.5,194244.2,0.0
193335.1,200292.5,241150.6,433708.4,197318.7,184258.3,219690.7,194235.4,0.0
193234.3,200193.7,241029.9,433470.6,197197.3,184165.7,219582.8,194088.9,0.0
193238.7,200184.6,241004.8,433340.1,197162.1,184148.0,219553.1,194044.8,0.0
193297.0,200232.2,241059.9,433377.3,197222.1,184189.8,219602.7,194126.2,0.0
193322.3,200264.0,241106.9,433450.8,197289.0,184227.1,219657.8,194215.7,0.0
193279.1,200232.1,241076.6,433382.5,197272.3,184211.1,219645.1,194193.0,0.0
193222.8,200185.5,241003.2,433193.3,197200.9,184164.0,219583.2,194090.3,0.0
193238.1,200185.5,240988.9,433073.2,197176.0,184155.7,219560.8,194055.9,0.0
193305.3,200234.1,241050.9,433116.6,197239.8,184199.9,219612.5,194139.1,0.0
193324.7,200256.6,241092.1,433180.3,197296.2,184227.3,219655.4,194215.9,0.0
193296.5,200248.2,241078.6,433132.0,197296.9,184230.1,219659.9,194210.2,0.0
193232.5,200194.7,240996.4,432931.9,197209.5,184173.2,219586.9,194096.4,0.0
193232.1,200185.2,240967.4,432803.7,197170.3,184159.2,219554.9,194049.8,0.0
193276.5,200213.3,241004.0,432826.8,197209.8,184188.0,219588.3,194112.4,0.0
193315.0,200253.6,241054.7,432897.0,197273.7,184223.9,219642.5,194201.9,0.0
193301.6,200264.7,241053.7,432853.5,197285.5,184232.8,219657.9,194207.9,0.0
193253.0,200221.8,240988.1,432669.2,197216.3,184193.0,219602.6,194113.3,0.0
193234.1,200194.7,240942.3,432517.6,197156.6,184153.9,219549.8,194046.5,0.0
193284.8,200230.7,240985.7,432546.4,197203.1,184183.2,219586.6,194116.2,0.0
193313.4,200261.9,241033.4,432620.1,197267.5,184217.5,219639.3,194205.7,0.0
193285.7,200249.8,241015.4,432565.8,197261.1,184212.3,219636.8,194195.3,0.0
193244.8,200216.8,240956.8,432395.2,197201.7,184181.4,219590.2,194109.4,0.0
193250.7,200205.3,240931.5,432271.4,197170.0,184166.4,219563.3,194066.6,0.0
193319.4,200258.3,240991.7,432318.7,197235.5,184215.1,219617.6,194151.9,0.0
193342.8,200295.2,241039.6,432396.7,197299.9,184250.2,219671.0,194240.3,0.0
193301.0,200270.6,241008.8,432331.4,197281.9,184233.3,219656.7,194219.6,0.0
193242.2,200221.3,240935.3,432147.9,197210.2,184189.9,219599.2,194122.2,0.0
193236.0,200202.3,240901.1,432015.3,197168.8,184166.8,219563.8,194070.5,0.0
193284.8,200235.4,240944.4,432045.8,197216.1,184197.1,219601.4,194138.0,0.0
193317.6,200269.3,240994.5,432122.2,197283.2,184236.9,219657.9,194229.7,0.0
193276.6,200242.8,240958.4,432048.2,197260.0,184211.7,219637.0,194200.4,0.0
193211.1,200188.0,240875.3,431854.0,197177.9,184156.8,219566.7,194090.9,0.0
193213.8,200176.4,240846.4,431726.1,197142.0,184139.6,219535.2,194045.9,0.0
193283.0,200228.5,240908.5,431772.6,197208.0,184187.2,219590.2,194132.4,0.0
193335.5,200285.1,240982.8,431872.5,197298.3,184246.9,219670.6,194245.3,0.0
193309.3,200276.9,240972.3,431823.0,197297.3,184244.2,219674.3,194238.5,0.0
193268.2,200245.6,240917.5,431655.8,197240.8,184214.7,219633.3,194156.6,0.0
193247.6,200218.4,240867.5,431508.8,197184.2,184176.1,219582.4,194092.1,0.0
193288.6,200242.9,240902.4,431531.3,197222.7,184197.9,219611.7,194151.5,0.0
193319.7,200275.0,240952.2,431606.7,197286.0,184233.2,219663.4,194239.6,0.0
193283.9,200256.8,240929.7,431549.2,197275.3,184222.3,219656.1,194224.1,0.0
193221.9,200202.3,240851.1,431357.2,197194.7,184168.5,219586.6,194115.8,0.0
193234.7,200193.9,240830.9,431234.6,197165.2,184155.6,219560.8,194076.3,0.0
193304.0,200238.7,240888.9,431276.3,197225.8,184196.8,219609.8,194157.4,0.0
193336.6,200274.2,240942.3,431358.1,197296.5,184237.4,219667.5,194250.0,0.0
193298.9,200255.0,240914.5,431297.3,197281.9,184223.7,219657.0,194231.3,0.0
193239.4,200202.1,240835.4,431104.2,197201.4,184174.8,219589.0,194124.1,0.0
193223.8,200171.9,240789.1,430956.4,197147.8,184140.3,219539.1,194059.6,0.0
193282.8,200213.0,240842.0,430994.1,197204.4,184177.7,219585.3,194134.8,0.0
193317.7,200251.9,240895.0,431076.3,197274.8,184218.4,219645.3,194228.3,0.0
193290.6,200238.0,240876.5,431021.6,197269.4,184210.4,219641.0,194215.4,0.0
193234.1,200186.3,240799.5,430830.3,197190.8,184160.4,219573.0,194109.3,0.0
193237.5,200177.4,240772.4,430699.4,197151.7,184143.8,219538.0,194062.6,0.0
193285.2,200218.7,240822.9,430738.3,197204.5,184182.0,219582.7,194137.4,0.0
193334.1,200269.9,240890.4,430832.7,197286.6,184235.4,219653.5,194244.5,0.0
193295.8,200248.4,240863.9,430771.0,197272.6,184217.5,219640.9,194223.7,0.0
193210.8,200168.8,240760.7,430553.1,197167.1,184138.5,219546.6,194089.9,0.0
193222.6,200167.4,240743.0,430433.1,197141.0,184130.5,219524.0,194051.5,0.0
193284.3,200212.7,240801.1,430476.3,197201.7,184175.5,219574.3,194131.0,0.0
193322.3,200253.7,240857.1,430560.8,197273.8,184219.6,219635.4,194226.8,0.0
193333.8,200284.1,240877.8,430545.8,197307.3,184251.1,219670.3,194253.3,0.0
193286.7,200247.8,240815.8,430372.7,197242.9,184214.4,219618.9,194161.5,0.0
193257.9,200208.1,240761.5,430218.3,197177.8,184172.0,219559.6,194086.8,0.0
193318.6,200249.6,240817.5,430261.2,197237.7,184216.9,219608.8,194164.2,0.0
193354.5,200284.6,240870.3,430343.9,197309.1,184257.1,219666.9,194256.2,0.0
193314.3,200263.9,240842.2,430280.5,197294.3,184242.0,219652.6,194233.5,0.0
193252.3,200207.4,240760.6,430085.9,197211.0,184189.2,219581.8,194122.5,0.0
193254.4,200196.9,240732.4,429956.9,197170.7,184170.7,219549.3,194073.6,0.0
193314.7,200239.6,240783.2,429991.1,197220.9,184205.5,219593.4,194146.9,0.0
193349.0,200279.8,240837.2,430071.2,197288.9,184243.5,219652.1,194238.9,0.0
193312.6,200260.3,240812.2,430013.0,197278.7,184231.1,219644.6,194222.3,0.0
193251.6,200204.7,240732.4,429821.7,197199.0,184179.0,219578.7,194114.7,0.0
193247.0,200189.6,240701.1,429687.1,197157.9,184156.8,219542.7,194061.9,0.0
193307.6,200233.9,240757.9,429729.5,197217.0,184199.0,219589.2,194142.2,0.0
193367.5,200301.0,240838.8,429843.2,197317.5,184269.8,219676.9,194265.8,0.0
193315.6,200273.5,240803.8,429776.9,197296.3,184247.9,219661.0,194239.9,0.0
193240.0,200206.7,240708.9,429566.0,197196.6,184177.4,219576.0,194115.5,0.0
193242.2,200193.5,240679.7,429433.7,197156.6,184157.5,219543.6,194066.0,0.0
193317.3,200260.2,240751.9,429493.7,197231.7,184216.5,219611.7,194160.7,0.0
193343.3,200290.8,240799.0,429571.8,197296.0,184251.9,219663.9,194248.4,0.0
193310.0,200262.5,240771.7,429511.9,197282.2,184237.8,219650.1,194228.2,0.0
193252.2,200215.0,240695.8,429326.8,197203.3,184187.2,219584.5,194119.0,0.0
193251.8,200205.3,240668.6,429199.9,197164.6,184168.4,219553.0,194070.2,0.0
193307.2,200245.7,240719.8,429238.5,197221.1,184207.4,219599.9,194148.2,0.0
193342.6,200284.5,240778.6,429328.1,197298.4,184254.7,219666.4,194249.5,0.0
193323.0,200281.8,240770.6,429286.7,197301.6,184255.3,219673.2,194248.5,0.0
193266.3,200234.8,240696.8,429103.0,197224.1,184205.1,219609.3,194144.0,0.0
193247.7,200201.4,240647.3,428956.6,197166.0,184165.2,219557.5,194076.0,0.0
193303.8,200238.8,240695.7,428990.3,197216.3,184197.3,219599.2,194148.3,0.0
193334.6,200274.2,240746.8,429073.0,197283.0,184232.7,219653.5,194237.2,0.0
193305.9,200260.2,240731.8,429032.7,197285.5,184231.2,219657.1,194232.7,0.0
193244.2,200207.9,240652.1,428845.6,197206.0,184179.5,219592.0,194126.5,0.0
193225.4,200179.6,240602.6,428695.1,197144.8,184142.3,219539.6,194055.7,0.0
193275.4,200216.2,240646.0,428726.5,197190.7,184171.8,219574.3,194120.1,0.0
193344.5,200287.5,240738.4,428852.9,197300.3,184249.7,219671.3,194251.6,0.0
193322.7,200280.7,240728.8,428815.2,197304.3,184250.3,219678.2,194249.5,0.0
193250.0,200211.6,240640.6,428618.1,197216.4,184188.4,219602.2,194132.3,0.0
193249.3,200200.8,240608.2,428485.0,197173.2,184166.0,219565.0,194077.2,0.0
193308.0,200245.8,240662.3,428526.4,197229.5,184206.8,219611.7,194154.0,0.0
193340.7,200283.4,240716.8,428613.2,197302.5,184250.9,219671.3,194250.8,0.0
193314.5,200271.3,240701.1,428571.4,197304.5,184250.2,219673.9,194246.0,0.0
193260.5,200227.7,240633.9,428397.0,197234.9,184207.5,219617.0,194150.3,0.0
193232.4,200185.8,240576.2,428240.4,197165.1,184156.6,219554.8,194072.0,0.0
193281.8,200222.1,240618.8,428268.3,197208.8,184181.8,219588.4,194132.9,0.0
193316.1,200256.3,240672.7,428355.8,197281.6,184223.5,219645.5,194226.3,0.0
193294.9,200243.6,240657.6,428314.5,197280.6,184220.0,219643.2,194220.0,0.0
193258.8,200219.0,240604.7,428153.8,197225.6,184194.8,219600.7,194136.8,0.0
193273.2,200220.0,240588.3,428037.6,197201.7,184189.8,219580.5,194099.5,0.0
193312.1,200244.2,240623.1,428058.3,197240.7,184210.8,219608.1,194157.8,0.0
193344.9,200282.4,240675.6,428142.0,197309.7,184247.3,219664.4,194249.7,0.0
193309.6,200264.0,240651.7,428091.9,197299.8,184236.0,219658.1,194237.6,0.0
193242.5,200199.7,240565.8,427900.8,197214.2,184175.3,219586.0,194125.9,0.0
193243.3,200184.1,240533.7,427767.6,197174.7,184153.3,219549.8,194073.0,0.0
193299.7,200226.2,240583.2,427804.4,197227.3,184188.8,219590.1,194141.0,0.0
193325.4,200257.7,240631.4,427887.3,197293.0,184225.6,219644.1,194230.2,0.0
193302.8,200253.4,240622.4,427854.9,197299.1,184231.0,219652.2,194231.4,0.0
193245.2,200208.0,240548.0,427678.8,197224.4,184184.5,219589.3,194130.5,0.0
193253.5,200204.4,240525.4,427558.0,197191.3,184170.8,219563.9,194086.7,0.0
193312.7,200249.6,240579.5,427597.8,197244.7,184210.2,219609.6,194161.5,0.0
193344.4,200283.4,240631.6,427678.2,197306.8,184245.8,219661.4,194250.3,0.0
193314.8,200273.9,240621.4,427637.7,197307.9,184243.5,219663.9,194246.6,0.0
193237.3,200202.1,240530.2,427439.8,197214.1,184177.8,219585.1,194126.1,0.0
193231.8,200186.8,240493.4,427304.2,197166.0,184150.8,219545.6,194069.1,0.0
193291.9,200231.5,240547.1,427346.6,197221.2,184191.9,219593.4,194142.8,0.0
193340.3,200279.7,240615.0,427449.7,197303.4,184243.9,219662.9,194247.9,0.0
193308.9,200265.8,240599.0,427411.4,197301.6,184239.5,219662.4,194240.7,0.0
193242.8,200203.5,240515.3,427222.6,197218.3,184183.5,219590.2,194128.6,0.0
193240.5,200181.2,240480.3,427086.5,197173.6,184158.4,219549.3,194071.1,0.0
193298.8,200229.3,240531.7,427124.1,197224.3,184194.6,219589.4,194140.5,0.0
193331.3,200264.8,240586.8,427211.3,197292.3,184232.8,219647.4,194233.6,0.0
193293.3,200242.3,240562.6,427163.7,197281.8,184219.6,219638.7,194221.6,0.0
193236.6,200192.5,240489.8,426986.3,197210.3,184176.1,219577.9,194122.5,0.0
193244.0,200180.1,240461.6,426855.7,197172.3,184158.2,219543.0,194070.3,0.0
193297.3,200213.8,240509.9,426892.3,197226.4,184195.7,219585.9,194141.5,0.0
193347.7,200267.9,240580.3,426995.8,197311.8,184249.5,219657.7,194250.2,0.0
193312.1,200249.2,240555.0,426946.2,197297.5,184230.0,219642.6,194230.8,0.0
193253.8,200200.6,240484.0,426773.2,197224.5,184184.6,219581.4,194129.3,0.0
193243.9,200176.1,240445.5,426638.1,197176.7,184159.3,219540.3,194069.8,0.0
193286.3,200203.2,240483.2,426663.2,197216.4,184184.0,219570.0,194125.2,0.0
193329.0,200248.7,240545.4,426758.4,197293.4,184228.6,219632.2,194224.5,0.0
193317.2,200256.5,240547.2,426737.7,197309.9,184241.8,219648.7,194235.7,0.0
193257.7,200208.3,240472.5,426558.3,197236.2,184195.0,219585.3,194131.9,0.0
193255.1,200194.7,240437.6,426426.0,197192.3,184171.1,219547.3,194074.9,0.0
193304.5,200232.1,240478.5,426457.8,197235.6,184198.2,219583.2,194138.1,0.0
193342.9,200271.5,240536.4,426548.9,197308.9,184238.6,219644.3,194234.3,0.0
193349.3,200294.8,240555.8,426542.9,197341.5,184265.7,219677.7,194261.3,0.0
193277.7,200238.3,240474.4,426358.0,197259.3,184211.4,219609.5,194152.3,0.0
193255.3,200204.0,240425.2,426213.4,197200.8,184176.1,219560.3,194083.2,0.0
193316.2,200247.5,240479.2,426257.7,197257.6,184219.8,219610.5,194159.9,0.0
193350.0,200287.6,240534.7,426348.4,197328.5,184262.1,219672.2,194255.8,0.0
193319.6,200270.2,240516.2,426308.4,197323.2,184255.3,219671.1,194248.3,0.0
193245.4,200200.2,240423.8,426114.7,197231.0,184191.3,219593.6,194131.3,0.0
193246.1,200181.4,240386.9,425978.9,197184.7,184164.3,219552.5,194070.6,0.0
193321.5,200236.3,240451.0,426027.3,197248.7,184210.6,219606.2,194152.5,0.0
193360.1,200276.0,240513.3,426118.4,197320.6,184252.4,219665.7,194245.9,0.0
193314.7,200251.4,240485.7,426069.3,197307.9,184233.4,219653.6,194224.9,0.0
193251.4,200193.0,240403.5,425881.5,197224.8,184175.9,219581.1,194114.5,0.0
193252.1,200179.6,240370.9,425750.8,197183.0,184155.2,219543.8,194062.2,0.0
193310.2,200226.7,240420.3,425785.8,197232.6,184191.1,219583.7,194129.8,0.0
193346.3,200273.6,240483.1,425887.2,197311.5,184238.4,219651.1,194230.5,0.0
193317.0,200265.2,240470.5,425855.3,197315.3,184237.6,219654.9,194230.0,0.0
193265.6,200221.2,240404.4,425687.7,197248.0,184198.1,219600.0,194135.0,0.0
193263.3,200209.8,240372.1,425562.3,197205.8,184180.2,219565.3,194079.8,0.0
193301.1,200232.5,240402.0,425583.1,197239.3,184199.0,219588.1,194130.4,0.0
193337.3,200268.6,240456.6,425672.0,197310.0,184238.7,219646.8,194224.8,0.0
193303.2,200250.5,240434.8,425628.1,197301.0,184226.5,219640.0,194212.1,0.0
193249.4,200202.3,240360.2,425451.9,197227.3,184179.8,219577.4,194110.7,0.0
193263.5,200202.5,240340.7,425335.9,197199.0,184172.2,219554.3,194070.2,0.0
193313.4,200242.0,240387.9,425370.3,197245.2,184205.7,219592.2,194136.6,0.0
193352.3,200284.5,240447.2,425462.9,197318.8,184248.9,219651.1,194231.8,0.0
193323.7,200272.4,240431.6,425428.3,197319.3,184246.4,219652.4,194225.7,0.0
193257.7,200209.1,240346.8,425243.0,197234.3,184187.7,219580.6,194115.4,0.0
193257.1,200191.9,240314.3,425114.4,197190.3,184164.5,219544.9,194062.8,0.0
193305.9,200224.5,240359.6,425150.0,197236.3,184195.6,219583.3,194131.1,0.0
193353.6,200274.4,240425.3,425252.4,197316.2,184242.8,219650.4,194236.4,0.0
193322.9,200262.3,240407.0,425219.1,197315.8,184233.2,219650.7,194228.4,0.0
193254.8,200198.0,240321.1,425037.9,197233.6,184175.3,219579.3,194116.4,0.0
193271.2,200203.5,240307.5,424930.6,197209.4,184173.3,219561.2,194080.7,0.0
193324.2,200245.6,240357.8,424969.7,197258.0,184209.5,219600.4,194147.5,0.0
193371.1,200290.5,240426.8,425075.7,197340.5,184265.2,219671.1,194256.3,0.0
193335.8,200274.0,240404.6,425032.5,197328.9,184252.0,219663.4,194243.0,0.0
193268.4,200216.8,240319.5,424848.0,197239.8,184192.2,219589.6,194131.1,0.0
193265.5,200200.7,240285.2,424718.1,197194.0,184169.8,219552.0,194073.9,0.0
193326.8,200247.8,240339.0,424762.1,197250.1,184210.7,219598.5,194147.1,0.0
193357.6,200286.4,240394.0,424853.8,197321.5,184248.9,219655.0,194242.1,0.0
193322.3,200267.7,240374.3,424810.7,197315.3,184237.5,219647.4,194232.9,0.0
193266.1,200219.0,240305.4,424641.5,197245.8,184195.9,219589.5,194136.9,0.0
193264.5,200208.7,240273.8,424517.2,197204.8,184176.7,219553.5,194084.5,0.0
193306.2,200235.8,240303.0,424539.2,197234.8,184191.2,219574.3,194136.2,0.0
193344.2,200275.3,240360.2,424635.0,197306.1,184232.7,219632.7,194232.1,0.0
193313.5,200259.4,240342.6,424600.6,197301.2,184225.1,219630.3,194225.4,0.0
193262.5,200220.1,240277.9,424438.7,197235.9,184186.3,219579.1,194135.5,0.0
193262.5,200206.9,240245.5,424315.4,197192.3,184166.7,219543.1,194081.7,0.0
193313.5,200241.3,240288.9,424355.5,197240.8,184200.2,219580.7,194149.0,0.0
193339.6,200265.5,240336.3,424445.4,197307.3,184233.7,219633.7,194239.4,0.0
193312.1,200258.6,240323.6,424414.8,197308.4,184228.3,219634.0,194233.1,0.0
193243.6,200198.0,240242.2,424239.5,197225.5,184172.1,219564.6,194122.7,0.0
193242.7,200181.5,240209.9,424114.3,197179.4,184148.0,219526.6,194068.0,0.0
193309.8,200237.8,240273.0,424171.7,197245.6,184197.7,219583.2,194151.6,0.0
193362.2,200296.1,240348.5,424292.9,197339.6,184261.4,219662.9,194266.2,0.0
193321.0,200272.5,240323.2,424253.9,197328.8,184246.1,219653.5,194251.0,0.0
193263.3,200230.3,240254.3,424087.5,197261.1,184204.1,219598.7,194153.9,0.0
193259.7,200210.3,240219.8,423955.9,197216.9,184181.8,219560.1,194096.4,0.0
193316.8,200248.8,240266.2,423990.6,197263.4,184214.1,219596.4,194163.0,0.0
193365.5,200306.0,240337.2,424100.8,197347.4,184268.4,219667.0,194272.3,0.0
193336.4,200295.0,240322.9,424073.2,197345.9,184263.2,219667.7,194269.7,0.0
193257.8,200229.9,240233.3,423890.4,197257.6,184201.1,219593.5,194156.6,0.0
193255.3,200212.8,240196.4,423760.2,197211.5,184178.0,219554.0,194100.2,0.0
193300.8,200241.0,240231.1,423788.9,197250.7,184202.8,219584.4,194157.4,0.0
193328.4,200264.3,240276.9,423873.2,197311.0,184232.6,219632.5,194240.8,0.0
193302.0,200260.9,240267.5,423848.2,197314.1,184230.4,219636.5,194241.9,0.0
193245.6,200212.0,240195.3,423680.1,197243.7,184185.3,219577.1,194143.6,0.0
193242.2,200190.2,240158.9,423548.2,197197.3,184159.5,219535.4,194084.6,0.0
193298.7,200229.0,240206.0,423587.1,197244.2,184195.9,219574.1,194151.2,0.0
193341.7,200276.0,240269.7,423695.8,197324.5,184246.3,219643.3,194256.8,0.0
193317.4,200265.7,240257.7,423670.3,197327.4,184245.7,219647.8,194254.9,0.0
193262.5,200217.0,240188.2,423505.6,197256.4,184204.0,219591.7,194158.5,0.0
193252.6,200196.4,240147.5,423370.8,197204.9,184176.2,219547.6,194095.2,0.0
193295.9,200223.7,240182.9,423397.0,197239.9,184199.2,219573.4,194146.2,0.0
193343.6,200274.4,240253.2,423509.3,197323.1,184252.2,219644.2,194253.0,0.0
193307.1,200256.7,240233.3,423477.5,197317.5,184242.0,219640.1,194245.3,0.0
193249.9,200202.9,240156.5,423304.8,197239.9,184191.3,219577.6,194143.1,0.0
193237.5,200175.7,240114.0,423164.7,197184.8,184158.4,219528.7,194076.1,0.0
193287.0,200217.8,240159.1,423202.1,197233.9,184190.5,219565.9,194140.4,0.0
193325.9,200263.6,240221.2,423308.0,197313.9,184237.7,219631.7,194243.2,0.0
193304.7,200258.0,240213.6,423284.8,197320.4,184237.8,219641.6,194248.4,0.0
193256.4,200217.5,240150.7,423125.2,197259.3,184199.3,219591.3,194159.2,0.0
193261.2,200205.6,240125.0,423007.8,197225.9,184186.3,219560.9,194109.6,0.0
193301.7,200229.1,240157.1,423029.7,197258.4,184204.4,219582.6,194158.3,0.0
193331.6,200260.4,240204.5,423117.1,197320.8,184234.6,219633.2,194242.8,0.0
193319.4,200263.2,240203.8,423101.0,197334.0,184242.4,219649.3,194252.4,0.0
193259.5,200211.9,240131.2,422931.6,197261.4,184194.6,219588.6,194152.3,0.0
193254.4,200193.9,240095.4,422801.6,197214.7,184171.3,219549.5,194092.8,0.0
193305.0,200226.0,240138.9,422831.8,197258.0,184200.3,219583.5,194153.9,0.0
193348.8,200271.9,240204.5,422937.8,197337.8,184250.6,219649.8,194257.5,0.0
193324.9,200266.1,240194.4,422916.2,197342.8,184252.5,219655.6,194257.5,0.0
193257.9,200207.1,240113.0,422739.4,197262.9,184198.2,219587.8,194149.4,0.0
193235.7,200169.5,240058.2,422589.3,197196.3,184154.8,219529.6,194070.7,0.0
193290.6,200205.1,240100.7,422617.9,197235.3,184181.0,219562.3,194131.3,0.0
193336.6,200265.0,240179.6,422737.8,197327.8,184244.7,219644.2,194248.7,0.0
193306.7,200253.7,240164.7,422710.3,197325.8,184239.5,219643.9,194244.7,0.0
193238.3,200198.6,240083.5,422534.0,197244.9,184182.3,219575.3,194137.1,0.0
193220.8,200165.3,240033.3,422388.0,197185.2,184143.3,219522.2,194064.7,0.0
193278.9,200206.4,240086.2,422430.0,197238.8,184183.6,219567.8,194136.4,0.0
193312.1,200238.7,240139.0,422521.1,197304.1,184218.3,219620.7,194227.4,0.0
193302.5,200244.6,240143.1,422509.9,197321.1,184231.0,219639.0,194243.9,0.0
193257.6,200211.1,240083.8,422354.2,197260.7,184198.4,219590.4,194158.8,0.0
193239.1,200178.0,240033.9,422211.2,197199.8,184161.7,219536.4,194085.5,0.0
193324.4,200250.2,240109.9,422277.7,197275.0,184224.3,219603.6,194180.4,0.0
193346.5,200279.2,240155.1,422366.1,197334.3,184253.4,219654.1,194266.3,0.0
193288.9,200233.9,240108.6,422304.2,197302.0,184215.1,219623.7,194230.0,0.0
193229.0,200180.6,240032.0,422127.5,197223.7,184161.6,219555.8,194124.1,0.0
193229.8,200178.9,240010.2,422011.2,197190.1,184151.5,219530.3,194077.7,0.0
193304.2,200243.2,240078.6,422069.2,197258.7,184208.2,219591.4,194164.6,0.0
193333.8,200275.6,240130.4,422160.6,197323.8,184243.7,219644.3,194254.1,0.0
193297.7,200251.1,240107.4,422122.0,197313.1,184230.1,219633.0,194242.8,0.0
193238.4,200203.8,240033.5,421954.4,197241.7,184182.9,219573.1,194144.8,0.0
193230.0,200178.3,239990.3,421813.3,197187.0,184148.7,219526.2,194079.8,0.0
193286.9,200211.6,240036.8,421846.7,197231.6,184181.0,219564.0,194146.3,0.0
193347.9,200278.5,240119.6,421973.6,197328.1,184246.3,219649.1,194268.0,0.0
193337.8,200291.8,240126.7,421974.8,197354.0,184266.1,219676.4,194290.8,0.0
193215.8,200178.0,239989.9,421746.0,197216.5,184155.1,219554.3,194127.4,0.0
193198.1,200141.6,239941.9,421601.6,197156.1,184115.9,219501.8,194054.2,0.0
193263.3,200188.1,239994.5,421647.8,197212.0,184155.0,219547.8,194125.0,0.0
193322.3,200250.3,240074.4,421771.9,197306.7,184218.6,219631.5,194242.5,0.0
193317.7,200265.3,240088.9,421773.5,197332.9,184240.3,219663.0,194267.8,0.0
193234.7,200191.1,239994.8,421586.8,197240.3,184173.3,219584.5,194149.9,0.0
193214.7,200159.3,239944.7,421443.0,197180.3,184136.0,219532.0,194077.5,0.0
193290.3,200220.0,240010.4,421499.2,197247.8,184188.4,219590.6,194161.6,0.0
193328.9,200261.0,240068.2,421597.9,197320.1,184228.8,219649.5,194258.0,0.0
193294.8,200245.1,240049.6,421569.3,197315.3,184219.1,219646.2,194250.4,0.0
193244.2,200201.3,239977.2,421401.3,197240.5,184171.0,219583.1,194148.7,0.0
193236.3,200183.3,239942.0,421271.8,197196.1,184149.8,219545.9,194088.3,0.0
193283.1,200213.5,239981.9,421302.3,197239.0,184180.2,219581.9,194147.0,0.0
193324.8,200261.1,240043.4,421405.3,197311.5,184223.8,219642.0,194243.5,0.0
193297.1,200250.5,240032.5,421383.0,197312.5,184220.0,219644.3,194242.7,0.0
193241.6,200205.2,239967.5,421229.7,197250.0,184184.3,219596.3,194155.1,0.0
193231.1,200175.9,239921.1,421090.3,197192.4,184150.8,219546.6,194085.5,0.0
193275.5,200207.1,239957.9,421117.9,197228.9,184176.7,219576.1,194139.6,0.0
193325.3,200255.9,240028.4,421228.4,197312.0,184228.7,219647.7,194247.1,0.0
193315.5,200260.7,240031.1,421214.7,197324.2,184234.5,219660.5,194256.3,0.0
193253.9,200203.4,239956.5,421048.2,197249.6,184188.0,219598.7,194155.6,0.0
193233.7,200161.2,239898.5,420896.1,197180.7,184141.6,219536.4,194072.5,0.0
193308.9,200229.1,239968.3,420958.1,197252.0,184198.2,219596.9,194157.8,0.0
193344.9,200271.2,240027.0,421059.8,197325.7,184239.1,219655.3,194254.4,0.0
193309.6,200249.6,240007.0,421029.7,197320.1,184227.8,219649.3,194247.3,0.0
193254.1,200201.0,239937.5,420867.7,197249.5,184186.7,219592.8,194152.5,0.0
193230.7,200171.1,239882.5,420714.7,197183.4,184142.5,219533.1,194071.0,0.0
193265.4,200190.6,239908.7,420729.0,197213.4,184155.3,219551.5,194115.4,0.0
193316.2,200246.6,239979.3,420845.2,197301.0,184211.9,219626.3,194226.8,0.0
193291.0,200237.2,239970.3,420822.2,197302.5,184207.1,219627.9,194226.2,0.0
193232.0,200188.5,239902.9,420661.8,197235.7,184164.3,219573.8,194133.1,0.0
193229.3,200180.7,239871.2,420535.0,197193.5,184144.8,219540.5,194076.0,0.0
193274.6,200206.6,239904.7,420556.0,197224.6,184164.9,219562.6,194126.6,0.0
193318.4,200252.1,239967.5,420663.0,197303.0,184214.3,219625.7,194229.8,0.0
193294.4,200250.7,239965.5,420654.9,197317.7,184222.7,219638.2,194240.1,0.0
193217.3,200181.3,239873.7,420470.1,197224.9,184154.3,219557.7,194120.2,0.0
193220.9,200168.2,239842.8,420341.5,197181.6,184134.0,219521.7,194062.6,0.0
193281.2,200210.7,239895.3,420381.4,197232.6,184173.6,219561.9,194129.3,0.0
193315.7,200244.0,239949.7,420475.8,197297.3,184207.1,219612.8,194218.3,0.0
193300.4,200245.6,239950.0,420466.7,197312.1,184217.6,219627.0,194232.6,0.0
193250.7,200202.7,239885.3,420311.1,197247.7,184181.3,219574.4,194142.3,0.0
193228.8,200163.1,239827.0,420156.7,197178.2,184136.6,219511.9,194059.1,0.0
193280.7,200196.6,239869.9,420189.4,197219.3,184167.3,219546.7,194119.4,0.0
193332.4,200246.8,239939.6,420302.5,197301.5,184219.1,219614.9,194227.7,0.0
193307.2,200236.0,239927.8,420280.1,197301.3,184213.9,219614.5,194227.6,0.0
193243.0,200183.4,239850.2,420113.8,197224.2,184163.9,219551.0,194125.9,0.0
193220.3,200147.6,239798.6,419968.4,197162.2,184124.3,219497.6,194054.1,0.0
193277.6,200187.0,239847.0,420004.1,197208.2,184159.8,219537.6,194121.7,0.0
193320.8,200240.3,239915.9,420118.1,197290.1,184211.9,219608.5,194227.6,0.0
193291.1,200234.7,239908.3,420107.1,197298.0,184214.0,219618.3,194232.3,0.0
193226.3,200180.4,239832.4,419939.1,197220.2,184161.7,219552.3,194128.8,0.0
193219.9,200164.6,239799.3,419809.8,197175.1,184140.8,219514.8,194070.6,0.0
193284.0,200212.5,239857.1,419857.2,197230.3,184184.7,219563.6,194143.5,0.0
193303.1,200233.7,239894.7,419940.7,197282.3,184205.9,219603.4,194220.6,0.0
193273.7,200223.9,239879.6,419917.9,197280.6,184199.0,219601.7,194215.4,0.0
193227.5,200185.1,239818.4,419764.5,197217.9,184160.9,219551.5,194123.7,0.0
193215.6,200157.9,239771.6,419623.5,197160.8,184126.3,219502.1,194050.3,0.0
193278.5,200203.7,239823.9,419663.8,197210.6,184165.8,219545.4,194118.0,0.0
193310.5,200230.1,239869.2,419748.7,197266.9,184191.4,219589.2,194200.7,0.0
193276.1,200205.9,239846.5,419715.3,197254.5,184171.9,219575.2,194187.9,0.0
193233.2,200184.9,239799.7,419582.8,197210.7,184151.7,219541.7,194115.5,0.0
193230.7,200166.0,239765.1,419453.0,197164.6,184126.2,219501.4,194054.7,0.0
193284.4,200203.1,239810.6,419489.3,197210.8,184159.4,219536.5,194116.4,0.0
193324.2,200246.9,239874.1,419597.7,197288.5,184204.2,219599.5,194218.1,0.0
193293.5,200234.2,239861.8,419581.9,197290.5,184201.2,219603.1,194219.1,0.0
193223.6,200170.5,239776.7,419407.1,197205.1,184143.3,219530.2,194107.1,0.0
193223.2,200159.4,239742.9,419277.4,197158.8,184123.3,219490.7,194045.7,0.0
193290.8,200210.8,239799.0,419320.2,197212.0,184168.0,219537.0,194116.1,0.0
193333.4,200254.3,239863.9,419430.6,197288.2,184214.2,219599.8,194218.6,0.0
193302.3,200241.9,239851.8,419414.1,197288.1,184210.2,219602.6,194219.1,0.0
193243.8,200196.8,239784.1,419257.2,197221.2,184167.1,219546.3,194124.0,0.0
193226.0,200166.2,239736.3,419118.3,197166.1,184131.3,219495.5,194053.2,0.0
193271.4,200190.5,239768.2,419140.0,197197.6,184151.0,219518.1,194101.8,0.0
193324.6,200249.1,239841.7,419259.6,197283.7,184208.9,219593.3,194215.0,0.0
193296.4,200235.3,239832.2,419244.1,197288.7,184207.8,219598.6,194216.6,0.0
193246.3,200191.6,239766.3,419089.1,197223.6,184165.4,219547.3,194123.4,0.0
193233.5,200168.3,239720.8,418947.5,197165.9,184128.9,219498.1,194051.9,0.0
193285.5,200203.2,239760.8,418975.7,197202.4,184155.2,219529.6,194108.7,0.0
193336.4,200250.6,239827.0,419085.3,197280.3,184204.3,219594.7,194214.2,0.0
193295.5,200231.3,239807.5,419063.3,197274.9,184195.3,219589.0,194209.4,0.0
193212.0,200162.2,239716.6,418888.8,197188.8,184134.8,219514.1,194094.3,0.0
193207.4,200144.8,239680.1,418762.7,197144.5,184112.9,219476.9,194033.1,0.0
193266.1,200185.5,239724.6,418802.3,197190.8,184149.0,219515.8,194095.7,0.0
193313.9,200233.5,239789.9,418916.6,197272.8,184199.9,219583.5,194202.2,0.0
193318.5,200250.8,239809.6,418931.5,197303.9,184225.9,219617.1,194233.4,0.0
193257.0,200200.9,239736.7,418771.7,197229.4,184178.5,219554.4,194132.5,0.0
193237.7,200169.7,239685.7,418624.8,197164.6,184141.6,219499.9,194052.9,0.0
193285.0,200201.8,239725.0,418650.3,197199.6,184167.6,219527.6,194104.2,0.0
193331.3,200254.1,239797.8,418769.5,197283.3,184217.4,219598.3,194215.9,0.0
193304.1,200241.5,239787.0,418757.5,197286.3,184212.2,219604.6,194221.8,0.0
193222.8,200170.0,239692.0,418576.3,197193.8,184142.4,219524.2,194103.4,0.0
193215.9,200154.0,239655.5,418446.0,197146.2,184118.8,219484.6,194041.8,0.0
193286.4,200210.7,239718.7,418495.8,197205.1,184169.5,219535.8,194120.5,0.0
193322.5,200251.0,239777.8,418599.8,197274.4,184210.8,219593.2,194216.4,0.0
193286.1,200234.7,239759.4,418581.1,197268.8,184199.8,219589.7,194211.5,0.0
193219.7,200175.3,239677.9,418416.9,197186.9,184144.4,219520.8,194106.2,0.0
193216.5,200160.0,239648.7,418301.2,197146.7,184131.6,219490.3,194055.4,0.0
193281.4,200206.0,239702.0,418348.5,197196.0,184172.0,219533.0,194124.2,0.0
193335.4,200258.6,239771.6,418466.6,197280.0,184223.0,219602.2,194231.7,0.0
193304.4,200246.0,239756.1,418451.5,197280.6,184216.0,219603.0,194231.4,0.0
193236.0,200190.0,239676.2,418287.2,197201.7,184161.1,219536.7,194127.8,0.0
193226.5,200171.6,239637.4,418157.0,197153.3,184133.1,219493.1,194066.0,0.0
193277.4,200202.3,239674.8,418186.3,197189.8,184159.1,219519.0,194121.5,0.0
193315.4,200240.6,239732.6,418293.2,197260.3,184198.8,219576.0,194221.4,0.0
193285.7,200228.8,239719.2,418278.1,197258.8,184192.3,219576.0,194220.4,0.0
193220.5,200172.8,239640.1,418113.0,197178.8,184138.4,219509.9,194112.0,0.0
193205.7,200141.5,239594.3,417973.0,197121.3,184104.4,219459.9,194039.8,0.0
193251.0,200168.2,239629.0,417996.7,197155.6,184127.1,219484.0,194090.8,0.0
193309.8,200229.5,239707.4,418122.7,197246.6,184187.9,219564.4,194209.3,0.0
193305.0,200240.3,239719.0,418130.5,197268.1,184204.0,219590.1,194233.0,0.0
193243.4,200190.2,239647.9,417972.3,197197.2,184156.1,219530.2,194135.0,0.0
193229.0,200170.3,239606.7,417838.9,197144.6,184127.3,219485.7,194067.3,0.0
193289.1,200219.7,239661.0,417883.7,197196.6,184168.6,219530.2,194137.8,0.0
193335.5,200273.3,239731.0,418001.0,197278.6,184217.6,219597.5,194245.2,0.0
193300.2,200251.2,239709.7,417976.8,197270.0,184200.6,219589.0,194237.6,0.0
193229.1,200186.3,239626.5,417808.6,197186.8,184143.3,219520.3,194130.8,0.0
193216.6,200160.6,239586.2,417679.8,197135.2,184117.9,219478.3,194066.6,0.0
193274.7,200207.8,239635.5,417721.3,197180.3,184152.3,219515.2,194129.3,0.0
193333.9,200268.3,239713.6,417850.1,197269.9,184212.0,219593.7,194247.8,0.0
193298.5,200240.9,239689.2,417826.5,197258.2,184195.1,219585.3,194238.8,0.0
193232.5,200181.4,239607.2,417659.3,197177.5,184137.6,219515.4,194133.6,0.0
193222.2,200157.5,239565.7,417525.5,197125.3,184109.0,219468.3,194065.8,0.0
193279.8,200200.8,239613.7,417562.3,197171.4,184146.6,219505.4,194128.0,0.0
193310.4,200230.9,239663.9,417660.2,197234.8,184180.4,219555.0,194217.5,0.0
193279.8,200215.0,239651.0,417648.3,197236.6,184177.0,219558.7,194219.0,0.0
193242.1,200185.3,239598.8,417511.7,197185.2,184151.3,219521.6,194142.1,0.0
193239.2,200168.8,239564.0,417382.6,197137.0,184127.9,219484.1,194080.0,0.0
193275.5,200185.6,239588.7,417395.0,197158.9,184139.8,219499.4,194117.6,0.0
193316.6,200230.1,239651.5,417504.5,197235.9,184185.8,219562.5,194219.1,0.0
193291.5,200225.9,239644.5,417495.8,197245.0,184185.2,219569.4,194226.5,0.0
193243.5,200187.2,239583.8,417347.7,197186.2,184148.3,219522.1,194139.8,0.0
193212.9,200145.5,239524.3,417194.4,197116.0,184101.3,219459.5,194054.4,0.0
193259.8,200176.5,239559.0,417219.3,197151.4,184127.2,219485.0,194106.8,0.0
193310.8,200227.6,239627.1,417333.4,197234.2,184179.6,219552.0,194215.3,0.0
193286.9,200216.6,239615.0,417322.1,197238.2,184178.2,219554.3,194220.6,0.0
193224.4,200171.3,239542.1,417167.3,197168.1,184131.5,219494.1,194123.8,0.0
193212.4,200148.2,239501.1,417034.5,197115.6,184103.3,219448.5,194055.6,0.0
193265.6,200182.2,239539.2,417061.3,197150.0,184129.1,219474.9,194108.2,0.0
193327.6,200242.7,239619.8,417187.6,197240.8,184191.0,219552.2,194226.7,0.0
193294.9,200227.8,239610.4,417176.9,197242.4,184187.7,219554.9,194230.4,0.0
193228.7,200168.2,239537.3,417016.2,197168.5,184141.0,219493.3,194131.2,0.0
193225.2,200152.2,239501.3,416886.0,197124.3,184120.2,219454.8,194068.7,0.0
193267.0,200182.2,239529.9,416904.4,197153.8,184139.4,219475.0,194111.8,0.0
193306.5,200225.4,239591.8,417015.3,197228.9,184186.3,219538.7,194212.5,0.0
193268.9,200197.6,239565.9,416984.1,197212.8,184162.7,219522.7,194197.0,0.0
193205.7,200143.4,239488.8,416821.0,197135.3,184109.3,219458.2,194092.5,0.0
193199.5,200131.9,239458.1,416702.5,197099.3,184096.7,219430.9,194039.2,0.0
193266.3,200175.0,239511.2,416741.2,197149.4,184136.3,219473.9,194104.1,0.0
193334.2,200245.2,239597.9,416872.9,197247.0,184203.4,219559.1,194225.2,0.0
193310.5,200236.9,239589.1,416862.3,197252.1,184201.1,219562.6,194229.3,0.0
193244.2,200183.9,239510.0,416698.5,197174.6,184148.3,219494.9,194124.7,0.0
193234.2,200159.6,239468.2,416563.5,197122.1,184120.5,219449.0,194056.0,0.0
193289.0,200197.1,239513.1,416597.2,197165.5,184154.4,219483.5,194112.5,0.0
193318.4,200227.6,239558.7,416688.0,197219.8,184180.1,219525.5,194193.4,0.0
193305.4,200228.1,239563.3,416690.0,197237.0,184188.6,219539.7,194211.0,0.0
193254.8,200194.3,239508.6,416553.8,197184.5,184158.5,219498.6,194132.9,0.0
193216.5,200146.7,239443.3,416396.7,197106.2,184105.8,219430.1,194041.4,0.0
193252.3,200162.9,239466.4,416405.1,197126.6,184114.7,219441.1,194079.8,0.0
193315.3,200233.3,239557.5,416545.6,197230.7,184185.5,219531.3,194211.0,0.0
193291.0,200227.2,239553.4,416545.6,197241.2,184186.3,219542.4,194223.3,0.0
193218.1,200166.7,239471.9,416384.7,197161.3,184129.9,219476.2,194118.3,0.0
193208.8,200146.9,239432.8,416254.2,197112.5,184105.7,219437.6,194055.1,0.0
193265.1,200186.1,239478.8,416290.3,197157.9,184140.9,219476.2,194116.2,0.0
193310.4,200235.3,239547.1,416409.3,197238.0,184190.9,219544.0,194223.3,0.0
193273.9,200217.0,239527.9,416398.3,197239.3,184180.3,219544.3,194223.0,0.0
193221.4,200176.1,239465.6,416256.4,197182.0,184144.8,219497.2,194136.4,0.0
193226.0,200173.0,239441.2,416141.6,197147.1,184132.3,219471.6,194082.8,0.0
193283.0,200209.3,239490.3,416181.0,197195.1,184169.3,219512.3,194145.5,0.0
193324.4,200245.4,239549.8,416286.8,197266.1,184209.5,219568.5,194242.9,0.0
193310.5,200250.2,239553.9,416291.2,197285.3,184218.3,219583.9,194259.3,0.0
193234.7,200190.5,239472.8,416131.5,197207.6,184166.0,219516.8,194152.5,0.0
193213.3,200156.1,239419.8,415985.9,197142.8,184127.4,219460.5,194070.0,0.0
193268.8,200196.5,239465.2,416020.5,197187.4,184163.4,219500.4,194128.2,0.0
193306.5,200232.6,239520.5,416124.6,197254.7,184200.1,219556.7,194222.7,0.0
193273.4,200220.4,239505.2,416113.9,197252.3,184189.5,219553.7,194221.4,0.0
193226.4,200185.1,239449.0,415980.0,197199.1,184160.6,219512.7,194141.5,0.0
193238.4,200183.0,239430.0,415869.3,197171.5,184158.5,219493.3,194097.5,0.0
193282.3,200201.7,239460.3,415888.0,197199.6,184178.2,219515.7,194145.3,0.0
193332.5,200258.0,239529.3,416005.7,197281.5,184229.4,219584.2,194253.3,0.0
193285.8,200235.3,239505.3,415985.5,197272.1,184212.4,219575.1,194244.3,0.0
193221.5,200185.2,239435.8,415838.9,197206.3,184168.5,219521.7,194153.2,0.0
193203.2,200152.1,239388.5,415704.8,197152.3,184137.3,219477.0,194085.2,0.0
193251.4,200177.8,239421.6,415727.1,197183.2,184157.2,219501.1,194132.6,0.0
193307.4,200227.5,239486.9,415839.8,197261.0,184200.7,219562.9,194233.9,0.0
193267.3,200205.8,239465.9,415824.2,197256.3,184186.3,219555.9,194227.5,0.0
193192.7,200143.5,239383.1,415659.4,197175.0,184130.6,219486.0,194118.3,0.0
193168.8,200110.3,239330.1,415513.4,197112.4,184092.0,219430.3,194039.2,0.0
