EEG 1,EEG 2,EEG 3,EEG 4,EEG 5,EEG 6,EEG 7,EEG 8,TRIG
196114.9,218647.5,712039.4,414742.3,712016.0,178845.3,712530.9,189309.1,0.0
196008.5,218603.5,712041.9,414692.0,712018.5,178785.4,712533.3,189163.7,0.0
196325.1,218861.0,712052.3,414883.2,712029.2,179030.6,712544.1,189429.4,0.0
196633.8,219071.8,712056.9,415033.8,712033.9,179247.4,712548.4,189748.2,0.0
196512.2,218944.8,712047.8,414911.7,712024.3,179134.1,712539.1,189673.4,0.0
196121.0,218646.9,712034.8,414659.1,712011.6,178840.2,712526.4,189298.5,0.0
196016.0,218598.5,712035.3,414610.3,712012.0,178776.2,712527.0,189146.2,0.0
196339.0,218856.6,712045.6,414808.7,712022.2,179020.6,712537.3,189421.1,0.0
196650.7,219068.4,712052.1,414971.2,712028.7,179241.8,712543.6,189748.5,0.0
196525.8,218944.8,712041.5,414853.3,712018.1,179132.6,712533.1,189676.1,0.0
196135.9,218652.9,712028.9,414600.4,712005.3,178844.0,712520.2,189306.9,0.0
196031.2,218606.9,712031.5,414550.1,712007.8,178782.8,712523.4,189162.9,0.0
196350.8,218863.5,712045.8,414743.0,712021.8,179027.7,712537.4,189439.5,0.0
196655.6,219072.7,712051.0,414892.5,712026.8,179241.7,712542.6,189758.5,0.0
196525.1,218944.1,712040.7,414767.8,712016.9,179132.5,712532.7,189683.0,0.0
196140.5,218659.9,712028.9,414521.4,712005.4,178853.8,712521.1,189319.8,0.0
196033.9,218614.4,712032.1,414472.8,712008.8,178796.6,712524.1,189172.7,0.0
196355.3,218871.8,712045.2,414667.6,712021.6,179041.7,712537.0,189446.3,0.0
196668.6,219082.3,712051.4,414824.2,712027.8,179257.9,712543.0,189770.3,0.0
196547.5,218960.2,712043.4,414708.1,712019.9,179145.2,712534.9,189696.8,0.0
196158.4,218668.9,712029.9,414457.3,712006.6,178853.8,712521.6,189324.6,0.0
196043.4,218612.9,712030.3,414399.9,712006.9,178788.0,712522.1,189173.4,0.0
196363.6,218874.4,712043.8,414600.2,712020.3,179038.0,712535.4,189451.1,0.0
196678.7,219089.7,712053.2,414758.1,712030.3,179260.4,712544.9,189778.8,0.0
196545.0,218955.7,712044.6,414628.9,712021.3,179145.3,712536.3,189698.2,0.0
196156.5,218669.5,712035.1,414376.2,712011.2,178864.0,712526.6,189331.6,0.0
196035.5,218611.6,712035.1,414316.3,712011.6,178798.6,712526.6,189177.0,0.0
196346.7,218861.0,712041.5,414506.1,712018.1,179035.2,712532.9,189441.1,0.0
196660.0,219075.4,712046.4,414661.3,712022.8,179251.3,712537.5,189763.2,0.0
196532.5,218949.5,712038.2,414538.9,712014.8,179140.7,712529.8,189687.0,0.0
196139.7,218657.6,712028.2,414286.8,712004.7,178851.4,712519.9,189313.9,0.0
196022.8,218602.5,712025.8,414227.6,712002.2,178779.6,712517.3,189158.4,0.0
196342.0,218854.7,712036.3,414421.1,712012.4,179018.3,712527.9,189431.4,0.0
196665.2,219074.6,712047.2,414588.1,712023.7,179248.6,712538.8,189766.2,0.0
196532.4,218940.4,712037.5,414463.4,712014.1,179136.1,712529.2,189685.6,0.0
196142.5,218650.8,712025.4,414206.5,712002.1,178845.8,712517.4,189311.7,0.0
196033.1,218600.6,712029.9,414148.4,712005.6,178782.4,712521.3,189164.3,0.0
196350.1,218854.3,712039.8,414342.7,712015.7,179030.0,712531.0,189441.2,0.0
196652.2,219057.5,712043.8,414495.1,712019.9,179241.2,712535.3,189759.5,0.0
196521.6,218926.1,712032.8,414370.7,712009.8,179125.5,712524.6,189680.4,0.0
196117.7,218621.1,712018.2,414108.6,711995.3,178826.6,712510.3,189297.2,0.0
196003.3,218569.5,712016.3,414049.5,711993.1,178755.0,712508.2,189137.6,0.0
196318.5,218825.9,712026.8,414242.8,712002.7,178996.4,712518.2,189407.5,0.0
196638.7,219046.3,712035.7,414406.6,712011.4,179225.1,712526.9,189738.1,0.0
196522.2,218931.1,712031.3,414294.5,712007.7,179128.1,712522.8,189673.3,0.0
196148.9,218661.8,712027.3,414062.4,712004.1,178862.8,712518.9,189322.5,0.0
196028.9,218605.3,712029.1,414006.6,712006.0,178793.9,712520.9,189168.1,0.0
196344.0,218860.1,712038.8,414200.3,712015.2,179035.4,712531.0,189440.3,0.0
196657.2,219074.9,712046.3,414359.6,712022.9,179255.5,712538.1,189767.5,0.0
196539.8,218956.9,712038.2,414251.9,712015.1,179154.4,712530.2,189702.0,0.0
196153.9,218670.2,712027.9,414007.2,712004.6,178874.0,712519.4,189334.4,0.0
196036.0,218610.9,712027.2,413947.5,712003.6,178804.0,712518.3,189175.9,0.0
196359.3,218871.8,712043.1,414152.6,712019.5,179054.8,712533.9,189461.0,0.0
196660.6,219071.9,712049.0,414301.1,712025.4,179262.3,712540.2,189776.3,0.0
196529.8,218940.8,712037.3,414171.8,712013.6,179144.9,712528.5,189691.9,0.0
196142.6,218650.8,712025.1,413925.4,712001.1,178860.5,712516.3,189322.3,0.0
196028.9,218597.5,712025.7,413871.7,712001.8,178800.8,712516.9,189170.6,0.0
196343.2,218847.1,712038.0,414068.9,712014.7,179041.3,712529.4,189447.6,0.0
196649.1,219052.3,712041.6,414222.9,712018.3,179252.4,712533.1,189766.7,0.0
196526.1,218931.4,712032.8,414106.1,712008.9,179142.8,712523.9,189688.9,0.0
196137.4,218646.5,712023.1,413860.7,711999.2,178863.9,712514.4,189320.3,0.0
196024.3,218593.6,712021.0,413806.7,711997.5,178796.3,712512.5,189164.3,0.0
196343.2,218852.8,712029.3,414004.9,712006.0,179040.3,712520.7,189435.9,0.0
196652.4,219061.6,712036.3,414157.7,712012.7,179257.1,712527.7,189756.8,0.0
196525.4,218932.8,712029.1,414038.0,712005.8,179146.2,712520.8,189680.9,0.0
196127.0,218634.3,712015.1,413781.6,711991.7,178852.7,712506.4,189302.7,0.0
196001.2,218572.8,712012.4,413719.5,711988.8,178778.1,712503.8,189140.4,0.0
196318.8,218829.9,712022.4,413918.6,711998.3,179020.1,712513.6,189414.3,0.0
196626.6,219035.7,712028.6,414074.0,712004.4,179235.9,712519.6,189736.3,0.0
196494.5,218904.8,712018.9,413948.8,711995.0,179121.5,712510.0,189659.4,0.0
196110.3,218620.0,712011.9,413706.0,711987.8,178843.8,712502.9,189300.7,0.0
196021.4,218591.3,712020.5,413675.7,711996.4,178804.7,712511.9,189173.5,0.0
196342.7,218849.0,712031.5,413872.4,712007.5,179050.7,712522.9,189444.5,0.0
196642.0,219048.5,712033.2,414020.8,712009.1,179254.8,712524.8,189752.4,0.0
196497.1,218907.3,712021.1,413895.0,711996.7,179134.6,712512.3,189668.4,0.0
196108.1,218617.8,712010.8,413650.2,711986.8,178849.5,712501.8,189300.7,0.0
195994.6,218563.3,712011.4,413600.4,711987.5,178785.4,712502.6,189148.6,0.0
196313.1,218819.2,712023.9,413794.1,712000.0,179031.8,712514.9,189426.0,0.0
196612.3,219019.7,712029.5,413940.1,712005.6,179236.5,712520.6,189739.5,0.0
196479.5,218889.4,712020.1,413815.2,711996.0,179121.8,712511.0,189661.3,0.0
196080.1,218594.3,712007.4,413561.3,711983.5,178830.7,712498.4,189289.3,0.0
195970.3,218543.6,712010.9,413505.6,711986.6,178765.3,712501.9,189139.9,0.0
196285.8,218794.9,712022.8,413700.4,711999.1,179007.3,712513.9,189415.3,0.0
196569.4,218982.0,712020.6,413837.1,711996.9,179204.1,712511.8,189714.7,0.0
196448.0,218863.5,712011.2,413722.6,711987.3,179099.3,712502.4,189643.3,0.0
196050.1,218566.3,711999.8,413469.0,711975.9,178807.6,712490.9,189271.2,0.0
195933.1,218507.8,712001.1,413419.3,711977.3,178738.2,712491.8,189121.3,0.0
196263.8,218773.2,712016.1,413624.8,711992.1,178989.5,712506.9,189404.1,0.0
196565.6,218975.4,712021.1,413773.8,711997.3,179197.2,712511.9,189719.9,0.0
196431.0,218839.8,712011.6,413649.8,711987.9,179084.1,712502.5,189643.2,0.0
196040.5,218551.7,712000.9,413402.7,711977.3,178802.7,712491.9,189276.3,0.0
195920.9,218493.8,711998.1,413339.3,711974.4,178723.5,712488.9,189111.2,0.0
196246.9,218758.0,712010.1,413543.2,711986.5,178975.0,712501.1,189390.8,0.0
196560.0,218970.5,712019.3,413705.9,711995.6,179198.1,712510.3,189717.8,0.0
196427.1,218837.3,712009.6,413583.8,711985.9,179085.5,712500.6,189639.2,0.0
196041.0,218548.6,711999.3,413336.9,711975.4,178800.9,712489.9,189269.1,0.0
195922.3,218488.8,711999.3,413283.0,711975.4,178730.7,712489.9,189114.0,0.0
196231.0,218735.7,712007.3,413472.0,711983.6,178965.6,712498.0,189377.5,0.0
196538.4,218945.5,712013.7,413627.3,711989.8,179180.6,712503.9,189696.8,0.0
196417.4,218824.8,712006.2,413511.8,711982.1,179071.8,712496.8,189624.3,0.0
196023.1,218530.9,711993.8,413259.5,711969.6,178781.7,712484.8,189251.5,0.0
195915.9,218487.2,711996.8,413213.1,711972.5,178723.9,712487.6,189106.6,0.0
196239.9,218750.2,712010.5,413417.1,711986.4,178976.2,712501.3,189387.1,0.0
196557.0,218966.4,712019.8,413583.4,711995.6,179206.1,712510.5,189719.1,0.0
196423.7,218833.8,712012.3,413459.2,711988.3,179088.6,712503.6,189640.5,0.0
196036.1,218545.7,711999.5,413207.4,711975.4,178795.6,712490.3,189265.9,0.0
195922.2,218491.6,711998.7,413155.8,711974.7,178725.9,712489.0,189110.0,0.0
196235.3,218743.0,712008.1,413352.4,711984.8,178968.5,712499.4,189380.9,0.0
196547.8,218955.8,712014.3,413517.1,711990.8,179190.5,712505.3,189709.4,0.0
196425.9,218836.9,712009.4,413405.5,711985.7,179090.3,712500.3,189639.9,0.0
196039.6,218553.1,711999.0,413161.6,711975.9,178811.3,712490.4,189274.4,0.0
195923.3,218498.5,711998.7,413106.7,711975.4,178742.5,712489.5,189120.8,0.0
196237.8,218751.1,712009.4,413299.7,711985.9,178981.6,712500.4,189390.0,0.0
196537.8,218953.4,712014.9,413447.7,711990.9,179190.5,712505.9,189703.1,0.0
196400.6,218812.3,712005.4,413323.0,711981.1,179072.0,712496.3,189622.6,0.0
196013.1,218521.7,711994.8,413081.7,711971.1,178786.7,712485.4,189252.5,0.0
195912.4,218483.7,711998.5,413039.3,711975.1,178729.2,712489.4,189107.3,0.0
196239.1,218752.3,712011.2,413245.4,711987.6,178987.5,712502.7,189392.7,0.0
196546.8,218960.0,712017.2,413399.9,711993.7,179206.1,712508.2,189713.5,0.0
196419.5,218829.0,712011.8,413280.0,711988.1,179095.1,712502.7,189637.3,0.0
196021.0,218528.5,711999.3,413027.4,711975.3,178798.2,712490.1,189261.2,0.0
195907.8,218474.1,712000.6,412980.8,711976.8,178732.4,712491.7,189110.5,0.0
196231.0,218734.8,712009.4,413180.6,711985.7,178980.2,712501.3,189385.8,0.0
196543.5,218947.3,712015.1,413339.8,711991.5,179197.7,712506.9,189705.7,0.0
196415.0,218819.8,712005.4,413224.1,711981.4,179083.3,712496.3,189626.2,0.0
196024.3,218528.0,711993.9,412980.3,711970.1,178794.7,712485.3,189254.1,0.0
195914.3,218479.3,711992.8,412934.6,711968.9,178731.6,712483.7,189103.2,0.0
196241.7,218747.0,712005.3,413139.2,711981.1,178986.6,712496.3,189381.7,0.0
196541.4,218944.6,712006.0,413288.5,711982.1,179193.0,712497.8,189691.3,0.0
196407.8,218812.4,711994.1,413164.5,711970.3,179076.3,712485.7,189609.2,0.0
196028.3,218534.2,711988.5,412927.3,711964.4,178804.0,712480.1,189254.3,0.0
195923.2,218488.5,711991.3,412883.9,711967.6,178746.4,712482.8,189110.6,0.0
196242.3,218742.5,712004.8,413083.3,711980.9,178990.5,712495.9,189386.7,0.0
196550.4,218950.0,712011.9,413239.3,711987.7,179211.1,712502.9,189709.1,0.0
196424.6,218826.6,712004.9,413127.8,711980.6,179107.8,712496.1,189638.6,0.0
196041.6,218547.3,711995.6,412886.7,711971.1,178826.5,712486.4,189274.7,0.0
195930.2,218494.9,711996.2,412836.2,711971.8,178760.4,712486.8,189123.1,0.0
196241.1,218743.2,712005.2,413029.4,711981.6,178999.8,712496.7,189389.7,0.0
196547.1,218955.1,712009.4,413186.2,711985.6,179218.6,712500.6,189709.7,0.0
196424.3,218836.5,712002.9,413074.8,711978.6,179117.4,712493.7,189640.7,0.0
196032.6,218541.6,711992.3,412829.7,711967.8,178831.8,712483.0,189269.2,0.0
195922.5,218488.8,711993.6,412780.8,711969.2,178766.8,712484.1,189121.0,0.0
196245.0,218748.2,712004.8,412981.0,711980.8,179015.3,712495.9,189397.2,0.0
196555.3,218956.7,712011.4,413142.4,711987.5,179233.1,712502.2,189718.2,0.0
196430.1,218830.6,712004.1,413030.4,711979.9,179123.0,712494.9,189643.5,0.0
196037.0,218536.4,711991.4,412780.9,711967.3,178833.3,712482.1,189271.4,0.0
195925.6,218482.5,711991.2,412729.8,711967.4,178768.5,712482.3,189123.3,0.0
196233.9,218730.1,712000.9,412919.3,711976.9,179004.6,712491.5,189389.6,0.0
196548.2,218947.8,712010.0,413082.9,711986.1,179227.7,712500.9,189715.0,0.0
196427.0,218828.6,712005.8,412971.5,711981.9,179121.7,712496.8,189645.9,0.0
196032.0,218534.2,711991.3,412716.8,711967.2,178826.8,712482.1,189271.5,0.0
195917.5,218479.1,711992.1,412666.4,711968.3,178757.2,712483.3,189119.8,0.0
196233.5,218735.6,712000.6,412867.0,711976.3,179001.0,712491.4,189388.0,0.0
196543.8,218947.5,712007.3,413024.4,711983.0,179216.4,712497.9,189709.1,0.0
196422.6,218825.3,712002.5,412911.4,711978.8,179112.0,712493.6,189646.3,0.0
196028.2,218528.2,711989.1,412658.5,711965.3,178815.0,712480.3,189270.3,0.0
195922.3,218478.3,711991.3,412612.4,711967.3,178751.9,712482.3,189120.7,0.0
196242.0,218736.1,712003.4,412810.6,711979.6,178999.1,712494.3,189397.2,0.0
196540.1,218939.3,712005.4,412960.0,711981.7,179209.5,712496.9,189713.1,0.0
196406.7,218810.3,711996.1,412842.8,711972.0,179093.9,712487.2,189633.4,0.0
196027.0,218526.7,711988.8,412602.8,711964.5,178816.0,712479.4,189271.5,0.0
195917.0,218474.7,711991.7,412552.6,711967.4,178753.5,712482.8,189123.2,0.0
196238.8,218734.7,712003.1,412756.0,711978.9,179000.9,712494.0,189402.4,0.0
196542.4,218937.0,712007.3,412909.8,711983.4,179212.3,712498.4,189719.5,0.0
196411.8,218806.6,712000.3,412789.0,711976.1,179099.4,712491.5,189642.6,0.0
196022.5,218516.8,711989.8,412542.4,711965.6,178815.8,712480.6,189273.8,0.0
195913.6,218465.8,711993.2,412496.4,711969.4,178753.3,712483.9,189124.7,0.0
196234.1,218724.4,712006.9,412700.7,711983.6,179003.1,712498.0,189404.0,0.0
196531.9,218927.7,712008.9,412852.5,711985.6,179214.6,712500.6,189716.1,0.0
196402.8,218799.5,712000.6,412731.6,711977.1,179104.9,712492.0,189635.8,0.0
196012.2,218512.2,711988.4,412484.5,711964.9,178816.7,712479.6,189263.5,0.0
195900.7,218464.0,711989.1,412438.1,711965.3,178752.7,712480.1,189115.1,0.0
196224.1,218724.8,712002.3,412645.0,711978.3,179006.5,712493.0,189395.8,0.0
196522.8,218926.4,712004.7,412793.5,711980.6,179212.2,712496.1,189706.3,0.0
196394.5,218801.1,711996.8,412678.4,711972.8,179104.9,712488.2,189630.7,0.0
196010.6,218514.2,711989.8,412436.5,711965.4,178822.7,712480.7,189269.5,0.0
195901.3,218463.0,711992.1,412386.4,711968.0,178757.3,712482.8,189121.4,0.0
196222.5,218721.5,712005.6,412586.8,711981.4,179006.3,712496.5,189397.2,0.0
196524.5,218927.7,712011.6,412738.8,711987.5,179216.9,712502.5,189713.7,0.0
196381.1,218786.0,711997.1,412609.8,711972.9,179088.5,712488.1,189620.5,0.0
195987.1,218489.6,711984.9,412365.7,711960.7,178800.5,712476.1,189248.0,0.0
195882.0,218446.2,711989.9,412319.8,711965.3,178743.2,712480.5,189107.2,0.0
196190.4,218692.3,711997.9,412507.6,711973.8,178976.1,712488.7,189370.4,0.0
196494.3,218896.3,712002.3,412662.1,711978.2,179188.2,712493.1,189687.3,0.0
196361.5,218764.0,711992.7,412541.4,711968.4,179072.0,712483.5,189607.2,0.0
195983.1,218488.7,711986.1,412308.0,711962.2,178795.8,712477.2,189247.3,0.0
195875.1,218437.2,711989.9,412261.5,711966.1,178731.4,712481.0,189102.6,0.0
196191.9,218690.8,712000.2,412457.9,711976.3,178972.3,712491.3,189376.5,0.0
196502.2,218901.3,712007.1,412618.9,711983.4,179192.6,712497.8,189699.7,0.0
196376.9,218776.9,712002.9,412507.0,711979.1,179090.0,712493.6,189633.9,0.0
195993.8,218492.7,711992.3,412264.8,711968.3,178810.7,712482.8,189272.9,0.0
195876.4,218433.1,711990.3,412206.7,711966.3,178732.6,712480.8,189109.9,0.0
196195.2,218689.1,712002.3,412403.0,711978.4,178974.7,712493.2,189381.2,0.0
196484.6,218883.2,712002.6,412546.0,711978.4,179175.9,712493.2,189684.3,0.0
196345.6,218748.0,711990.4,412428.3,711966.3,179062.6,712481.4,189601.5,0.0
195968.8,218471.7,711983.5,412188.0,711959.7,178787.0,712474.4,189245.1,0.0
195871.8,218432.8,711990.4,412147.3,711966.1,178731.6,712480.8,189108.8,0.0
196194.9,218696.2,712001.8,412354.7,711977.8,178983.2,712492.6,189388.9,0.0
196491.7,218896.7,712004.9,412506.0,711981.1,179198.3,712496.1,189706.3,0.0
196357.1,218758.9,711996.0,412380.9,711971.9,179078.2,712486.6,189623.2,0.0
195969.1,218467.1,711986.3,412128.5,711962.4,178783.4,712476.8,189248.8,0.0
195852.0,218408.2,711983.8,412072.8,711959.9,178710.5,712474.9,189089.9,0.0
196174.4,218668.3,711994.4,412276.7,711970.4,178962.8,712485.7,189370.3,0.0
196476.7,218869.7,712001.6,412436.3,711977.6,179183.0,712492.1,189691.8,0.0
196342.9,218738.6,711991.3,412317.2,711967.1,179068.7,712481.8,189611.6,0.0
195956.0,218455.0,711979.2,412073.1,711955.5,178785.6,712470.1,189240.2,0.0
195843.0,218399.3,711979.3,412021.8,711955.4,178719.9,712470.2,189088.0,0.0
196165.7,218657.9,711991.9,412223.0,711967.6,178965.4,712482.8,189365.5,0.0
196481.8,218876.2,712001.7,412391.4,711977.9,179188.5,712492.6,189694.3,0.0
196345.8,218739.0,711992.4,412268.7,711968.2,179067.3,712483.3,189609.1,0.0
195950.4,218444.0,711980.1,412019.7,711955.7,178772.7,712470.6,189230.6,0.0
195849.0,218402.1,711980.1,411981.3,711955.9,178712.0,712471.0,189081.8,0.0
196172.7,218663.1,711991.8,412188.8,711967.4,178963.4,712482.8,189360.5,0.0
196468.5,218862.5,711996.9,412336.8,711972.6,179173.9,712488.0,189673.3,0.0
196344.8,218742.1,711990.2,412218.5,711966.3,179066.1,712481.4,189598.9,0.0
195957.7,218455.0,711981.3,411974.0,711957.8,178782.4,712472.5,189233.3,0.0
195846.3,218403.7,711982.6,411925.1,711959.0,178715.1,712473.7,189084.3,0.0
196166.8,218660.3,711994.6,412125.0,711970.7,178962.2,712485.4,189358.5,0.0
196472.6,218866.0,711999.3,412281.2,711975.3,179177.5,712490.1,189675.8,0.0
196339.4,218735.3,711991.3,412166.0,711967.6,179063.9,712482.4,189595.7,0.0
195950.5,218444.8,711978.8,411924.4,711955.3,178775.6,712470.0,189222.8,0.0
195840.1,218394.7,711976.1,411876.0,711952.3,178706.9,712467.3,189066.4,0.0
196166.3,218658.5,711990.0,412083.8,711965.9,178956.8,712481.0,189346.4,0.0
196473.5,218866.6,711996.6,412241.9,711972.6,179172.3,712487.8,189663.0,0.0
196337.5,218734.5,711987.6,412123.0,711963.4,179060.6,712478.4,189579.5,0.0
195949.3,218445.7,711977.9,411882.8,711954.3,178775.8,712469.1,189214.0,0.0
195838.2,218393.9,711978.4,411835.7,711954.9,178709.0,712469.8,189065.2,0.0
196152.8,218644.2,711988.4,412031.9,711964.6,178948.8,712479.3,189331.6,0.0
196450.4,218845.0,711991.3,412185.7,711967.4,179156.9,712482.1,189642.0,0.0
196323.7,218720.7,711983.8,412074.6,711959.9,179048.3,712474.8,189569.5,0.0
195943.0,218438.2,711977.1,411838.2,711953.2,178773.1,712467.7,189208.6,0.0
195838.5,218394.5,711979.6,411796.8,711955.3,178714.1,712470.4,189059.0,0.0
196165.5,218663.9,711994.2,412004.1,711970.0,178974.8,712484.9,189347.7,0.0
196469.9,218875.8,712000.9,412163.3,711977.1,179193.9,712491.6,189669.5,0.0
196340.3,218746.1,711992.3,412046.7,711968.6,179079.4,712482.9,189591.7,0.0
195956.0,218458.5,711982.4,411803.2,711958.8,178795.0,712472.9,189222.4,0.0
195850.1,218404.9,711985.0,411757.1,711961.3,178727.2,712475.4,189071.1,0.0
196163.0,218649.5,711994.3,411953.3,711970.4,178960.2,712484.6,189334.8,0.0
196465.9,218850.5,711996.7,412111.5,711972.8,179166.3,712487.0,189644.7,0.0
196328.6,218715.5,711983.2,411991.6,711959.1,179044.5,712473.6,189553.4,0.0
195952.5,218441.0,711972.8,411757.1,711949.3,178770.1,712463.6,189194.6,0.0
195853.0,218400.5,711979.1,411722.0,711955.6,178718.2,712470.4,189056.8,0.0
196172.2,218660.5,711993.1,411926.7,711969.4,178967.4,712484.3,189335.0,0.0
196478.8,218870.7,712001.6,412085.5,711977.8,179188.0,712492.6,189656.6,0.0
196347.2,218738.5,711992.1,411964.9,711968.1,179073.6,712482.8,189574.6,0.0
195967.8,218457.4,711982.9,411725.5,711958.4,178794.0,712473.1,189209.6,0.0
195853.7,218401.9,711982.1,411673.9,711957.9,178723.1,712472.5,189056.3,0.0
196168.0,218651.9,711990.6,411872.5,711966.7,178961.8,712481.0,189326.7,0.0
196482.2,218864.5,711997.9,412037.1,711973.8,179186.7,712488.4,189655.4,0.0
196361.3,218743.8,711995.4,411927.5,711971.5,179084.3,712486.1,189590.0,0.0
195961.6,218446.4,711984.2,411676.5,711960.4,178792.2,712474.9,189214.0,0.0
195848.0,218393.0,711984.6,411630.3,711960.4,178722.4,712475.2,189063.1,0.0
196161.0,218644.2,711992.1,411826.1,711967.9,178961.8,712482.4,189332.3,0.0
196461.8,218847.4,711994.1,411978.3,711970.1,179172.0,712484.4,189644.9,0.0
196337.2,218724.8,711989.8,411869.2,711965.8,179069.1,712480.1,189572.2,0.0
195947.7,218435.5,711979.4,411630.5,711955.3,178786.1,712469.7,189206.1,0.0
195834.0,218380.0,711978.9,411580.5,711954.9,178716.3,712469.4,189054.3,0.0
196157.7,218643.6,711991.4,411780.3,711967.1,178968.7,712482.1,189336.5,0.0
196456.5,218845.0,711994.8,411932.1,711970.3,179176.6,712485.4,189650.6,0.0
196325.3,218714.0,711986.4,411812.8,711961.7,179062.6,712476.6,189567.3,0.0
195940.5,218426.3,711977.1,411570.7,711952.6,178777.8,712467.8,189198.0,0.0
195835.8,218375.8,711978.8,411530.6,711954.4,178717.3,712469.8,189053.2,0.0
196158.4,218634.0,711989.2,411742.2,711965.4,178968.9,712480.3,189334.6,0.0
196461.9,218837.8,711993.7,411900.5,711969.8,179179.5,712484.7,189651.4,0.0
196335.9,218716.6,711987.1,411788.5,711963.2,179070.0,712477.8,189577.8,0.0
195951.0,218432.3,711977.8,411551.6,711954.1,178786.5,712468.5,189213.0,0.0
195843.9,218382.7,711980.1,411508.0,711955.9,178722.9,712470.8,189061.6,0.0
196173.2,218649.1,711991.9,411720.2,711967.8,178975.9,712482.6,189342.0,0.0
196474.9,218851.1,711996.1,411875.3,711972.1,179191.2,712486.6,189654.4,0.0
196338.5,218717.2,711990.1,411755.9,711966.1,179076.9,712480.6,189574.1,0.0
195948.8,218432.3,711979.8,411503.5,711956.0,178793.8,712470.6,189209.0,0.0
195848.3,218390.6,711985.3,411455.8,711961.0,178741.7,712475.8,189072.8,0.0
196170.9,218646.4,711996.9,411659.2,711972.9,178988.8,712487.4,189351.0,0.0
196474.4,218845.9,712000.9,411821.6,711977.1,179194.0,712492.1,189665.6,0.0
196344.2,218714.6,711990.9,411710.1,711967.1,179072.5,712481.8,189579.7,0.0
195954.9,218424.2,711981.1,411464.9,711957.1,178788.8,712472.0,189209.4,0.0
195839.9,218364.3,711979.8,411416.3,711955.7,178718.0,712470.3,189054.5,0.0
196154.2,218617.1,711989.6,411609.4,711965.1,178960.4,712480.1,189327.8,0.0
196458.4,218829.6,711995.4,411767.3,711971.1,179172.8,712486.0,189643.3,0.0
196329.0,218704.2,711986.8,411651.3,711962.4,179057.2,712477.3,189562.3,0.0
195946.6,218422.2,711977.9,411410.7,711953.2,178781.7,712468.4,189198.5,0.0
195830.7,218369.3,711974.9,411356.0,711950.1,178714.1,712465.4,189041.0,0.0
196142.6,218623.9,711985.6,411546.6,711960.9,178963.3,712476.0,189317.7,0.0
196454.4,218836.0,711993.2,411705.8,711968.2,179183.1,712483.7,189644.8,0.0
196325.8,218710.0,711986.8,411589.3,711962.0,179077.2,712477.4,189574.9,0.0
195936.0,218423.2,711975.9,411341.3,711951.3,178792.0,712466.6,189206.5,0.0
195830.8,218376.9,711977.1,411295.2,711952.6,178728.2,712467.7,189057.4,0.0
196155.3,218640.8,711990.2,411503.7,711965.9,178978.7,712480.5,189339.3,0.0
196462.1,218845.3,711995.8,411663.8,711971.5,179190.5,712486.5,189657.9,0.0
196320.2,218700.0,711985.2,411535.2,711961.4,179064.9,712476.0,189574.0,0.0
195933.9,218408.6,711975.8,411298.3,711951.8,178778.0,712466.6,189207.9,0.0
195809.3,218347.4,711974.1,411239.6,711950.1,178704.8,712465.1,189049.6,0.0
196133.7,218610.0,711989.8,411444.5,711965.6,178958.0,712480.8,189331.0,0.0
196433.1,218811.2,711993.4,411602.1,711969.4,179170.6,712484.5,189648.3,0.0
196313.9,218697.6,711989.3,411496.1,711964.8,179074.5,712479.5,189584.5,0.0
195935.8,218419.6,711983.1,411256.4,711958.6,178798.9,712473.8,189225.3,0.0
195822.0,218366.2,711984.3,411209.2,711959.9,178732.8,712475.4,189075.7,0.0
196135.2,218612.0,711993.3,411405.6,711969.0,178966.4,712483.8,189345.5,0.0
196451.5,218827.5,712001.1,411569.8,711976.6,179189.2,712491.9,189675.2,0.0
196311.8,218691.4,711992.3,411441.7,711967.9,179072.3,712482.9,189593.2,0.0
195924.0,218404.5,711982.1,411199.3,711957.8,178787.2,712472.7,189225.0,0.0
195814.0,218351.4,711981.1,411151.5,711957.1,178719.9,712471.8,189077.1,0.0
196134.0,218611.2,711992.7,411355.6,711968.4,178968.8,712482.8,189355.8,0.0
196428.3,218807.1,711996.4,411507.0,711971.9,179176.2,712486.8,189667.6,0.0
196284.0,218667.5,711981.7,411382.1,711957.4,179052.5,712472.4,189574.0,0.0
195896.0,218382.9,711970.9,411139.5,711946.8,178769.9,712461.4,189203.7,0.0
195798.5,218339.9,711975.3,411099.9,711951.3,178715.9,712466.2,189069.7,0.0
196125.3,218603.6,711989.6,411310.6,711965.1,178967.8,712480.5,189355.9,0.0
196429.0,218809.4,711997.0,411463.0,711972.9,179180.0,712487.8,189675.0,0.0
196289.8,218670.7,711987.9,411339.1,711963.8,179058.8,712478.5,189589.8,0.0
195912.5,218392.8,711979.9,411106.1,711955.7,178785.4,712470.5,189230.9,0.0
195800.9,218340.3,711980.6,411058.9,711956.2,178720.1,712471.8,189082.3,0.0
196119.0,218593.9,711990.6,411258.2,711966.2,178963.1,712481.4,189359.6,0.0
196425.6,218800.3,711997.3,411420.5,711972.6,179181.0,712488.0,189680.4,0.0
196289.1,218667.6,711989.8,411298.8,711965.7,179070.5,712480.7,189600.1,0.0
195895.5,218375.8,711979.9,411047.6,711955.8,178783.6,712470.8,189229.9,0.0
195782.7,218320.0,711981.1,410999.5,711956.6,178715.5,712471.8,189078.1,0.0
196097.7,218571.3,711990.2,411201.3,711965.3,178956.5,712480.8,189352.5,0.0
196398.0,218777.4,711996.8,411355.3,711971.9,179170.0,712487.4,189669.0,0.0
196266.8,218648.9,711988.6,411238.5,711963.9,179053.3,712478.9,189585.5,0.0
195885.3,218365.2,711980.3,411002.6,711955.5,178771.4,712470.8,189221.1,0.0
195776.3,218314.9,711982.1,410955.5,711957.3,178702.5,712472.7,189069.7,0.0
196097.3,218575.3,711994.6,411157.8,711970.1,178950.4,712485.4,189347.1,0.0
196406.0,218784.6,712002.0,411317.0,711977.5,179167.7,712492.6,189668.8,0.0
196261.9,218645.6,711991.3,411189.5,711966.3,179044.1,712481.3,189574.6,0.0
195876.0,218362.3,711981.1,410948.6,711956.2,178759.0,712471.1,189204.8,0.0
195768.8,218311.9,711982.1,410903.4,711957.8,178696.4,712472.5,189055.0,0.0
196091.9,218568.9,711992.4,411110.2,711968.0,178945.0,712483.1,189333.0,0.0
196397.7,218776.1,712002.2,411272.5,711977.4,179163.7,712492.6,189656.9,0.0
196254.5,218635.6,711991.1,411149.0,711966.3,179040.4,712481.4,189567.7,0.0
195869.6,218353.7,711979.6,410912.1,711955.1,178761.0,712469.8,189201.6,0.0
195762.4,218308.0,711979.3,410869.7,711954.8,178696.3,712469.3,189048.5,0.0
196085.1,218567.4,711989.6,411079.5,711964.9,178944.9,712479.7,189323.7,0.0
196384.3,218765.5,711992.7,411235.3,711968.0,179149.2,712483.3,189631.7,0.0
196247.3,218629.9,711982.1,411116.4,711957.4,179030.0,712472.7,189545.9,0.0
195859.2,218342.9,711970.9,410872.6,711946.6,178744.9,712461.2,189176.1,0.0
195754.3,218292.9,711972.6,410832.5,711948.1,178685.8,712462.9,189030.6,0.0
196082.2,218555.8,711986.1,411043.8,711961.6,178937.5,712476.4,189310.7,0.0
196385.5,218760.4,711991.3,411201.9,711967.0,179151.4,712481.6,189623.8,0.0
196259.2,218636.9,711985.4,411089.1,711960.9,179045.1,712475.4,189548.3,0.0
195878.0,218355.2,711976.6,410854.0,711951.9,178766.2,712466.8,189183.9,0.0
195770.1,218303.0,711976.1,410810.3,711951.4,178698.4,712466.7,189033.5,0.0
196094.7,218566.5,711989.6,411019.7,711965.3,178948.9,712480.3,189314.3,0.0
196395.2,218768.4,711992.9,411175.2,711968.8,179157.2,712483.7,189632.2,0.0
196266.5,218642.1,711987.5,411064.9,711963.6,179047.4,712478.2,189560.2,0.0
195878.5,218352.7,711976.5,410824.2,711952.1,178761.0,712466.8,189191.9,0.0
195777.2,218307.2,711979.2,410782.0,711954.5,178698.2,712469.3,189047.0,0.0
196103.7,218571.7,711992.9,410994.0,711968.3,178949.5,712483.6,189329.9,0.0
196407.1,218776.3,711997.1,411153.8,711972.6,179157.7,712487.6,189639.3,0.0
196277.6,218646.2,711988.6,411043.9,711963.7,179041.3,712478.8,189553.7,0.0
195893.6,218359.0,711977.4,410811.9,711952.7,178759.2,712467.6,189186.2,0.0
195794.4,218316.7,711981.9,410778.0,711957.2,178704.2,712471.8,189048.7,0.0
196111.2,218569.8,711993.8,410978.3,711969.5,178942.6,712484.1,189323.0,0.0
196407.7,218770.3,711997.3,411129.9,711972.9,179152.2,712487.9,189635.2,0.0
196266.5,218633.4,711986.1,411005.9,711961.5,179034.6,712476.6,189551.1,0.0
195870.3,218339.1,711974.5,410758.5,711949.7,178746.1,712464.5,189180.3,0.0
195767.0,218295.4,711977.2,410715.5,711952.9,178685.8,712468.1,189037.9,0.0
196082.9,218549.6,711986.3,410912.3,711962.2,178928.2,712477.4,189311.6,0.0
196383.1,218749.5,711990.2,411067.5,711965.7,179137.1,712481.2,189625.3,0.0
196248.2,218616.9,711983.4,410949.1,711958.4,179023.2,712474.1,189541.7,0.0
195859.9,218330.2,711972.4,410706.0,711947.6,178738.5,712463.3,189173.0,0.0
195763.6,218292.0,711975.9,410672.9,711951.6,178685.9,712467.3,189039.3,0.0
196088.3,218554.8,711991.0,410883.8,711966.5,178937.9,712481.9,189323.5,0.0
196399.3,218767.2,711999.8,411045.8,711974.5,179155.9,712490.7,189645.8,0.0
196257.2,218630.3,711989.8,410920.7,711964.4,179034.6,712480.3,189557.5,0.0
195859.5,218333.7,711976.5,410670.6,711950.8,178742.7,712466.3,189178.8,0.0
195760.1,218294.6,711982.1,410633.8,711956.6,178689.0,712471.8,189040.6,0.0
196087.6,218559.4,711995.8,410844.5,711970.4,178939.7,712485.1,189322.1,0.0
196387.8,218761.9,711998.3,410998.4,711972.8,179148.7,712488.1,189636.0,0.0
196254.2,218630.8,711989.0,410880.3,711964.1,179031.6,712479.1,189552.7,0.0
195857.0,218332.0,711974.0,410630.5,711949.1,178733.2,712464.1,189170.7,0.0
195760.4,218293.7,711978.4,410599.0,711953.4,178684.2,712468.5,189036.6,0.0
196095.7,218563.2,711989.6,410810.6,711964.6,178943.3,712480.1,189320.1,0.0
196395.8,218761.5,711991.3,410963.0,711966.2,179152.5,712481.4,189631.7,0.0
196249.8,218618.7,711982.1,410836.2,711957.0,179027.5,712472.2,189540.4,0.0
195868.1,218335.9,711973.4,410594.9,711948.1,178744.9,712463.3,189170.8,0.0
195762.0,218287.7,711974.4,410552.9,711948.9,178685.1,712464.7,189025.7,0.0
196078.8,218545.0,711985.4,410752.1,711960.4,178931.3,712475.6,189299.9,0.0
196396.2,218766.6,711991.9,410923.3,711966.9,179160.9,712482.1,189630.6,0.0
196265.3,218634.3,711982.3,410809.4,711957.3,179041.6,712472.4,189548.1,0.0
195868.2,218336.3,711973.0,410560.1,711947.9,178746.7,712463.7,189173.7,0.0
195759.4,218285.9,711977.7,410518.5,711952.4,178685.6,712468.1,189029.8,0.0
196080.3,218542.4,711985.2,410721.0,711959.7,178924.7,712475.4,189298.4,0.0
196374.7,218738.8,711989.6,410871.2,711965.1,179128.9,712480.1,189607.0,0.0
196246.3,218616.7,711983.1,410763.8,711958.4,179022.0,712473.3,189528.6,0.0
195873.6,218345.4,711977.2,410534.3,711952.2,178749.3,712467.4,189172.0,0.0
195761.6,218288.8,711977.4,410482.8,711952.2,178677.5,712467.6,189014.5,0.0
196077.0,218543.2,711986.6,410685.3,711961.5,178923.1,712476.6,189283.0,0.0
196376.4,218746.5,711991.3,410839.0,711965.9,179133.1,712481.0,189598.0,0.0
196231.7,218604.8,711984.4,410706.7,711959.3,179008.7,712474.5,189507.9,0.0
195842.3,218314.6,711972.4,410461.6,711947.6,178720.9,712462.6,189136.0,0.0
195737.0,218266.8,711973.9,410422.3,711949.1,178658.9,712464.1,188989.0,0.0
196069.9,218537.8,711989.2,410638.6,711964.4,178921.2,712479.4,189280.7,0.0
196371.5,218741.8,711992.8,410790.5,711968.3,179131.5,712483.2,189592.5,0.0
196221.7,218597.7,711979.7,410666.5,711954.8,179003.6,712469.8,189494.5,0.0
195838.2,218314.2,711970.7,410423.0,711945.3,178726.4,712460.6,189130.8,0.0
195736.9,218272.3,711972.4,410377.5,711947.0,178669.4,712462.5,188987.4,0.0
196062.2,218536.5,711985.8,410588.3,711960.9,178923.3,712476.0,189271.8,0.0
196366.9,218743.8,711993.3,410747.9,711967.8,179140.5,712483.0,189592.3,0.0
196232.4,218611.9,711986.3,410636.7,711961.1,179025.0,712476.3,189510.3,0.0
195842.5,218318.5,711975.3,410399.8,711950.2,178737.0,712465.3,189139.0,0.0
195729.3,218261.9,711970.6,410352.8,711945.9,178664.1,712460.6,188981.7,0.0
196044.4,218510.5,711979.0,410552.8,711954.3,178904.1,712469.1,189250.5,0.0
196358.0,218719.9,711986.9,410723.8,711961.8,179125.9,712476.8,189573.9,0.0
196226.5,218589.3,711979.1,410616.4,711954.8,179013.9,712469.1,189495.7,0.0
195844.9,218309.6,711968.6,410385.7,711944.3,178731.7,712458.7,189129.2,0.0
195739.9,218266.2,711970.9,410351.0,711946.1,178674.3,712460.9,188985.6,0.0
196070.8,218536.7,711985.3,410566.1,711960.6,178931.4,712475.8,189274.1,0.0
196370.3,218737.1,711991.4,410721.5,711966.6,179137.3,712481.9,189583.2,0.0
196247.3,218614.0,711985.3,410615.4,711960.7,179034.9,712475.3,189510.4,0.0
195865.1,218328.4,711975.4,410381.4,711951.2,178754.6,712465.1,189145.7,0.0
195768.4,218290.1,711978.4,410343.5,711953.7,178699.0,712468.7,189005.9,0.0
196088.3,218549.2,711990.7,410550.2,711965.9,178946.4,712481.0,189284.7,0.0
196382.6,218746.2,711993.2,410705.5,711968.4,179148.9,712483.3,189590.7,0.0
196247.5,218609.8,711981.4,410587.8,711956.5,179028.5,712471.0,189501.0,0.0
195862.8,218322.1,711968.8,410349.7,711943.5,178742.5,712458.1,189130.1,0.0
195763.9,218279.8,711971.3,410316.2,711946.3,178690.6,712460.9,188993.3,0.0
196089.7,218544.3,711985.1,410526.2,711960.3,178942.4,712474.7,189279.6,0.0
196390.6,218748.1,711989.3,410682.8,711964.4,179154.0,712479.1,189595.5,0.0
196262.9,218623.4,711982.8,410573.9,711957.9,179047.6,712472.4,189520.9,0.0
195885.9,218347.3,711975.7,410341.7,711950.8,178773.8,712465.2,189161.6,0.0
195783.5,218298.4,711976.3,410295.5,711951.4,178713.0,712466.2,189017.9,0.0
196095.5,218542.8,711984.8,410493.8,711960.1,178944.0,712475.1,189284.7,0.0
196403.5,218752.5,711991.9,410660.3,711966.8,179155.8,712482.1,189605.0,0.0
196275.6,218625.5,711985.8,410553.0,711960.8,179045.5,712476.0,189529.8,0.0
195890.2,218338.8,711975.1,410312.4,711950.3,178761.3,712465.1,189160.2,0.0
195790.4,218296.0,711975.9,410272.8,711950.8,178703.7,712466.0,189017.7,0.0
196118.3,218559.2,711986.5,410479.2,711961.5,178956.7,712476.6,189301.0,0.0
196418.6,218762.8,711991.0,410631.9,711965.9,179167.7,712481.0,189612.4,0.0
196294.6,218642.8,711987.3,410524.0,711962.0,179067.2,712477.3,189541.3,0.0
195914.5,218367.6,711978.1,410292.5,711953.2,178793.9,712468.1,189182.5,0.0
195801.4,218315.0,711976.3,410246.0,711951.2,178724.1,712466.4,189030.1,0.0
196119.7,218572.4,711986.7,410441.3,711962.1,178967.1,712477.0,189306.9,0.0
196419.6,218776.5,711992.5,410594.9,711967.9,179178.7,712482.9,189624.1,0.0
196286.1,218641.7,711984.0,410476.0,711959.0,179058.1,712474.1,189539.5,0.0
195902.0,218354.9,711974.1,410241.1,711949.1,178777.2,712463.9,189174.6,0.0
195802.7,218308.0,711976.9,410199.1,711951.8,178717.5,712466.6,189032.8,0.0
196124.6,218565.5,711988.2,410400.2,711962.9,178960.1,712478.0,189311.3,0.0
196430.8,218775.7,711998.1,410566.0,711973.1,179180.0,712488.2,189636.9,0.0
196296.0,218644.9,711990.2,410447.0,711965.4,179067.0,712480.2,189556.7,0.0
195903.2,218353.7,711978.8,410200.3,711954.1,178782.5,712468.6,189184.2,0.0
195791.1,218299.6,711976.8,410153.9,711951.9,178717.5,712466.4,189028.4,0.0
196108.9,218553.6,711985.3,410358.0,711960.3,178960.2,712475.0,189300.6,0.0
196417.3,218763.0,711989.8,410517.1,711964.6,179173.7,712479.9,189617.3,0.0
196284.6,218631.4,711981.4,410400.9,711956.2,179058.4,712471.4,189535.0,0.0
195902.0,218348.4,711972.4,410166.3,711947.0,178776.9,712462.2,189174.7,0.0
195799.0,218305.2,711976.5,410123.5,711951.0,178718.6,712466.3,189036.6,0.0
196124.4,218567.6,711990.8,410332.7,711965.6,178971.0,712481.1,189321.5,0.0
196417.1,218762.2,711996.2,410481.6,711970.7,179177.3,712486.3,189632.6,0.0
196283.3,218630.1,711985.2,410361.2,711960.1,179060.6,712475.4,189548.1,0.0
195899.7,218345.6,711973.2,410120.1,711948.0,178780.2,712463.3,189179.3,0.0
195795.6,218304.8,711975.5,410083.0,711950.6,178725.8,712465.8,189041.5,0.0
196102.6,218554.1,711984.1,410278.2,711958.6,178964.7,712474.1,189309.1,0.0
196396.4,218750.5,711989.2,410427.1,711964.0,179168.3,712479.4,189618.1,0.0
196262.0,218616.7,711981.8,410310.6,711956.6,179051.1,712471.8,189538.1,0.0
195873.2,218325.3,711968.9,410068.4,711942.8,178761.5,712458.6,189165.1,0.0
195774.6,218282.8,711971.8,410031.5,711945.9,178705.9,712461.7,189027.7,0.0
196089.0,218533.0,711983.9,410228.2,711958.5,178949.8,712474.1,189303.0,0.0
196397.3,218743.6,711993.8,410388.1,711968.4,179173.2,712483.8,189628.7,0.0
196261.3,218612.2,711984.1,410268.0,711958.4,179055.3,712473.9,189548.0,0.0
195878.3,218329.0,711977.2,410036.1,711951.9,178774.3,712467.1,189186.5,0.0
195767.2,218276.4,711976.8,409991.8,711952.2,178707.5,712467.0,189037.9,0.0
196084.6,218530.0,711986.1,410189.8,711961.1,178956.4,712476.1,189313.1,0.0
196384.7,218730.5,711991.9,410339.1,711966.6,179164.3,712482.0,189625.2,0.0
196247.8,218592.0,711981.9,410216.2,711956.8,179042.4,712472.1,189538.7,0.0
195861.7,218306.3,711970.3,409975.3,711945.0,178759.5,712460.2,189173.2,0.0
195752.9,218255.4,711969.4,409928.3,711943.9,178694.9,712459.1,189025.5,0.0
196070.7,218508.4,711983.2,410133.7,711957.9,178940.8,712473.1,189304.9,0.0
196378.1,218718.6,711993.2,410302.0,711968.0,179158.6,712483.0,189631.0,0.0
196233.8,218577.6,711982.4,410174.3,711956.8,179030.2,712472.3,189541.1,0.0
195835.4,218280.7,711970.7,409916.7,711944.9,178738.1,712460.0,189162.2,0.0
195720.2,218227.1,711970.9,409863.5,711945.2,178673.8,712460.6,189009.5,0.0
196043.7,218491.7,711981.6,410064.8,711956.0,178926.5,712471.8,189287.0,0.0
196355.1,218706.6,711987.6,410229.5,711961.8,179147.1,712477.6,189607.3,0.0
196209.2,218565.2,711976.9,410102.8,711951.4,179027.0,712466.7,189516.3,0.0
195815.2,218269.6,711966.1,409847.4,711940.9,178740.8,712456.2,189144.4,0.0
195723.1,218239.7,711969.2,409813.4,711943.7,178693.4,712459.1,189008.1,0.0
196043.5,218501.4,711980.3,410017.4,711954.9,178942.6,712470.5,189289.2,0.0
196348.0,218705.2,711988.8,410179.8,711963.6,179155.4,712479.1,189606.2,0.0
196218.9,218577.9,711982.1,410069.0,711956.8,179045.0,712472.5,189522.7,0.0
195845.5,218300.7,711972.6,409848.0,711947.3,178765.0,712462.8,189159.5,0.0
195729.9,218239.7,711967.3,409791.0,711942.1,178689.2,712457.3,189007.6,0.0
196043.9,218490.8,711976.7,409976.7,711951.8,178929.2,712467.3,189278.9,0.0
196350.8,218693.1,711983.8,410140.1,711959.3,179133.5,712474.3,189597.0,0.0
196224.3,218563.1,711978.3,410034.3,711953.7,179020.2,712468.9,189526.3,0.0
195828.1,218267.5,711965.6,409788.1,711940.8,178728.6,712456.2,189148.2,0.0
195724.3,218226.6,711966.7,409756.5,711941.7,178665.9,712456.9,189003.1,0.0
196052.7,218501.4,711978.4,409966.0,711953.1,178924.7,712468.4,189290.3,0.0
196353.2,218702.5,711982.1,410115.0,711956.6,179136.9,712471.6,189597.7,0.0
196238.6,218580.7,711979.4,410015.6,711953.8,179035.5,712469.1,189532.3,0.0
195859.9,218293.6,711971.7,409778.9,711945.8,178755.0,712461.2,189171.9,0.0
195749.1,218235.6,711970.4,409733.1,711944.9,178681.7,712460.0,189021.1,0.0
196079.9,218500.4,711985.2,409950.4,711959.5,178936.8,712474.8,189311.8,0.0
196387.0,218704.6,711991.7,410117.6,711966.5,179155.0,712481.6,189639.0,0.0
196243.7,218559.8,711981.7,409991.7,711956.6,179037.7,712471.6,189551.3,0.0
195861.2,218273.1,711972.6,409756.8,711947.2,178759.4,712462.2,189188.8,0.0
195741.5,218208.6,711962.2,409713.8,711936.1,178676.8,712451.4,189021.1,0.0
196069.3,218473.2,711969.1,409919.1,711943.6,178924.4,712458.7,189300.2,0.0
196379.7,218682.6,711980.9,410080.8,711955.5,179147.5,712470.9,189629.9,0.0
196247.7,218552.6,711972.9,409974.0,711947.3,179036.9,712462.9,189547.1,0.0
195858.4,218262.6,711960.9,409731.1,711935.2,178754.0,712450.6,189179.9,0.0
195756.2,218214.4,711963.8,409687.6,711937.9,178699.4,712453.1,189041.0,0.0
196076.1,218470.7,711972.9,409896.8,711947.3,178946.6,712462.6,189319.5,0.0
196384.0,218681.6,711980.7,410064.5,711954.8,179165.7,712470.2,189644.6,0.0
196249.5,218546.6,711975.8,409951.9,711949.7,179053.7,712464.9,189567.8,0.0
195851.1,218246.7,711963.6,409691.3,711937.6,178758.8,712453.1,189192.9,0.0
195747.1,218200.6,711966.2,409654.7,711940.6,178700.8,712455.9,189049.5,0.0
196073.8,218464.9,711980.3,409878.5,711954.1,178950.8,712469.8,189331.4,0.0
196368.0,218665.0,711986.3,410031.4,711959.9,179155.7,712475.8,189640.1,0.0
196227.7,218524.5,711974.1,409911.2,711947.7,179032.5,712463.8,189545.1,0.0
195852.4,218244.7,711967.6,409689.5,711941.4,178757.0,712457.1,189184.4,0.0
195743.0,218190.7,711967.4,409657.7,711941.4,178687.3,712456.7,189035.5,0.0
196056.9,218440.1,711977.4,409859.3,711951.4,178927.5,712466.6,189305.0,0.0
196360.4,218648.0,711984.2,410017.1,711958.5,179142.3,712473.8,189619.4,0.0
196211.5,218508.7,711974.4,409895.6,711948.6,179017.0,712464.2,189527.3,0.0
195810.3,218212.3,711960.9,409642.6,711935.2,178719.7,712450.7,189150.5,0.0
195717.2,218180.2,711965.7,409607.0,711940.4,178671.9,712455.4,189019.7,0.0
196060.9,218459.6,711985.7,409833.8,711960.3,178947.4,712475.6,189327.1,0.0
196376.9,218676.1,711997.3,410005.6,711971.9,179183.1,712487.2,189666.5,0.0
196247.0,218543.6,711990.9,409887.3,711965.1,179063.0,712480.8,189579.4,0.0
195854.6,218251.3,711981.9,409635.0,711956.2,178763.4,712472.0,189198.5,0.0
195715.1,218172.0,711970.0,409567.6,711944.3,178657.1,712459.8,189007.5,0.0
196019.9,218416.3,711971.1,409764.5,711945.3,178889.3,712460.9,189262.0,0.0
196325.2,218627.9,711978.9,409922.9,711952.8,179113.8,712468.3,189583.5,0.0
196195.7,218497.4,711971.4,409811.3,711945.5,179000.2,712461.3,189500.0,0.0
195814.2,218214.5,711963.0,409581.1,711937.3,178722.0,712452.8,189133.2,0.0
195702.3,218161.8,711962.9,409535.4,711936.9,178657.1,712452.4,188981.1,0.0
196025.4,218425.4,711976.1,409749.0,711949.7,178911.1,712465.6,189263.0,0.0
196327.8,218633.7,711984.8,409911.2,711958.8,179125.4,712474.6,189581.6,0.0
196191.2,218499.1,711973.4,409792.0,711947.4,179004.6,712463.1,189491.8,0.0
195809.4,218220.1,711965.5,409554.7,711939.5,178728.3,712455.1,189129.6,0.0
195707.0,218176.1,711966.9,409517.1,711941.6,178671.2,712457.0,188985.2,0.0
196023.1,218431.0,711975.7,409719.9,711950.2,178915.4,712466.0,189261.0,0.0
196327.6,218637.1,711982.9,409880.0,711957.3,179127.4,712473.0,189581.4,0.0
196195.5,218506.9,711975.9,409775.4,711950.1,179011.9,712465.6,189497.8,0.0
195804.1,218216.4,711966.4,409535.9,711940.2,178726.3,712455.4,189124.2,0.0
195685.2,218155.1,711965.5,409474.7,711939.5,178653.1,712454.6,188967.6,0.0
196011.3,218417.2,711979.0,409685.6,711953.2,178903.7,712468.3,189248.0,0.0
196318.4,218625.6,711985.4,409850.9,711959.3,179117.3,712474.5,189567.1,0.0
196197.2,218507.3,711979.8,409747.5,711953.9,179015.8,712468.9,189494.3,0.0
195805.3,218220.5,711970.4,409502.4,711944.5,178728.4,712460.0,189124.6,0.0
195687.6,218167.2,711970.0,409456.0,711943.9,178658.5,712459.5,188968.4,0.0
196003.3,218426.1,711979.2,409661.8,711953.1,178902.3,712468.8,189239.8,0.0
196307.5,218634.6,711983.6,409824.8,711957.9,179116.4,712473.8,189559.9,0.0
196184.2,218510.3,711978.9,409719.4,711953.1,179007.3,712468.6,189486.4,0.0
195791.3,218217.3,711966.1,409466.6,711940.4,178716.9,712456.2,189110.9,0.0
195686.9,218171.8,711969.2,409426.6,711943.1,178657.1,712458.9,188971.0,0.0
196013.0,218435.0,711982.5,409638.4,711956.6,178907.2,712472.2,189256.2,0.0
196311.6,218635.0,711987.1,409792.4,711961.3,179116.0,712476.9,189569.4,0.0
196172.9,218497.7,711977.1,409675.1,711951.0,178998.1,712466.6,189484.4,0.0
195785.7,218208.3,711964.6,409441.3,711938.7,178711.4,712454.4,189112.8,0.0
195687.6,218168.1,711968.9,409404.2,711942.9,178655.2,712458.6,188971.5,0.0
195995.0,218417.3,711978.6,409603.3,711952.6,178897.5,712468.3,189241.0,0.0
196289.4,218620.1,711981.3,409755.6,711955.3,179108.5,712470.6,189554.3,0.0
196153.5,218485.3,711972.8,409636.6,711946.6,178985.1,712462.5,189470.7,0.0
195773.4,218200.4,711963.8,409405.3,711937.6,178706.5,712453.5,189110.3,0.0
195677.3,218159.1,711967.0,409369.2,711941.2,178651.3,712457.1,188973.5,0.0
196000.9,218423.6,711978.3,409578.0,711951.9,178900.6,712468.5,189256.8,0.0
196307.0,218635.5,711983.2,409741.6,711957.6,179118.0,712473.4,189577.0,0.0
196190.0,218517.9,711981.4,409642.6,711955.7,179017.3,712471.6,189514.1,0.0
195806.5,218229.3,711972.8,409404.4,711947.1,178732.8,712462.9,189150.2,0.0
195700.8,218179.8,711974.3,409360.7,711948.8,178671.5,712464.5,189007.2,0.0
196023.6,218440.4,711988.8,409564.6,711963.4,178923.8,712479.1,189287.3,0.0
196327.0,218647.4,711993.1,409718.5,711967.6,179140.9,712483.0,189601.6,0.0
196184.7,218507.0,711982.9,409593.0,711957.2,179019.9,712472.6,189511.9,0.0
195793.2,218213.0,711970.9,409349.3,711945.1,178729.6,712460.2,189138.6,0.0
195691.0,218166.5,711973.6,409315.1,711947.9,178672.2,712462.9,188997.3,0.0
196010.6,218426.4,711984.8,409517.0,711959.1,178919.0,712474.3,189275.5,0.0
196304.9,218623.2,711987.3,409662.6,711961.6,179122.3,712476.8,189581.9,0.0
196167.5,218482.3,711978.4,409545.3,711952.6,178997.2,712467.8,189493.5,0.0
195779.6,218189.9,711963.3,409301.0,711937.6,178699.5,712452.9,189115.9,0.0
195683.6,218151.5,711966.5,409264.1,711940.9,178646.1,712456.3,188976.2,0.0
196001.5,218413.1,711978.0,409468.6,711952.6,178897.5,712468.1,189253.1,0.0
196302.3,218626.3,711983.9,409632.5,711957.9,179118.2,712473.5,189569.1,0.0
196167.6,218495.5,711976.9,409514.9,711950.8,179005.2,712466.2,189489.5,0.0
195787.5,218211.1,711969.1,409275.2,711943.6,178721.1,712458.9,189129.9,0.0
195677.5,218157.8,711968.9,409226.0,711943.6,178654.7,712459.0,188977.8,0.0
196011.5,218430.1,711982.9,409443.2,711957.4,178913.1,712473.3,189265.3,0.0
196313.1,218638.7,711989.4,409597.7,711964.0,179124.1,712479.3,189579.4,0.0
196177.4,218507.4,711979.8,409477.0,711953.9,179007.7,712468.9,189493.5,0.0
195794.5,218221.1,711970.3,409240.0,711944.5,178727.7,712459.4,189129.4,0.0
195689.0,218170.8,711969.8,409197.0,711944.1,178666.4,712459.2,188984.7,0.0
196004.6,218425.4,711979.6,409391.5,711953.4,178908.4,712469.4,189257.6,0.0
196303.4,218630.3,711986.1,409550.8,711960.7,179119.1,712476.0,189571.0,0.0
196170.1,218495.7,711976.8,409440.1,711951.6,179001.5,712466.4,189491.0,0.0
195788.9,218208.8,711968.6,409202.7,711943.0,178722.0,712458.3,189130.3,0.0
195688.0,218164.6,711971.8,409164.3,711945.9,178663.7,712461.3,188991.3,0.0
195999.9,218416.1,711980.3,409360.2,711954.8,178901.3,712469.8,189258.1,0.0
196311.3,218630.5,711990.1,409521.9,711964.3,179126.4,712479.1,189584.3,0.0
196174.9,218496.1,711980.3,409400.1,711954.6,179011.5,712469.6,189494.5,0.0
195789.8,218212.2,711968.0,409159.3,711942.6,178727.7,712457.3,189125.8,0.0
195687.2,218166.7,711970.7,409114.7,711945.4,178656.7,712460.3,188982.8,0.0
196013.1,218431.4,711984.2,409325.2,711958.5,178908.4,712473.6,189261.5,0.0
196298.5,218624.3,711985.7,409475.2,711960.3,179111.2,712474.9,189564.5,0.0
196157.1,218484.6,711974.0,409347.9,711948.9,178988.3,712463.9,189475.2,0.0
195789.8,218214.4,711967.1,409123.8,711941.9,178722.2,712456.8,189127.6,0.0
195687.8,218168.4,711968.8,409082.8,711943.6,178658.8,712458.4,188984.7,0.0
196007.5,218428.8,711981.4,409286.8,711955.7,178906.0,712470.8,189259.0,0.0
196312.3,218639.5,711989.8,409449.0,711964.0,179126.5,712479.7,189583.6,0.0
196175.4,218499.2,711981.6,409333.4,711955.9,179005.3,712471.6,189502.1,0.0
195781.3,218201.7,711965.9,409084.5,711940.3,178705.9,712455.8,189120.7,0.0
195678.7,218156.7,711966.7,409037.9,711941.2,178644.4,712456.6,188969.1,0.0
195997.8,218412.7,711977.7,409243.5,711952.2,178889.1,712467.8,189241.7,0.0
196292.0,218611.3,711983.6,409396.7,711958.3,179100.1,712473.7,189555.6,0.0
196153.1,218475.2,711975.8,409274.9,711950.8,178986.3,712466.0,189474.0,0.0
195775.8,218194.7,711967.9,409044.4,711942.6,178714.4,712457.9,189117.1,0.0
195680.2,218155.4,711969.2,409010.9,711943.6,178660.6,712459.1,188981.1,0.0
195986.6,218403.9,711977.7,409200.0,711952.2,178896.4,712467.7,189249.0,0.0
196289.5,218614.7,711986.3,409360.9,711960.6,179112.4,712476.0,189566.5,0.0
196165.3,218494.3,711982.3,409257.3,711956.4,179011.4,712471.8,189494.4,0.0
195789.2,218216.1,711975.6,409023.9,711949.5,178735.7,712464.8,189139.9,0.0
195679.8,218163.9,711974.3,408978.0,711948.1,178667.4,712463.9,188986.5,0.0
195996.8,218418.4,711981.3,409184.3,711955.9,178909.5,712471.1,189256.1,0.0
196295.0,218622.5,711986.6,409340.3,711961.2,179118.8,712476.0,189569.0,0.0
196173.1,218501.2,711982.1,409235.3,711956.6,179013.4,712471.8,189501.7,0.0
195789.0,218211.7,711972.4,408987.1,711946.8,178727.9,712462.1,189136.3,0.0
195682.1,218159.7,711972.3,408945.2,711947.2,178660.4,712462.6,188986.8,0.0
195999.7,218416.4,711985.3,409153.3,711959.7,178908.2,712474.8,189262.8,0.0
196293.5,218614.6,711989.4,409308.7,711964.3,179113.3,712479.3,189573.6,0.0
196166.5,218491.0,711982.8,409194.8,711957.0,179005.0,712472.4,189501.7,0.0
195781.0,218199.2,711972.6,408950.0,711947.1,178719.1,712462.2,189132.9,0.0
195666.8,218140.6,711970.9,408901.1,711945.0,178649.5,712460.6,188976.5,0.0
195982.3,218394.3,711979.4,409108.9,711953.1,178893.7,712469.3,189247.3,0.0
196279.1,218598.5,711984.4,409265.2,711958.7,179103.0,712474.4,189556.9,0.0
196145.1,218466.5,711975.3,409147.0,711949.6,178986.8,712465.0,189473.5,0.0
195761.4,218180.4,711963.7,408909.9,711938.1,178703.4,712453.5,189107.0,0.0
195654.4,218133.8,711965.1,408863.8,711939.6,178644.2,712455.1,188963.1,0.0
195970.9,218388.6,711978.3,409063.2,711952.4,178890.2,712467.8,189240.0,0.0
196283.5,218605.5,711988.1,409229.5,711962.3,179115.9,712477.6,189566.0,0.0
196145.6,218472.0,711978.4,409109.2,711952.4,178999.8,712468.3,189479.2,0.0
195765.0,218187.5,711968.6,408883.1,711942.4,178719.3,712458.3,189117.9,0.0
195660.3,218133.8,711970.1,408840.4,711944.1,178654.1,712459.8,188972.4,0.0
195974.4,218385.1,711980.7,409037.0,711955.3,178893.8,712470.6,189243.3,0.0
196265.9,218583.0,711985.4,409185.3,711959.9,179098.4,712475.7,189547.7,0.0
196137.7,218461.3,711979.0,409075.6,711953.3,178990.3,712468.9,189471.1,0.0
195758.8,218180.8,711969.0,408840.1,711943.1,178711.4,712458.4,189105.7,0.0
195652.3,218130.3,711969.6,408794.3,711943.5,178647.4,712458.7,188953.0,0.0
195972.0,218389.0,711981.4,408997.3,711955.9,178896.1,712470.9,189231.9,0.0
196268.0,218590.9,711988.3,409153.2,711962.8,179107.2,712477.8,189547.4,0.0
196132.5,218457.4,711979.6,409039.2,711953.6,178988.5,712468.9,189462.0,0.0
195746.4,218171.9,711968.1,408799.1,711942.3,178702.5,712457.6,189093.4,0.0
195643.8,218126.0,711969.6,408759.5,711943.6,178647.3,712459.2,188949.8,0.0
195968.8,218390.7,711983.8,408969.3,711957.3,178902.6,712473.1,189236.8,0.0
196268.8,218594.5,711988.9,409125.7,711962.4,179110.3,712478.3,189553.9,0.0
196137.4,218463.5,711981.6,409013.6,711955.3,178995.8,712471.2,189474.2,0.0
195748.5,218168.3,711968.4,408774.2,711942.8,178706.0,712458.5,189102.5,0.0
195649.9,218128.3,711972.3,408738.0,711946.4,178651.3,712462.2,188965.0,0.0
195974.4,218392.7,711984.6,408951.0,711958.4,178901.0,712473.9,189244.4,0.0
196273.5,218600.5,711991.1,409099.9,711964.8,179116.1,712480.6,189556.9,0.0
196131.0,218460.0,711981.3,408977.8,711955.1,178996.0,712471.0,189469.4,0.0
195746.7,218172.3,711969.5,408736.2,711943.6,178712.1,712458.9,189100.9,0.0
195647.8,218130.8,711973.1,408701.9,711947.0,178661.5,712462.3,188964.3,0.0
195962.5,218383.7,711982.4,408901.8,711956.2,178904.6,712471.6,189233.9,0.0
196265.1,218590.5,711987.1,409061.9,711960.7,179114.5,712476.6,189544.5,0.0
196140.2,218465.8,711982.3,408955.6,711955.8,179001.6,712471.6,189462.4,0.0
195746.6,218170.4,711971.6,408703.5,711945.2,178711.3,712461.1,189091.7,0.0
195640.0,218121.9,711970.7,408658.0,711945.1,178648.7,712460.4,188946.6,0.0
195960.7,218381.7,711981.1,408867.1,711955.5,178897.7,712471.0,189224.4,0.0
196252.9,218577.2,711985.9,409020.7,711959.8,179101.9,712475.6,189535.6,0.0
196115.8,218440.9,711975.7,408905.1,711949.6,178979.5,712464.9,189447.4,0.0
195725.1,218147.3,711962.0,408664.6,711935.9,178686.8,712451.5,189072.8,0.0
195626.3,218102.3,711963.3,408630.2,711937.0,178628.3,712452.9,188931.1,0.0
195957.6,218373.5,711978.3,408841.4,711952.4,178885.8,712468.4,189220.0,0.0
196261.6,218581.1,711984.8,408997.7,711958.7,179100.9,712474.5,189535.4,0.0
196129.3,218447.8,711977.7,408887.0,711951.4,178987.7,712466.8,189458.0,0.0
195748.0,218162.6,711968.8,408653.0,711942.5,178703.7,712457.9,189094.3,0.0
195647.6,218118.0,711970.1,408613.2,711944.1,178643.0,712459.4,188948.5,0.0
195973.7,218383.4,711982.9,408822.4,711956.8,178896.1,712472.3,189228.4,0.0
196275.3,218591.3,711989.2,408981.3,711963.3,179109.7,712478.5,189544.7,0.0
196142.6,218460.6,711984.4,408868.2,711958.4,178999.2,712473.3,189468.1,0.0
195755.7,218169.2,711973.6,408630.4,711947.6,178715.0,712463.1,189098.7,0.0
195654.9,218123.0,711973.9,408584.5,711947.9,178648.9,712463.4,188953.8,0.0
195973.0,218380.8,711985.2,408792.1,711959.0,178894.3,712474.6,189229.3,0.0
196262.3,218576.5,711989.6,408936.6,711963.7,179099.5,712478.7,189535.2,0.0
196125.1,218439.3,711980.5,408814.7,711954.3,178983.8,712469.4,189450.2,0.0
195749.4,218157.9,711970.9,408579.5,711944.6,178708.3,712459.8,189088.9,0.0
195648.4,218110.6,711973.4,408538.2,711947.6,178648.2,712463.1,188947.6,0.0
195960.2,218362.5,711982.1,408740.0,711956.8,178889.9,712471.8,189215.8,0.0
196253.4,218564.7,711985.7,408898.9,711959.9,179101.9,712474.8,189525.7,0.0
196125.7,218442.4,711976.9,408794.0,711951.1,178993.9,712466.2,189445.5,0.0
195740.0,218156.1,711966.8,408559.2,711940.6,178713.0,712456.0,189079.4,0.0
195625.6,218098.6,711966.2,408506.6,711940.2,178639.7,712455.6,188926.0,0.0
195952.0,218362.1,711978.8,408719.2,711953.3,178891.2,712468.8,189203.9,0.0
196252.9,218571.0,711986.1,408877.3,711960.4,179106.1,712475.8,189518.8,0.0
196114.0,218434.3,711977.4,408752.7,711951.8,178987.1,712467.3,189431.3,0.0
195727.0,218142.6,711965.1,408509.8,711939.4,178699.6,712454.9,189059.3,0.0
195629.3,218101.0,711968.3,408472.0,711942.6,178642.0,712458.1,188918.0,0.0
195946.0,218357.7,711979.9,408673.6,711954.3,178887.4,712469.9,189192.1,0.0
196245.7,218563.7,711985.8,408831.5,711960.1,179099.6,712475.8,189504.3,0.0
196115.1,218434.7,711980.3,408722.6,711954.1,178989.5,712470.1,189423.8,0.0
195734.3,218148.4,711970.0,408487.6,711944.5,178705.7,712459.8,189060.5,0.0
195628.1,218096.4,711971.4,408439.9,711946.1,178639.2,712461.3,188912.4,0.0
195950.7,218357.2,711981.3,408643.1,711955.5,178880.8,712470.8,189182.6,0.0
196254.0,218565.9,711987.7,408801.2,711962.0,179098.5,712477.0,189498.5,0.0
196116.4,218433.4,711978.4,408681.2,711952.8,178983.8,712467.8,189416.4,0.0
195734.9,218152.5,711971.7,408448.7,711945.6,178706.9,712460.9,189057.6,0.0
195628.2,218105.3,711974.5,408409.2,711948.3,178646.7,712463.7,188914.7,0.0
195939.8,218355.8,711984.1,408603.6,711958.4,178890.2,712473.9,189185.4,0.0
196245.1,218565.3,711990.6,408760.2,711964.6,179103.7,712480.3,189502.8,0.0
196113.9,218433.5,711983.9,408646.8,711957.9,178989.1,712473.3,189422.7,0.0
195726.7,218142.1,711973.2,408406.3,711947.4,178702.0,712462.6,189053.1,0.0
195625.3,218098.8,711974.4,408370.3,711948.1,178645.7,712463.8,188913.6,0.0
195933.9,218345.9,711982.7,408566.6,711956.5,178883.3,712471.8,189177.2,0.0
196228.6,218544.5,711988.1,408722.1,711962.4,179092.7,712477.4,189487.1,0.0
196099.5,218415.1,711979.9,408607.4,711954.3,178978.0,712469.6,189408.3,0.0
195728.2,218137.3,711970.5,408378.4,711944.5,178699.1,712460.2,189048.4,0.0
195624.2,218089.5,711973.2,408338.5,711947.4,178640.4,712463.1,188905.6,0.0
195941.3,218347.9,711984.6,408542.2,711958.9,178887.6,712474.3,189181.1,0.0
196240.3,218551.2,711989.0,408701.6,711963.8,179098.6,712478.6,189493.5,0.0
196117.0,218427.1,711984.4,408592.7,711958.8,178991.3,712474.1,189419.2,0.0
195738.8,218144.0,711973.4,408351.9,711947.4,178706.6,712462.9,189049.7,0.0
195637.6,218098.9,711975.2,408320.3,711948.9,178646.1,712464.7,188906.9,0.0
195943.0,218345.5,711978.9,408514.6,711953.5,178879.0,712468.9,189167.2,0.0
196240.6,218549.5,711983.8,408669.8,711958.4,179093.5,712473.9,189480.9,0.0
196117.8,218428.8,711978.6,408566.4,711952.3,178988.3,712467.9,189410.8,0.0
195729.7,218137.3,711967.6,408323.5,711941.2,178702.2,712456.9,189041.0,0.0
195628.1,218090.3,711969.2,408285.1,711943.3,178641.3,712459.0,188901.3,0.0
195950.1,218349.5,711981.8,408498.8,711955.5,178887.6,712471.1,189186.2,0.0
196243.2,218548.6,711987.7,408651.6,711960.9,179095.1,712476.8,189495.1,0.0
196112.5,218420.0,711980.5,408536.3,711953.7,178983.8,712469.6,189415.6,0.0
195733.3,218135.9,711970.8,408300.3,711944.1,178702.6,712460.2,189055.2,0.0
195637.8,218093.7,711973.6,408269.8,711947.3,178645.9,712462.9,188921.2,0.0
195956.5,218351.3,711984.4,408475.7,711958.6,178891.1,712473.9,189200.3,0.0
196250.7,218557.1,711990.6,408623.2,711964.7,179103.3,712480.1,189514.7,0.0
196113.9,218425.2,711984.1,408505.7,711957.8,178989.0,712473.1,189433.9,0.0
195731.3,218142.7,711975.3,408270.5,711949.5,178707.3,712464.6,189069.7,0.0
195630.6,218101.2,711981.1,408233.3,711955.5,178653.3,712470.6,188928.0,0.0
195949.3,218356.6,711991.0,408435.3,711965.1,178893.5,712480.7,189201.3,0.0
196247.8,218558.0,711995.3,408593.1,711969.7,179099.6,712485.1,189511.8,0.0
196108.3,218423.8,711985.5,408469.5,711959.8,178977.0,712475.2,189423.4,0.0
195718.0,218130.0,711972.2,408224.5,711946.1,178688.9,712461.5,189049.8,0.0
195621.0,218086.1,711975.6,408187.2,711949.3,178632.3,712464.9,188911.5,0.0
195947.0,218348.1,711989.6,408397.3,711963.4,178882.7,712479.3,189195.3,0.0
196247.3,218556.3,711996.4,408562.4,711970.1,179096.8,712486.1,189512.0,0.0
196112.3,218425.5,711985.3,408447.6,711959.1,178979.0,712475.3,189424.6,0.0
195729.4,218140.2,711974.1,408208.5,711948.1,178694.8,712463.9,189053.4,0.0
195625.4,218093.6,711973.6,408170.2,711947.6,178633.8,712463.1,188910.5,0.0
195940.4,218348.6,711983.0,408375.2,711956.9,178879.6,712472.7,189183.8,0.0
196240.4,218554.7,711990.1,408527.6,711964.0,179095.0,712480.1,189496.7,0.0
196115.0,218431.0,711982.5,408412.4,711956.1,178984.6,712471.8,189420.2,0.0
195734.1,218145.6,711972.5,408174.0,711945.5,178703.5,712462.0,189057.6,0.0
195626.3,218095.0,711972.3,408133.0,711945.8,178641.5,712461.5,188916.4,0.0
195943.5,218349.5,711982.6,408337.8,711956.4,178884.3,712472.0,189191.3,0.0
196253.0,218564.9,711991.3,408502.4,711965.1,179108.0,712480.9,189515.6,0.0
196116.1,218433.7,711983.4,408384.0,711957.1,178995.1,712472.8,189432.5,0.0
195725.8,218142.2,711971.8,408141.6,711945.5,178706.4,712461.4,189059.2,0.0
195619.1,218092.5,711971.4,408097.8,711945.0,178640.0,712460.9,188908.3,0.0
195935.5,218345.6,711981.9,408307.5,711955.6,178887.4,712471.0,189185.2,0.0
196239.3,218554.9,711987.1,408468.2,711960.9,179102.8,712476.4,189505.7,0.0
196101.8,218421.0,711977.2,408345.1,711951.2,178987.7,712466.9,189425.5,0.0
195719.8,218138.6,711969.5,408109.3,711943.3,178710.3,712458.9,189061.4,0.0
195619.6,218095.4,711971.9,408069.8,711945.5,178653.1,712461.4,188921.6,0.0
195941.6,218353.1,711983.6,408274.0,711957.8,178898.2,712473.6,189202.3,0.0
196238.4,218555.2,711990.3,408434.7,711964.4,179109.5,712479.9,189514.9,0.0
196106.0,218428.3,711984.0,408320.6,711957.9,178995.9,712473.6,189433.0,0.0
195729.4,218148.7,711975.6,408089.3,711949.3,178719.5,712465.0,189071.2,0.0
195624.4,218096.7,711976.7,408049.1,711950.8,178659.6,712466.6,188926.3,0.0
195946.1,218352.4,711988.7,408252.7,711962.4,178900.6,712478.0,189204.9,0.0
196244.9,218556.8,711992.9,408409.0,711966.7,179107.5,712482.2,189517.9,0.0
196105.5,218422.5,711983.8,408288.6,711957.8,178989.5,712473.1,189432.0,0.0
195721.2,218132.7,711972.6,408047.5,711946.9,178701.6,712462.2,189061.4,0.0
195621.9,218088.8,711974.8,408015.4,711948.6,178642.8,712464.1,188921.2,0.0
195945.1,218351.8,711988.3,408224.8,711962.0,178894.0,712477.6,189203.9,0.0
196234.6,218549.9,711990.1,408369.2,711964.0,179097.4,712479.3,189508.6,0.0
196098.9,218417.3,711979.2,408252.1,711952.8,178979.5,712468.1,189421.2,0.0
195720.7,218138.2,711967.8,408019.6,711941.7,178699.6,712457.1,189057.7,0.0
195626.9,218103.3,711972.6,407986.7,711946.4,178650.5,712461.8,188929.6,0.0
195945.1,218359.1,711985.9,408191.2,711959.5,178896.3,712475.5,189211.8,0.0
196233.7,218553.0,711989.1,408340.2,711963.0,179095.2,712479.1,189518.2,0.0
196093.8,218416.3,711977.7,408220.9,711951.8,178979.9,712467.5,189428.9,0.0
195720.4,218142.1,711971.1,407991.0,711945.2,178711.4,712460.8,189073.7,0.0
195616.8,218095.0,711977.1,407952.3,711951.4,178649.3,712466.9,188932.2,0.0
195938.5,218355.0,711987.9,408156.8,711962.4,178894.5,712477.8,189208.9,0.0
196241.3,218561.3,711994.2,408319.1,711968.3,179106.1,712483.9,189526.3,0.0
196100.3,218422.8,711984.0,408188.8,711957.8,178985.9,712473.8,189435.8,0.0
195712.7,218131.8,711973.4,407943.2,711947.0,178702.7,712463.1,189064.8,0.0
195608.9,218084.3,711975.2,407899.5,711948.8,178641.6,712465.3,188919.6,0.0
195925.1,218339.5,711986.1,408104.6,711960.1,178886.5,712475.7,189194.2,0.0
196225.2,218545.9,711993.5,408264.3,711967.8,179097.0,712483.3,189510.8,0.0
196093.0,218417.1,711983.8,408147.1,711958.1,178981.0,712473.8,189426.8,0.0
195697.4,218119.8,711964.1,407896.7,711937.9,178681.7,712453.8,189042.7,0.0
195593.5,218073.4,711964.7,407856.5,711938.6,178620.9,712454.2,188897.8,0.0
195922.6,218339.2,711981.1,408071.1,711955.3,178877.4,712470.6,189186.3,0.0
196233.9,218555.6,711991.3,408238.6,711965.3,179103.8,712480.9,189514.7,0.0
196095.6,218422.1,711981.4,408116.7,711955.6,178988.4,712470.9,189429.4,0.0
195717.3,218143.1,711974.4,407879.0,711948.3,178708.6,712464.1,189068.9,0.0
195615.7,218098.4,711977.4,407839.9,711951.4,178649.1,712466.9,188928.5,0.0
195930.5,218351.0,711987.3,408042.7,711961.2,178892.1,712477.0,189198.1,0.0
196228.7,218551.8,711992.1,408197.4,711965.9,179105.4,712481.4,189510.5,0.0
196091.5,218415.8,711983.8,408075.6,711957.3,178987.2,712472.8,189422.9,0.0
195701.9,218124.3,711972.6,407833.3,711946.3,178701.7,712461.7,189052.0,0.0
195601.2,218080.2,711972.8,407794.2,711946.8,178641.7,712461.9,188909.3,0.0
195920.0,218335.8,711983.8,407997.5,711957.8,178886.2,712473.0,189186.3,0.0
196217.3,218538.0,711990.4,408161.8,711964.1,179098.0,712479.7,189504.0,0.0
196083.9,218408.2,711982.6,408044.6,711956.5,178985.1,712472.0,189423.6,0.0
195696.2,218118.3,711971.6,407798.5,711945.8,178697.6,712461.3,189053.8,0.0
195589.7,218069.1,711973.6,407757.4,711947.2,178636.8,712463.1,188907.8,0.0
195915.9,218332.6,711986.8,407971.7,711960.4,178891.7,712476.1,189190.4,0.0
196213.3,218530.4,711989.8,408133.3,711964.0,179095.9,712479.3,189499.5,0.0
196071.1,218390.5,711980.2,408007.7,711954.4,178971.8,712469.9,189410.8,0.0
195683.1,218103.1,711969.6,407758.1,711943.5,178685.9,712459.5,189041.7,0.0
195581.4,218060.0,711971.7,407719.8,711945.2,178629.5,712461.0,188902.6,0.0
195907.3,218321.4,711984.9,407926.7,711958.5,178879.9,712474.3,189184.1,0.0
196205.6,218520.4,711991.6,408081.5,711964.9,179089.9,712480.6,189494.2,0.0
196073.5,218392.0,711983.2,407966.4,711956.3,178974.5,712472.4,189413.9,0.0
195686.3,218102.3,711971.3,407724.8,711944.5,178686.3,712460.4,189042.7,0.0
195582.8,218056.0,711972.9,407682.4,711946.4,178624.3,712462.3,188896.6,0.0
195908.5,218315.4,711987.1,407890.6,711960.4,178876.5,712476.4,189183.0,0.0
196210.9,218519.4,711993.9,408050.0,711967.3,179088.4,712483.0,189501.0,0.0
196079.9,218389.2,711985.9,407939.8,711959.3,178977.5,712475.2,189419.2,0.0
195683.2,218093.8,711972.5,407689.8,711946.1,178685.0,712461.7,189039.1,0.0
195581.7,218051.0,711974.4,407651.4,711947.9,178626.0,712463.8,188895.7,0.0
195913.8,218315.7,711988.4,407864.5,711961.8,178881.3,712477.7,189182.4,0.0
196210.9,218517.0,711993.3,408013.7,711966.4,179093.6,712482.1,189492.4,0.0
196071.7,218386.1,711985.8,407892.3,711959.1,178979.7,712474.8,189405.0,0.0
195685.9,218102.7,711977.5,407654.5,711950.8,178701.7,712466.6,189038.0,0.0
195584.6,218058.7,711981.1,407615.8,711954.5,178642.2,712470.4,188895.9,0.0
195908.1,218317.6,711993.5,407824.8,711966.8,178886.7,712482.8,189173.4,0.0
196211.1,218520.1,711996.4,407987.0,711969.6,179097.0,712485.7,189485.7,0.0
196076.2,218388.5,711984.6,407867.3,711957.6,178983.0,712473.7,189398.5,0.0
195689.9,218103.3,711973.8,407621.9,711947.0,178698.5,712462.7,189025.8,0.0
195588.4,218060.8,711977.1,407586.3,711950.4,178639.2,712466.2,188886.6,0.0
195907.2,218318.5,711988.2,407793.2,711961.4,178882.8,712477.8,189165.4,0.0
196204.2,218518.8,711991.1,407946.4,711964.5,179088.9,712480.6,189474.5,0.0
196076.3,218393.2,711983.6,407834.4,711957.4,178977.4,712472.9,189395.5,0.0
195698.2,218115.6,711975.9,407603.7,711949.3,178697.5,712464.9,189035.1,0.0
195601.9,218075.3,711979.8,407566.8,711953.2,178642.5,712468.7,188897.5,0.0
195915.9,218325.3,711991.1,407766.4,711964.4,178887.8,712480.1,189176.1,0.0
196217.9,218532.0,711996.4,407929.7,711970.1,179101.4,712485.8,189494.7,0.0
196088.7,218406.2,711987.1,407813.2,711961.0,178988.0,712476.8,189410.8,0.0
195693.8,218110.2,711973.8,407566.6,711947.5,178693.8,712463.1,189030.8,0.0
195583.0,218059.7,711976.6,407517.7,711950.1,178629.5,712465.8,188882.5,0.0
195911.3,218322.8,711989.8,407731.0,711963.6,178884.0,712479.1,189168.3,0.0
196216.3,218529.4,711996.2,407892.5,711970.1,179101.5,712485.4,189486.8,0.0
196073.2,218385.9,711984.4,407767.9,711958.4,178978.9,712473.6,189393.8,0.0
195678.5,218093.3,711973.8,407523.6,711947.9,178692.0,712463.1,189020.8,0.0
195571.3,218044.2,711975.8,407479.8,711949.9,178629.6,712464.9,188876.1,0.0
195893.7,218302.7,711987.3,407691.2,711961.0,178880.0,712475.9,189158.9,0.0
196201.9,218513.4,711992.3,407858.1,711965.9,179094.5,712481.2,189478.3,0.0
196069.3,218382.9,711984.6,407734.1,711958.4,178979.9,712473.6,189396.3,0.0
195682.0,218096.5,711973.9,407491.3,711947.9,178696.2,712462.4,189026.8,0.0
195570.1,218043.6,711975.9,407450.7,711949.9,178637.5,712464.7,188879.2,0.0
195887.2,218299.8,711987.3,407655.6,711961.3,178884.5,712475.8,189156.1,0.0
196194.6,218511.0,711993.1,407815.3,711967.1,179094.1,712482.1,189474.2,0.0
196066.0,218382.5,711990.3,407701.1,711964.4,178985.0,712479.3,189397.9,0.0
195680.8,218094.8,711980.3,407461.9,711954.3,178700.3,712469.3,189030.3,0.0
195578.6,218053.2,711981.7,407424.7,711955.6,178637.5,712470.6,188888.3,0.0
195894.9,218309.2,711991.3,407627.3,711965.1,178879.0,712480.2,189161.4,0.0
196182.4,218499.9,711991.3,407775.0,711965.1,179079.4,712480.5,189461.8,0.0
196045.0,218366.6,711982.5,407658.5,711956.6,178964.0,712471.8,189375.2,0.0
195673.3,218093.1,711976.3,407428.6,711950.4,178694.3,712465.3,189017.1,0.0
195572.5,218047.5,711979.0,407395.3,711953.4,178637.5,712468.3,188877.9,0.0
195888.2,218303.1,711988.9,407592.5,711963.6,178883.2,712478.7,189155.5,0.0
196190.5,218510.3,711995.6,407746.3,711969.4,179093.9,712484.6,189471.0,0.0
196054.4,218373.1,711984.9,407627.9,711958.6,178974.2,712473.8,189383.5,0.0
195670.4,218084.0,711975.4,407391.2,711949.7,178692.9,712464.7,189014.5,0.0
195557.3,218028.6,711976.5,407348.4,711950.9,178623.9,712466.1,188865.5,0.0
195882.2,218290.8,711988.4,407560.5,711962.9,178870.6,712477.8,189144.4,0.0
196191.8,218500.3,711996.5,407720.3,711970.9,179086.5,712485.8,189465.6,0.0
196053.5,218364.0,711986.7,407597.0,711960.6,178967.2,712475.6,189381.4,0.0
195663.4,218077.5,711974.1,407353.3,711947.9,178682.4,712463.1,189012.4,0.0
195561.0,218030.9,711977.9,407310.8,711952.0,178623.4,712467.3,188870.3,0.0
195879.0,218285.1,711987.5,407510.4,711961.9,178863.9,712477.0,189143.9,0.0
196186.7,218498.4,711994.1,407678.2,711968.1,179083.9,712483.7,189469.2,0.0
196053.3,218372.6,711988.2,407564.2,711962.0,178974.8,712477.2,189390.5,0.0
195666.1,218084.5,711979.0,407327.3,711952.4,178692.2,712467.4,189021.2,0.0
195558.0,218033.1,711977.1,407282.6,711950.6,178628.0,712465.8,188870.5,0.0
195873.1,218286.7,711986.7,407483.3,711960.4,178871.1,712475.8,189143.7,0.0
196179.7,218496.3,711995.1,407645.0,711968.3,179089.6,712484.1,189466.6,0.0
196039.7,218362.6,711986.9,407525.3,711960.1,178970.8,712475.6,189382.8,0.0
195655.3,218077.0,711976.3,407286.2,711949.5,178684.5,712464.7,189010.8,0.0
195549.8,218030.4,711977.1,407247.7,711950.6,178623.6,712466.2,188864.7,0.0
195867.3,218285.8,711986.4,407452.4,711959.9,178870.5,712475.8,189141.7,0.0
196175.0,218493.5,711994.0,407612.5,711968.0,179086.2,712483.2,189466.2,0.0
196035.5,218355.9,711985.3,407490.0,711959.4,178962.9,712474.7,189377.6,0.0
195647.6,218068.0,711974.3,407251.7,711948.3,178676.6,712463.8,189008.6,0.0
195557.6,218035.0,711979.2,407224.3,711953.0,178628.7,712468.3,188879.3,0.0
195881.8,218295.3,711992.3,407437.7,711965.8,178877.2,712481.4,189162.3,0.0
196174.5,218495.5,711995.0,407586.8,711968.6,179080.9,712484.1,189469.1,0.0
196040.9,218367.9,711988.8,407465.9,711962.8,178968.5,712477.8,189388.7,0.0
195654.1,218079.5,711978.4,407222.8,711951.9,178684.9,712467.2,189021.7,0.0
195548.1,218029.6,711981.3,407183.0,711954.3,178625.1,712469.8,188881.0,0.0
195860.6,218280.3,711993.4,407382.9,711966.9,178864.4,712482.4,189152.4,0.0
196164.1,218484.9,711997.6,407539.7,711971.3,179077.3,712486.6,189465.7,0.0
196039.3,218362.4,711993.8,407434.2,711968.2,178975.3,712483.2,189395.2,0.0
195655.4,218080.1,711985.0,407196.9,711958.8,178693.2,712473.9,189030.3,0.0
195546.1,218027.9,711983.3,407151.8,711956.8,178625.9,712472.0,188881.1,0.0
195866.0,218281.0,711992.1,407354.8,711965.9,178868.1,712481.0,189154.2,0.0
196167.0,218483.6,711996.9,407511.1,711970.4,179079.6,712485.9,189465.7,0.0
196028.7,218349.6,711988.1,407392.0,711961.6,178962.3,712477.3,189380.3,0.0
195639.5,218062.6,711977.8,407150.8,711951.4,178676.0,712466.8,189011.9,0.0
195534.8,218015.9,711979.6,407111.5,711953.3,178621.8,712468.7,188869.5,0.0
195857.6,218274.4,711987.1,407315.4,711961.0,178872.2,712476.6,189146.7,0.0
196158.4,218475.2,711990.3,407474.8,711963.9,179078.3,712479.7,189458.4,0.0
196021.6,218340.5,711980.9,407354.7,711954.8,178954.0,712469.9,189369.5,0.0
195633.1,218055.0,711968.4,407113.7,711942.1,178667.3,712457.1,188995.5,0.0
195532.8,218010.6,711970.9,407077.2,711945.0,178610.5,712459.8,188854.5,0.0
195856.6,218267.6,711983.2,407282.3,711956.8,178857.6,712472.1,189135.7,0.0
196159.2,218473.0,711988.9,407441.6,711963.1,179070.0,712477.9,189453.8,0.0
196027.0,218345.2,711982.3,407326.9,711956.3,178959.6,712471.4,189374.7,0.0
195639.1,218055.8,711971.3,407083.6,711945.1,178678.3,712460.4,189005.4,0.0
195544.6,218019.3,711977.7,407049.9,711951.2,178629.7,712466.4,188873.4,0.0
195867.7,218279.4,711990.2,407256.7,711964.0,178877.5,712479.6,189151.4,0.0
196163.7,218478.2,711995.9,407412.3,711969.5,179084.5,712485.1,189463.5,0.0
196027.1,218344.7,711988.8,407294.4,711961.9,178967.0,712477.8,189380.6,0.0
195644.7,218058.1,711978.1,407057.4,711951.8,178683.7,712467.7,189013.6,0.0
195535.8,218008.3,711977.6,407012.3,711951.0,178618.9,712466.7,188864.4,0.0
195852.3,218266.3,711988.6,407213.9,711962.2,178863.2,712477.6,189139.6,0.0
196155.7,218474.4,711995.8,407373.3,711969.5,179073.4,712484.7,189454.4,0.0
196022.0,218342.8,711986.1,407258.9,711959.9,178957.1,712475.2,189374.0,0.0
195634.7,218056.0,711976.9,407021.0,711950.5,178676.6,712465.8,189006.9,0.0
195535.7,218008.9,711980.5,406987.1,711953.8,178619.7,712469.1,188867.6,0.0
195856.6,218264.3,711992.6,407190.6,711966.3,178867.4,712481.4,189147.9,0.0
196150.3,218464.3,711997.3,407346.6,711971.6,179078.9,712486.6,189459.8,0.0
196019.6,218338.8,711989.3,407233.3,711963.7,178966.8,712478.3,189381.5,0.0
195627.8,218046.0,711978.1,406988.6,711951.8,178677.8,712466.7,189008.9,0.0
195524.2,217999.8,711980.1,406953.5,711953.5,178620.8,712468.8,188870.7,0.0
195851.6,218265.4,711993.5,407169.8,711967.4,178877.8,712482.4,189159.0,0.0
196156.5,218473.6,711998.1,407332.3,711972.0,179091.5,712487.0,189473.8,0.0
196020.7,218340.0,711989.1,407214.1,711962.8,178971.6,712478.3,189384.9,0.0
195625.6,218045.8,711975.0,406958.5,711948.4,178677.3,712464.1,189005.7,0.0
195525.8,218004.8,711978.6,406920.8,711951.8,178621.7,712467.5,188865.9,0.0
195847.0,218263.7,711990.1,407129.3,711963.6,178866.4,712479.3,189145.4,0.0
196147.3,218469.5,711994.0,407291.0,711967.4,179077.9,712483.0,189462.6,0.0
196013.5,218340.7,711987.6,407173.2,711960.7,178962.5,712476.4,189380.3,0.0
195623.9,218053.3,711977.2,406931.8,711950.6,178676.2,712466.3,189010.2,0.0
195521.1,218004.7,711977.8,406893.9,711951.1,178613.2,712466.4,188867.5,0.0
195843.0,218264.3,711988.1,407099.8,711961.8,178859.8,712477.1,189148.6,0.0
196149.0,218476.2,711995.8,407263.7,711969.2,179075.5,712484.3,189469.7,0.0
196015.5,218344.6,711987.1,407149.8,711960.4,178960.5,712475.2,189383.7,0.0
195626.0,218055.3,711976.5,406900.0,711949.5,178677.3,712464.7,189012.7,0.0
195519.7,218008.3,711980.2,406858.0,711953.2,178615.8,712468.4,188871.0,0.0
195841.3,218269.4,711993.3,407070.2,711966.9,178867.1,712482.1,189154.2,0.0
196139.8,218473.0,711998.9,407229.0,711972.6,179082.5,712488.1,189469.2,0.0
196006.4,218341.4,711989.3,407112.9,711962.8,178968.1,712478.3,189384.6,0.0
195624.2,218054.3,711980.5,406869.9,711953.9,178683.4,712469.4,189017.7,0.0
195519.5,218005.0,711981.1,406825.4,711954.3,178618.2,712469.5,188871.4,0.0
195845.9,218267.6,711993.6,407040.6,711966.8,178872.2,712482.4,189153.9,0.0
196146.2,218470.8,712000.4,407198.6,711973.6,179085.8,712488.7,189471.4,0.0
196005.4,218331.6,711992.5,407079.2,711966.2,178965.5,712481.2,189387.0,0.0
195622.9,218051.7,711983.8,406843.7,711957.6,178683.7,712472.4,189025.4,0.0
195515.7,218005.6,711982.1,406797.0,711956.4,178616.8,712471.0,188876.5,0.0
195835.9,218261.4,711992.9,407002.1,711967.0,178860.1,712481.9,189150.1,0.0
196138.6,218464.4,712000.3,407163.0,711974.1,179069.0,712489.3,189465.6,0.0
196001.5,218331.8,711989.4,407045.2,711962.9,178952.1,712478.3,189381.3,0.0
195614.0,218047.5,711977.7,406798.8,711951.1,178671.3,712466.9,189012.9,0.0
195510.2,218000.8,711977.7,406756.5,711951.4,178611.6,712466.8,188869.4,0.0
195832.6,218259.3,711991.5,406966.3,711965.1,178861.3,712480.9,189153.3,0.0
196137.7,218467.6,711996.9,407130.6,711970.4,179077.1,712486.1,189475.4,0.0
196004.4,218335.3,711987.3,407008.1,711960.7,178962.0,712476.4,189392.1,0.0
195613.3,218044.4,711974.8,406761.6,711948.6,178673.3,712463.9,189018.2,0.0
195504.4,217991.8,711974.4,406717.4,711948.0,178607.0,712463.6,188869.4,0.0
195830.2,218251.8,711987.1,406930.1,711960.7,178858.8,712476.3,189149.9,0.0
196139.4,218462.6,711995.1,407094.7,711968.6,179079.2,712484.1,189472.9,0.0
196005.1,218331.8,711987.7,406977.7,711961.1,178963.0,712476.4,189391.1,0.0
195617.7,218046.6,711975.8,406735.6,711949.4,178675.3,712464.7,189022.3,0.0
195516.4,218003.2,711976.5,406695.7,711950.1,178619.0,712465.6,188882.4,0.0
195838.0,218257.5,711988.8,406903.2,711962.4,178865.0,712477.6,189158.5,0.0
196145.3,218463.5,711996.4,407071.4,711970.3,179080.6,712485.4,189476.8,0.0
196006.1,218325.1,711985.4,406939.0,711958.6,178958.5,712474.1,189388.2,0.0
195621.0,218039.8,711973.4,406701.6,711946.8,178673.9,712462.4,189021.9,0.0
195515.7,217990.7,711977.8,406662.6,711951.6,178616.5,712467.2,188879.8,0.0
195836.0,218249.8,711990.1,406868.3,711963.9,178862.3,712479.3,189158.0,0.0
196130.8,218445.5,711992.1,407022.3,711965.5,179068.4,712480.9,189465.2,0.0
195994.0,218314.1,711982.7,406904.2,711956.1,178956.4,712471.6,189379.5,0.0
195609.3,218028.1,711973.6,406661.8,711947.2,178679.9,712462.4,189012.3,0.0
195500.1,217972.1,711974.8,406616.6,711948.7,178609.1,712463.6,188861.0,0.0
195825.5,218233.1,711988.1,406831.7,711962.2,178858.8,712476.8,189149.2,0.0
196129.0,218442.2,711996.4,406994.0,711970.4,179076.3,712485.9,189471.5,0.0
195992.7,218313.0,711987.1,406879.4,711961.1,178962.0,712476.4,189388.0,0.0
195614.8,218035.6,711975.4,406642.0,711949.5,178679.5,712464.6,189024.1,0.0
195505.4,217982.8,711976.7,406589.6,711950.8,178615.1,712465.4,188876.6,0.0
195828.2,218241.3,711988.8,406796.0,711962.4,178864.0,712477.6,189154.8,0.0
196125.8,218443.5,711991.3,406952.1,711964.9,179073.6,712480.4,189466.9,0.0
195987.5,218308.2,711981.5,406836.4,711955.3,178956.2,712470.6,189384.4,0.0
195590.8,218011.4,711970.4,406590.8,711943.9,178667.2,712459.5,189011.6,0.0
195494.6,217973.8,711974.5,406556.6,711947.5,178611.5,712463.5,188875.3,0.0
195819.3,218234.9,711989.2,406767.0,711962.3,178861.4,712477.9,189158.4,0.0
196115.6,218434.3,711993.6,406921.2,711967.0,179068.7,712482.6,189471.2,0.0
195980.7,218302.2,711985.0,406803.8,711958.4,178956.6,712473.9,189390.9,0.0
195595.1,218018.1,711974.1,406565.6,711947.6,178674.3,712462.9,189024.5,0.0
195482.2,217965.4,711974.3,406524.5,711947.6,178608.9,712463.1,188872.4,0.0
195802.0,218223.1,711986.1,406731.4,711959.7,178856.3,712474.9,189154.2,0.0
196108.5,218434.3,711994.2,406891.3,711967.6,179072.8,712483.4,189477.1,0.0
195970.4,218300.3,711984.4,406773.4,711957.6,178952.5,712473.3,189389.8,0.0
195589.9,218018.4,711975.9,406537.3,711949.3,178672.1,712465.2,189025.9,0.0
195482.4,217967.2,711975.9,406486.1,711949.1,178605.0,712464.9,188875.0,0.0
195803.0,218222.0,711983.2,406692.8,711956.6,178847.6,712472.3,189146.4,0.0
196105.6,218428.6,711986.6,406853.3,711960.3,179060.3,712475.6,189462.8,0.0
195974.8,218300.3,711978.9,406739.2,711952.4,178948.5,712467.8,189384.6,0.0
195584.6,218006.7,711966.1,406496.7,711939.4,178663.0,712455.3,189008.9,0.0
195478.6,217956.7,711967.9,406457.0,711940.9,178597.8,712456.9,188861.8,0.0
195802.3,218219.2,711980.6,406666.4,711953.5,178845.4,712469.4,189142.9,0.0
196108.2,218430.7,711988.7,406828.6,711961.9,179061.9,712477.4,189463.0,0.0
195973.2,218297.6,711978.8,406713.9,711952.2,178942.8,712467.6,189374.9,0.0
195590.5,218013.0,711967.6,406474.7,711941.2,178659.5,712456.4,189005.1,0.0
195490.7,217970.9,711970.9,406435.3,711944.5,178603.2,712459.8,188863.4,0.0
195809.4,218228.0,711983.8,406643.2,711957.9,178854.3,712473.0,189144.6,0.0
196101.2,218423.3,711986.6,406791.3,711960.3,179057.7,712475.6,189449.7,0.0
195962.9,218289.9,711978.8,406674.0,711952.1,178939.0,712467.6,189361.1,0.0
195579.4,218005.5,711969.9,406435.3,711943.4,178655.4,712459.0,188995.5,0.0
195474.4,217955.6,711972.0,406395.0,711945.6,178593.8,712460.8,188851.3,0.0
195798.0,218215.3,711984.3,406606.4,711957.4,178841.6,712472.7,189131.8,0.0
196104.7,218427.1,711991.3,406771.7,711964.8,179060.4,712480.1,189453.4,0.0
195969.8,218293.8,711983.0,406656.3,711956.1,178945.5,712471.6,189372.2,0.0
195580.7,218001.6,711972.6,406415.8,711945.6,178660.3,712461.2,189003.8,0.0
195473.5,217955.1,711975.2,406374.8,711948.6,178598.8,712464.3,188863.4,0.0
195793.3,218214.9,711987.1,406578.0,711960.3,178843.3,712475.8,189143.6,0.0
196090.9,218416.2,711991.5,406732.5,711964.9,179053.9,712480.1,189455.0,0.0
195957.2,218288.0,711981.8,406616.2,711955.3,178942.6,712470.6,189367.7,0.0
195575.0,218004.0,711971.1,406380.6,711944.3,178663.4,712459.9,188997.1,0.0
195470.4,217955.7,711972.8,406336.7,711946.2,178602.7,712461.6,188854.0,0.0
195801.8,218225.8,711990.0,406555.4,711963.6,178858.1,712478.9,189145.4,0.0
196099.6,218428.2,711996.4,406713.5,711970.0,179065.7,712485.4,189460.5,0.0
195965.3,218297.0,711989.3,406591.8,711963.0,178951.5,712478.4,189379.5,0.0
195578.9,218008.5,711979.8,406349.5,711953.4,178669.8,712468.1,189014.2,0.0
195470.3,217956.6,711978.0,406301.2,711951.6,178601.1,712466.4,188862.0,0.0
195785.9,218207.4,711986.7,406505.1,711960.1,178838.8,712475.3,189132.4,0.0
196086.0,218408.7,711991.9,406659.8,711965.6,179047.7,712480.9,189445.3,0.0
195956.0,218280.6,711981.6,406545.5,711954.9,178935.3,712470.6,189360.0,0.0
195581.2,218001.4,711972.8,406311.0,711945.8,178660.3,712461.3,189000.8,0.0
195479.3,217953.3,711973.8,406269.9,711946.8,178599.7,712462.3,188857.8,0.0
195795.8,218205.9,711982.3,406474.8,711955.4,178834.2,712470.8,189129.8,0.0
196093.5,218406.3,711988.1,406635.8,711961.3,179044.1,712476.6,189443.8,0.0
195970.5,218288.3,711981.9,406522.6,711955.3,178937.0,712470.2,189371.9,0.0
195588.3,218005.4,711970.9,406282.7,711944.3,178655.6,712459.0,189008.1,0.0
195481.0,217952.0,711972.5,406240.8,711946.1,178593.9,712461.4,188863.5,0.0
195794.4,218203.9,711980.8,406441.4,711954.6,178836.0,712470.1,189136.8,0.0
196099.4,218413.9,711988.8,406607.8,711961.9,179055.5,712477.6,189454.7,0.0
195971.7,218288.7,711984.1,406499.2,711957.1,178948.4,712473.0,189380.3,0.0
195582.5,217998.0,711972.9,406254.2,711945.8,178663.5,712461.4,189011.2,0.0
195475.8,217950.5,711974.4,406210.6,711947.4,178604.2,712462.9,188865.9,0.0
195801.8,218214.5,711986.6,406418.8,711959.9,178857.1,712475.4,189145.8,0.0
196103.1,218418.5,711992.8,406578.5,711965.9,179067.5,712481.4,189462.4,0.0
195970.1,218291.1,711983.0,406463.9,711956.4,178951.6,712471.6,189383.2,0.0
195587.0,218006.2,711973.6,406227.1,711946.8,178668.0,712461.8,189017.1,0.0
195481.9,217959.1,711976.5,406188.8,711949.9,178609.5,712465.2,188875.5,0.0
195794.9,218213.7,711986.5,406383.3,711960.3,178851.5,712475.1,189146.2,0.0
196083.5,218407.8,711987.4,406533.5,711961.0,179054.0,712476.3,189446.4,0.0
195951.9,218281.9,711978.0,406422.5,711951.6,178942.8,712467.3,189364.1,0.0
195587.3,218016.2,711973.9,406197.3,711947.3,178679.2,712462.9,189016.9,0.0
195487.8,217973.4,711977.7,406160.7,711950.8,178623.5,712466.0,188879.0,0.0
195808.7,218228.7,711991.2,406371.1,711964.3,178872.0,712479.6,189158.4,0.0
196112.5,218438.2,712001.1,406534.6,711974.4,179091.7,712489.9,189479.6,0.0
195969.9,218300.2,711991.9,406412.2,711964.9,178966.7,712480.5,189389.5,0.0
195571.3,218001.6,711974.9,406164.2,711947.8,178670.8,712463.6,189008.7,0.0
195459.0,217948.8,711973.4,406118.1,711946.6,178604.4,712462.3,188857.1,0.0
195781.0,218206.1,711984.8,406325.1,711958.0,178851.4,712473.8,189131.9,0.0
196084.8,218413.5,711991.7,406483.1,711964.9,179066.4,712480.4,189447.6,0.0
195954.5,218283.1,711983.3,406369.4,711956.2,178947.9,712471.6,189366.3,0.0
195569.1,217991.3,711971.5,406128.8,711944.5,178661.4,712460.1,188995.7,0.0
195467.3,217945.5,711972.1,406084.0,711945.6,178603.7,712460.9,188851.5,0.0
195795.4,218209.4,711986.1,406296.3,711959.3,178855.9,712474.8,189136.6,0.0
196102.6,218414.5,711993.1,406459.3,711966.1,179067.7,712481.3,189454.4,0.0
195970.5,218290.1,711985.1,406346.5,711958.3,178957.5,712473.8,189376.8,0.0
195580.8,218001.3,711975.0,406102.9,711948.0,178670.6,712463.5,189005.8,0.0
195476.8,217953.1,711973.2,406064.0,711946.1,178606.7,712461.8,188859.4,0.0
195795.3,218208.6,711983.5,406271.0,711956.4,178851.3,712472.0,189135.8,0.0
196095.5,218409.5,711990.1,406431.9,711963.0,179064.6,712478.4,189452.8,0.0
195965.7,218282.3,711981.5,406319.3,711954.5,178952.0,712470.0,189371.8,0.0
195581.2,217998.7,711970.1,406082.2,711943.6,178671.2,712458.7,189004.8,0.0
195471.3,217946.6,711970.7,406043.0,711943.9,178609.3,712459.4,188859.7,0.0
195790.5,218202.4,711983.0,406254.9,711956.1,178857.1,712472.0,189139.0,0.0
196093.1,218409.9,711991.0,406411.6,711964.0,179075.3,712479.8,189459.1,0.0
195965.4,218284.0,711985.4,406301.3,711958.1,178965.0,712473.7,189384.5,0.0
195577.9,217998.0,711975.0,406058.6,711948.0,178678.2,712463.6,189020.0,0.0
195471.6,217950.5,711975.9,406017.1,711949.3,178618.3,712464.9,188877.8,0.0
195787.9,218204.8,711986.8,406219.9,711960.1,178859.3,712475.8,189152.4,0.0
196090.0,218410.6,711994.2,406372.3,711967.4,179068.0,712483.2,189465.3,0.0
195958.3,218279.8,711986.7,406255.8,711959.9,178952.2,712475.5,189382.8,0.0
195562.6,217981.2,711971.9,406009.2,711945.2,178657.0,712460.4,189002.3,0.0
195456.2,217927.1,711971.6,405969.7,711945.1,178589.2,712459.8,188854.9,0.0
195780.1,218183.8,711982.9,406180.2,711956.4,178838.6,712471.6,189135.2,0.0
196081.8,218386.9,711988.4,406341.8,711961.8,179053.6,712477.4,189451.8,0.0
195954.7,218265.2,711980.6,406231.3,711953.9,178944.8,712469.5,189375.0,0.0
195571.7,217981.6,711972.4,405993.3,711945.3,178665.6,712461.4,189013.3,0.0
195463.6,217931.0,711972.3,405941.8,711945.2,178601.7,712460.8,188864.6,0.0
195776.4,218185.3,711982.4,406141.4,711955.7,178841.3,712470.9,189131.3,0.0
196080.5,218391.7,711988.2,406302.7,711961.2,179052.6,712476.8,189445.8,0.0
195948.3,218264.2,711980.4,406190.7,711953.3,178943.6,712468.5,189369.4,0.0
195564.5,217982.2,711972.3,405955.0,711945.5,178665.7,712460.6,189007.7,0.0
195464.4,217941.0,711977.4,405919.2,711950.3,178612.3,712465.8,188870.1,0.0
195781.0,218194.5,711989.2,406122.5,711962.2,178854.5,712478.1,189144.2,0.0
196077.5,218395.0,711992.3,406276.3,711965.3,179060.2,712480.9,189453.8,0.0
195947.4,218265.9,711980.4,406161.4,711953.8,178942.3,712468.9,189370.6,0.0
195555.4,217975.9,711967.3,405917.6,711940.8,178652.9,712455.8,189000.5,0.0
195444.8,217925.9,711969.4,405870.7,711942.7,178587.9,712457.7,188848.7,0.0
195771.3,218188.3,711982.6,406081.7,711955.8,178839.2,712471.0,189128.5,0.0
196080.2,218398.0,711988.7,406249.5,711961.7,179059.8,712477.3,189449.5,0.0
195954.3,218275.1,711983.1,406144.5,711955.9,178954.0,712471.6,189378.2,0.0
195565.1,217988.3,711973.6,405899.9,711946.8,178668.0,712462.0,189014.8,0.0
195455.0,217935.1,711976.9,405851.5,711949.9,178602.0,712465.2,188869.4,0.0
195774.9,218191.5,711989.6,406056.0,711962.2,178847.0,712477.9,189148.4,0.0
196070.8,218389.6,711991.6,406207.0,711964.2,179051.1,712480.3,189455.0,0.0
195936.8,218257.0,711979.7,406087.9,711952.6,178931.7,712468.3,189367.2,0.0
195553.6,217973.7,711968.3,405850.3,711941.4,178650.9,712456.8,188998.0,0.0
195447.5,217925.9,711969.6,405812.6,711943.1,178595.0,712458.4,188853.1,0.0
195767.1,218184.4,711982.3,406022.8,711955.3,178846.1,712470.6,189132.3,0.0
196073.0,218393.5,711988.6,406185.8,711961.6,179060.3,712476.9,189453.9,0.0
195948.4,218270.2,711983.6,406071.2,711956.5,178950.2,712471.6,189377.3,0.0
195564.5,217985.0,711971.1,405832.4,711943.7,178665.6,712459.5,189008.9,0.0
195461.8,217938.2,711972.8,405792.2,711945.6,178605.9,712461.3,188868.7,0.0
195776.3,218189.3,711988.6,405994.3,711961.6,178851.6,712477.2,189147.8,0.0
196070.3,218385.1,711994.0,406149.8,711966.9,179058.8,712482.8,189454.6,0.0
195936.8,218253.4,711983.2,406025.6,711956.3,178942.7,712472.0,189368.8,0.0
195546.8,217966.7,711972.6,405784.6,711945.8,178659.1,712460.8,189004.3,0.0
195439.3,217919.1,711975.2,405744.4,711948.1,178600.1,712463.3,188862.1,0.0
195756.5,218171.5,711985.4,405947.3,711958.5,178841.4,712473.9,189132.5,0.0
196056.8,218376.2,711988.8,406102.4,711962.0,179050.3,712477.4,189444.3,0.0
195937.2,218253.9,711982.4,405997.8,711955.3,178946.0,712470.9,189375.7,0.0
195552.9,217965.7,711973.2,405762.8,711946.0,178665.8,712461.8,189012.4,0.0
195445.5,217915.1,711975.6,405717.5,711948.5,178603.8,712464.4,188868.8,0.0
195764.2,218171.7,711988.4,405924.5,711961.2,178844.7,712477.0,189143.2,0.0
196067.8,218379.7,711995.4,406085.0,711968.8,179059.4,712484.3,189460.6,0.0
195936.9,218249.7,711984.9,405971.6,711958.4,178944.9,712473.7,189381.9,0.0
195547.5,217961.6,711971.1,405730.7,711944.9,178655.6,712459.8,189012.7,0.0
195443.0,217913.3,711972.3,405689.3,711946.4,178595.1,712461.0,188870.2,0.0
195760.5,218169.9,711984.0,405889.6,711957.8,178841.3,712472.7,189146.8,0.0
196061.8,218374.7,711990.3,406046.6,711963.6,179054.6,712478.6,189461.0,0.0
195930.3,218244.5,711981.4,405929.8,711954.6,178944.1,712469.9,189377.9,0.0
195546.8,217957.9,711971.4,405691.4,711944.1,178665.8,712459.6,189012.3,0.0
195439.2,217906.8,711974.4,405649.1,711947.4,178601.4,712462.6,188869.2,0.0
195757.3,218160.9,711984.4,405855.1,711957.4,178845.2,712472.5,189147.1,0.0
196058.7,218365.4,711989.4,406016.8,711962.3,179060.4,712477.2,189463.9,0.0
195930.1,218240.1,711981.1,405904.9,711954.4,178949.4,712469.3,189385.1,0.0
195549.5,217958.0,711973.4,405668.5,711946.6,178671.6,712461.5,189026.9,0.0
195439.9,217907.0,711973.6,405620.5,711946.9,178604.4,712462.2,188875.1,0.0
195756.9,218161.7,711984.8,405824.0,711957.4,178843.3,712472.9,189145.7,0.0
196067.4,218372.7,711991.3,405992.8,711964.2,179057.0,712479.6,189462.9,0.0
195936.7,218240.8,711982.6,405879.5,711956.2,178942.8,712471.0,189383.5,0.0
195543.1,217946.3,711971.1,405631.8,711944.3,178654.7,712459.6,189012.4,0.0
195441.7,217904.6,711971.3,405594.1,711944.3,178596.8,712459.8,188868.9,0.0
195761.6,218164.8,711981.3,405799.3,711954.4,178844.6,712470.0,189145.1,0.0
196066.3,218374.0,711988.8,405959.1,711961.8,179058.8,712477.9,189466.1,0.0
195940.0,218251.2,711983.1,405847.7,711956.4,178956.4,712471.6,189393.5,0.0
195550.6,217963.0,711973.4,405607.2,711946.8,178674.3,712462.3,189024.5,0.0
195446.6,217919.1,711977.6,405568.0,711950.7,178613.2,712466.3,188882.6,0.0
195759.6,218170.4,711989.4,405769.0,711962.9,178854.3,712478.7,189153.6,0.0
196062.1,218373.4,711992.3,405929.3,711965.6,179066.6,712481.4,189466.6,0.0
195939.3,218250.1,711984.8,405817.1,711957.8,178956.2,712473.4,189386.6,0.0
195554.6,217963.4,711973.6,405575.9,711946.6,178674.9,712462.3,189017.4,0.0
195444.5,217913.4,711974.3,405532.3,711947.3,178613.5,712462.9,188868.9,0.0
195756.3,218165.0,711985.4,405740.0,711958.4,178851.4,712474.3,189137.9,0.0
196053.6,218366.4,711990.4,405891.8,711963.8,179058.8,712479.9,189450.8,0.0
195919.7,218236.0,711982.1,405775.5,711954.9,178946.1,712470.8,189374.5,0.0
195535.8,217952.4,711972.0,405540.3,711944.6,178664.0,712460.6,189011.9,0.0
195431.8,217903.1,711973.4,405499.5,711946.1,178603.4,712462.3,188863.1,0.0
195756.5,218162.7,711988.8,405710.2,711962.2,178853.0,712477.7,189142.5,0.0
196055.5,218366.0,711991.8,405866.2,711965.1,179058.0,712480.6,189454.5,0.0
195923.4,218236.2,711984.4,405754.4,711957.1,178942.1,712473.0,189371.1,0.0
195536.5,217947.7,711974.0,405515.8,711947.0,178659.1,712462.9,189004.9,0.0
195428.7,217898.0,711975.8,405473.0,711948.7,178596.7,712464.8,188856.4,0.0
195747.6,218156.9,711985.8,405678.5,711959.0,178840.5,712474.9,189129.5,0.0
196050.2,218359.4,711993.2,405838.1,711966.2,179047.1,712482.1,189443.5,0.0
195922.8,218229.7,711985.3,405729.5,711958.0,178932.5,712473.9,189365.2,0.0
195535.8,217940.3,711972.9,405485.6,711945.8,178648.7,712461.4,188998.9,0.0
195426.5,217888.8,711972.3,405439.1,711945.5,178584.9,712460.9,188849.0,0.0
195748.5,218147.0,711984.4,405649.0,711957.6,178832.1,712473.3,189123.8,0.0
196054.3,218359.7,711988.8,405811.6,711961.8,179046.4,712477.6,189438.5,0.0
195921.0,218228.7,711982.6,405694.9,711955.5,178931.4,712471.3,189362.6,0.0
195532.1,217939.5,711972.1,405454.1,711945.2,178650.6,712460.8,188998.1,0.0
195424.5,217890.9,711973.6,405412.3,711946.3,178591.3,712462.3,188850.0,0.0
195744.8,218150.4,711984.8,405619.1,711957.8,178837.0,712473.1,189124.0,0.0
196044.4,218355.0,711987.9,405779.3,711960.9,179046.3,712476.6,189436.2,0.0
195910.7,218224.7,711980.3,405666.6,711953.7,178930.5,712468.8,189356.7,0.0
195527.1,217937.8,711970.7,405426.8,711944.1,178649.5,712458.8,188994.6,0.0
195424.7,217893.2,711971.7,405387.2,711944.9,178591.0,712459.9,188851.2,0.0
195746.8,218153.4,711983.0,405595.1,711955.9,178839.1,712471.4,189129.6,0.0
196053.3,218361.6,711988.8,405762.9,711962.2,179055.8,712477.4,189450.8,0.0
195916.5,218228.4,711978.6,405639.0,711951.3,178940.7,712466.9,189370.1,0.0
195533.5,217940.3,711967.9,405399.3,711940.8,178657.9,712455.9,189004.3,0.0
195434.2,217897.8,711970.8,405363.9,711944.3,178603.2,712459.3,188866.4,0.0
195755.8,218159.6,711987.1,405574.0,711960.3,178855.5,712475.2,189151.7,0.0
196047.2,218352.1,711989.6,405724.8,711962.6,179055.2,712478.0,189456.4,0.0
195914.0,218219.1,711979.4,405608.5,711952.0,178938.1,712467.3,189368.4,0.0
195533.5,217934.1,711967.4,405372.9,711940.3,178656.9,712455.8,189000.5,0.0
195431.1,217891.0,711970.7,405339.0,711943.9,178599.5,712459.0,188861.3,0.0
195756.3,218157.2,711986.3,405551.8,711959.8,178852.8,712474.7,189149.7,0.0
196050.1,218354.3,711987.6,405702.9,711961.0,179057.9,712475.9,189457.8,0.0
195916.3,218226.2,711979.4,405586.3,711952.9,178948.2,712467.5,189379.0,0.0
195529.7,217938.3,711970.3,405344.2,711943.9,178667.2,712458.8,189009.0,0.0
195422.0,217888.3,711970.1,405300.7,711943.4,178604.2,712458.5,188859.7,0.0
195742.5,218144.1,711984.1,405503.8,711957.8,178850.4,712472.6,189139.0,0.0
196046.4,218352.2,711990.8,405664.7,711964.6,179064.0,712479.6,189457.8,0.0
195910.4,218219.5,711981.8,405542.9,711955.3,178946.5,712470.4,189370.2,0.0
195526.6,217933.6,711970.9,405303.0,711944.3,178663.5,712459.6,189001.4,0.0
195427.7,217889.3,711975.9,405269.5,711949.3,178605.6,712464.1,188862.1,0.0
195744.3,218142.2,711985.4,405474.3,711958.9,178846.8,712473.6,189134.0,0.0
196046.6,218350.5,711991.3,405636.1,711964.8,179062.4,712479.6,189450.4,0.0
195916.9,218224.8,711983.5,405528.7,711957.3,178953.7,712471.9,189373.3,0.0
195526.6,217932.7,711971.5,405283.0,711944.7,178666.1,712459.9,189002.0,0.0
195417.8,217883.1,711970.3,405235.3,711943.9,178600.8,712458.7,188852.0,0.0
195737.2,218140.8,711981.9,405443.7,711955.7,178845.9,712470.3,189128.7,0.0
196042.1,218353.7,711990.7,405613.2,711964.1,179067.5,712479.3,189450.4,0.0
195915.0,218231.4,711984.1,405495.8,711957.1,178961.8,712472.9,189374.9,0.0
195528.4,217940.8,711976.3,405251.8,711949.1,178676.4,712464.9,189007.8,0.0
195417.7,217883.4,711976.8,405209.9,711949.7,178610.2,712465.2,188861.8,0.0
195728.8,218133.0,711986.5,405410.7,711959.3,178848.2,712474.7,189133.2,0.0
196027.8,218336.4,711990.6,405569.6,711963.8,179056.8,712479.1,189446.1,0.0
195901.9,218214.1,711984.4,405459.0,711957.6,178948.6,712473.0,189369.9,0.0
195526.6,217937.8,711975.9,405231.7,711948.8,178674.8,712464.1,189012.1,0.0
195423.4,217889.2,711976.5,405192.1,711949.3,178612.3,712465.1,188866.8,0.0
195736.4,218134.1,711984.9,405389.8,711957.8,178849.9,712473.8,189132.7,0.0
196042.6,218340.2,711993.1,405550.6,711965.9,179066.1,712481.6,189452.1,0.0
195914.5,218216.2,711985.7,405438.3,711958.4,178954.6,712474.3,189375.9,0.0
195530.2,217931.9,711974.1,405204.7,711947.4,178673.5,712462.5,189011.5,0.0
195416.9,217873.5,711972.6,405154.7,711946.0,178603.4,712461.4,188857.8,0.0
195731.2,218124.0,711981.3,405352.2,711954.4,178840.9,712469.5,189125.8,0.0
196044.8,218341.1,711988.8,405523.3,711961.8,179065.3,712477.3,189452.6,0.0
195912.3,218214.7,711982.5,405409.1,711955.3,178954.2,712470.8,189373.9,0.0
195526.0,217930.7,711972.6,405168.7,711945.5,178671.7,712461.1,189009.3,0.0
195419.3,217883.6,711976.5,405130.6,711949.3,178612.7,712465.3,188869.7,0.0
195737.0,218141.2,711988.1,405337.6,711960.9,178857.8,712476.9,189145.8,0.0
196035.9,218349.0,711993.9,405491.5,711967.3,179070.0,712483.1,189461.7,0.0
195914.1,218227.6,711988.3,405381.2,711961.6,178961.4,712477.1,189386.6,0.0
195532.0,217939.8,711978.8,405139.7,711951.6,178676.8,712467.1,189019.4,0.0
195415.1,217879.7,711976.8,405087.7,711949.4,178606.3,712464.8,188864.1,0.0
195721.4,218125.9,711985.0,405289.7,711957.4,178842.3,712473.4,189131.7,0.0
196020.8,218331.1,711989.6,405452.0,711962.4,179051.2,712478.1,189442.0,0.0
195895.1,218211.5,711981.9,405334.1,711954.8,178938.6,712470.6,189365.6,0.0
195508.6,217921.6,711971.8,405094.0,711944.6,178652.9,712460.4,188997.5,0.0
195412.5,217881.6,711976.3,405062.1,711949.3,178598.8,712465.0,188860.7,0.0
195735.4,218137.2,711990.4,405271.9,711963.3,178844.9,712478.7,189139.8,0.0
196033.5,218335.9,711995.3,405433.4,711968.3,179054.7,712483.6,189455.7,0.0
195901.5,218207.8,711985.3,405318.6,711957.8,178940.7,712473.7,189374.7,0.0
195509.6,217916.7,711972.5,405068.0,711945.2,178648.9,712461.3,188996.0,0.0
195400.1,217868.6,711971.8,405025.6,711944.4,178586.3,712460.6,188847.8,0.0
195721.1,218127.2,711981.6,405235.5,711953.9,178835.4,712469.9,189125.9,0.0
196031.3,218339.1,711992.1,405401.1,711964.9,179059.7,712480.6,189452.3,0.0
195899.9,218209.2,711984.3,405288.4,711957.0,178944.2,712473.1,189371.7,0.0
195517.1,217921.6,711974.1,405057.7,711947.0,178661.9,712462.7,189009.3,0.0
195412.7,217871.9,711975.9,405013.7,711948.9,178598.3,712464.7,188866.1,0.0
195730.5,218125.7,711987.7,405211.5,711960.4,178839.4,712476.3,189142.0,0.0
196033.4,218330.0,711993.9,405374.2,711966.8,179053.3,712482.6,189459.9,0.0
195898.8,218197.7,711986.6,405258.4,711959.5,178938.3,712475.1,189377.7,0.0
195507.0,217905.3,711974.4,405014.2,711947.0,178648.8,712462.4,189003.0,0.0
195400.4,217859.2,711975.2,404973.9,711948.1,178591.0,712463.4,188857.5,0.0
195721.5,218118.5,711990.6,405182.4,711963.3,178839.4,712478.6,189137.3,0.0
196030.7,218333.1,711999.5,405345.8,711972.6,179057.5,712487.8,189455.1,0.0
195897.9,218207.0,711990.6,405229.9,711963.4,178945.7,712478.6,189372.8,0.0
195509.7,217919.6,711977.9,404989.1,711950.8,178659.1,712466.0,189002.4,0.0
195403.2,217871.9,711979.0,404948.5,711951.9,178598.0,712467.3,188856.5,0.0
195717.0,218126.5,711988.1,405152.8,711960.7,178840.4,712476.3,189125.5,0.0
196019.4,218330.6,711994.8,405317.3,711967.6,179054.6,712483.0,189443.5,0.0
195890.4,218201.8,711985.7,405204.9,711958.7,178937.5,712474.3,189360.5,0.0
195508.8,217917.3,711975.9,404962.8,711948.6,178655.2,712464.1,188996.6,0.0
195408.6,217872.1,711980.3,404923.7,711953.1,178598.0,712468.4,188856.3,0.0
195725.4,218126.4,711990.8,405131.9,711964.0,178842.7,712479.4,189131.6,0.0
196025.2,218331.7,711997.8,405292.2,711970.5,179057.1,712485.9,189450.5,0.0
195893.4,218203.5,711989.3,405177.8,711962.0,178945.9,712477.4,189375.7,0.0
195503.6,217915.2,711976.7,404935.3,711949.9,178658.8,712465.1,189002.7,0.0
195397.4,217870.6,711980.3,404892.9,711953.8,178599.9,712468.4,188857.9,0.0
195719.0,218130.1,711992.9,405101.5,711965.9,178850.4,712480.9,189140.4,0.0
196017.4,218331.2,711996.4,405263.3,711969.5,179061.0,712484.9,189456.1,0.0
195886.7,218202.0,711986.5,405152.3,711959.5,178947.8,712475.5,189375.9,0.0
195499.3,217916.6,711976.8,404909.2,711950.1,178666.6,712466.0,189013.4,0.0
195392.2,217868.6,711981.9,404868.5,711954.9,178604.0,712470.4,188871.7,0.0
195717.3,218130.4,711996.4,405073.3,711969.6,178848.7,712485.3,189151.4,0.0
196016.8,218332.7,712001.6,405230.9,711974.8,179057.0,712490.4,189465.4,0.0
195882.6,218200.3,711991.3,405114.8,711964.7,178939.1,712479.7,189380.4,0.0
195493.5,217909.2,711978.0,404870.0,711951.4,178649.2,712466.4,189004.8,0.0
195388.1,217861.1,711980.5,404828.8,711953.8,178591.1,712469.1,188861.0,0.0
195708.0,218116.6,711992.1,405034.6,711965.3,178838.6,712480.5,189141.6,0.0
196016.0,218329.3,711998.5,405195.8,711971.4,179058.0,712486.8,189462.7,0.0
195888.5,218206.6,711992.4,405084.8,711965.6,178951.8,712480.9,189388.6,0.0
195495.8,217913.0,711980.7,404845.9,711953.7,178666.8,712468.9,189020.0,0.0
195386.5,217862.1,711980.3,404803.6,711953.9,178603.0,712468.7,188874.2,0.0
195708.7,218120.6,711993.3,405009.5,711967.1,178850.2,712482.1,189152.9,0.0
196007.6,218324.8,711997.3,405168.3,711971.1,179061.6,712485.9,189466.2,0.0
195875.0,218196.0,711989.2,405049.7,711962.6,178949.7,712477.4,189385.4,0.0
195487.7,217906.5,711976.3,404807.8,711949.4,178663.3,712464.9,189016.5,0.0
195384.1,217859.6,711975.4,404768.0,711948.9,178599.8,712464.4,188871.3,0.0
195704.8,218117.8,711989.9,404974.3,711963.3,178846.4,712478.9,189149.7,0.0
196007.5,218324.3,711996.7,405135.6,711970.3,179062.6,712485.5,189466.1,0.0
195881.0,218199.2,711990.8,405025.2,711964.7,178955.2,712479.5,189391.2,0.0
195497.9,217914.3,711981.7,404787.5,711955.1,178675.0,712470.2,189029.0,0.0
195392.0,217864.5,711983.4,404744.6,711956.8,178612.3,712472.4,188885.0,0.0
195709.5,218119.3,711994.4,404949.6,711968.0,178853.8,712483.7,189159.8,0.0
196003.0,218316.7,711997.1,405101.4,711970.0,179055.7,712485.9,189461.7,0.0
195871.1,218187.7,711986.3,404985.7,711959.4,178939.8,712475.2,189374.5,0.0
195497.1,217914.2,711980.1,404756.3,711953.2,178669.5,712468.4,189018.8,0.0
195390.6,217866.3,711979.4,404718.7,711952.6,178608.7,712467.7,188874.9,0.0
195710.0,218122.5,711992.3,404926.6,711965.3,178853.2,712480.8,189154.2,0.0
196012.8,218329.3,711999.1,405080.9,711971.8,179062.7,712487.0,189470.3,0.0
195876.5,218193.5,711986.9,404958.5,711959.4,178943.3,712474.7,189381.3,0.0
195487.3,217902.3,711972.9,404718.1,711945.9,178658.8,712461.2,189010.7,0.0
195386.0,217857.8,711977.7,404682.2,711950.8,178603.0,712466.3,188874.4,0.0
195705.4,218113.0,711990.2,404879.9,711963.3,178843.2,712478.8,189147.7,0.0
196002.5,218310.7,711994.4,405031.0,711967.4,179048.3,712482.8,189454.7,0.0
195872.2,218184.2,711987.3,404921.6,711960.6,178941.5,712475.8,189377.0,0.0
195487.2,217896.7,711976.6,404685.3,711949.9,178659.6,712465.1,189008.1,0.0
195383.6,217849.4,711978.3,404647.2,711951.3,178600.1,712466.6,188865.0,0.0
195702.0,218107.8,711989.4,404852.4,711962.6,178842.5,712477.9,189143.8,0.0
196007.7,218314.9,711995.8,405015.2,711969.0,179057.1,712483.9,189464.2,0.0
195869.3,218178.2,711986.5,404894.3,711959.3,178940.0,712474.9,189379.0,0.0
195478.4,217886.6,711973.4,404640.3,711946.6,178649.7,712462.2,189004.4,0.0
195378.2,217842.9,711976.6,404599.8,711950.1,178593.8,712465.6,188862.3,0.0
195701.2,218104.9,711991.6,404808.8,711964.7,178846.4,712480.7,189142.3,0.0
195996.8,218305.6,711997.3,404961.9,711970.0,179056.8,712486.2,189451.9,0.0
195862.4,218174.0,711988.8,404846.3,711961.7,178943.4,712477.4,189365.5,0.0
195482.4,217893.1,711980.1,404616.3,711952.9,178667.8,712468.7,189007.5,0.0
195378.2,217845.1,711983.0,404576.3,711955.9,178608.2,712471.8,188868.2,0.0
195699.2,218104.1,711993.7,404784.5,711966.5,178853.6,712482.6,189142.2,0.0
195995.3,218303.6,711997.0,404940.5,711970.1,179059.8,712486.1,189451.9,0.0
195867.4,218177.2,711989.4,404830.2,711962.4,178945.6,712477.9,189372.8,0.0
195481.8,217890.3,711980.4,404591.3,711953.4,178663.8,712468.9,189004.4,0.0
195376.8,217841.3,711983.1,404557.8,711956.0,178602.7,712471.6,188857.8,0.0
195699.6,218101.5,711994.8,404760.9,711967.8,178847.8,712482.9,189132.9,0.0
195995.1,218301.8,711997.3,404914.2,711970.0,179054.4,712485.4,189441.7,0.0
195861.2,218171.1,711986.8,404801.6,711959.6,178937.4,712474.8,189356.8,0.0
195486.3,217892.6,711976.9,404572.1,711949.9,178662.2,712464.9,188995.7,0.0
195387.1,217848.5,711981.1,404535.4,711954.1,178606.6,712469.8,188854.9,0.0
195698.7,218093.8,711991.7,404733.5,711964.3,178846.2,712480.1,189121.9,0.0
196001.4,218298.3,711997.3,404893.3,711969.9,179059.0,712485.5,189434.3,0.0
195874.7,218173.3,711989.3,404782.9,711961.9,178949.8,712477.4,189360.2,0.0
195487.3,217881.6,711978.4,404540.9,711951.2,178662.7,712466.4,188991.1,0.0
195382.2,217835.9,711978.6,404503.8,711951.0,178600.2,712466.8,188845.7,0.0
195703.5,218098.6,711990.7,404714.5,711963.0,178848.7,712479.1,189122.0,0.0
196005.0,218304.5,711996.3,404879.8,711968.9,179061.1,712484.8,189438.4,0.0
195875.7,218180.6,711987.6,404762.2,711960.3,178949.2,712476.4,189359.1,0.0
195491.9,217895.5,711978.1,404522.4,711950.8,178669.0,712466.4,188993.2,0.0
195384.5,217843.5,711981.3,404478.7,711953.7,178606.1,712469.5,188846.6,0.0
195705.3,218102.3,711994.1,404688.5,711966.1,178853.0,712482.1,189126.3,0.0
196003.6,218304.0,711999.6,404848.4,711972.0,179061.5,712488.0,189437.6,0.0
195863.6,218166.7,711987.9,404722.4,711960.7,178940.8,712476.3,189347.9,0.0
195482.2,217886.4,711976.3,404487.2,711948.9,178661.3,712464.4,188984.6,0.0
195380.4,217839.8,711980.5,404448.7,711953.1,178604.2,712468.7,188845.6,0.0
195692.8,218089.2,711991.3,404649.4,711963.8,178843.7,712479.5,189118.7,0.0
195991.0,218291.0,711995.9,404808.9,711968.8,179051.7,712483.7,189431.6,0.0
195861.3,218162.5,711987.3,404696.2,711960.3,178937.7,712475.4,189350.4,0.0
195481.9,217882.4,711977.7,404459.8,711950.2,178660.8,712465.4,188991.0,0.0
195378.0,217835.9,711979.2,404416.9,711952.0,178601.4,712467.5,188850.1,0.0
195695.5,218091.6,711990.4,404626.4,711963.1,178846.4,712478.3,189127.2,0.0
196000.8,218299.8,711996.4,404789.9,711969.2,179061.4,712484.4,189446.3,0.0
195868.2,218169.0,711988.1,404676.4,711961.1,178946.8,712476.6,189365.6,0.0
195484.3,217884.6,711977.7,404435.9,711950.3,178663.1,712466.0,189000.5,0.0
195377.9,217836.7,711979.9,404395.0,711952.4,178603.2,712468.1,188856.0,0.0
195693.6,218091.4,711989.2,404597.1,711962.2,178846.2,712477.8,189129.9,0.0
195989.5,218292.4,711993.8,404747.6,711966.6,179055.4,712482.0,189438.9,0.0
195857.3,218164.3,711986.1,404631.0,711958.4,178943.1,712474.6,189355.3,0.0
195472.2,217878.3,711977.2,404394.8,711949.4,178664.1,712465.6,188991.4,0.0
195366.9,217829.2,711976.3,404355.7,711948.9,178600.9,712464.8,188845.3,0.0
195696.0,218093.0,711988.3,404565.8,711961.3,178847.8,712477.4,189130.3,0.0
195994.8,218295.0,711995.8,404729.2,711968.9,179056.9,712484.8,189446.3,0.0
195864.1,218169.4,711988.5,404614.1,711961.5,178944.9,712477.0,189362.1,0.0
195480.5,217886.5,711978.6,404371.5,711951.2,178666.2,712467.1,188995.0,0.0
195374.8,217835.7,711980.9,404328.8,711953.8,178604.1,712469.6,188847.7,0.0
195682.3,218080.3,711988.1,404526.4,711960.9,178837.2,712476.6,189114.5,0.0
195983.8,218285.7,711995.9,404689.6,711968.4,179051.4,712484.3,189439.4,0.0
195859.0,218160.2,711990.8,404581.8,711963.4,178945.1,712478.9,189369.4,0.0
195471.0,217870.3,711975.6,404338.1,711948.4,178658.0,712464.1,188994.5,0.0
195365.9,217822.3,711974.1,404296.8,711946.4,178595.3,712462.4,188844.4,0.0
195685.2,218077.6,711986.1,404503.9,711958.6,178839.4,712474.9,189121.1,0.0
195983.5,218281.8,711990.8,404663.7,711963.9,179048.9,712479.6,189435.8,0.0
195844.9,218147.9,711980.5,404544.8,711953.9,178930.9,712469.5,189349.7,0.0
195463.0,217864.7,711971.3,404309.6,711944.1,178650.9,712459.9,188984.8,0.0
195361.8,217820.4,711975.0,404271.3,711947.7,178596.3,712463.3,188845.9,0.0
195677.3,218074.9,711984.8,404465.1,711957.3,178838.9,712473.1,189118.9,0.0
195986.4,218285.7,711993.8,404632.2,711966.6,179057.5,712482.4,189440.8,0.0
195859.0,218160.3,711990.3,404521.8,711962.9,178947.5,712478.7,189367.2,0.0
195481.0,217881.5,711981.6,404289.0,711954.6,178667.7,712469.8,189008.9,0.0
195376.9,217830.5,711983.3,404242.1,711956.1,178601.7,712471.2,188861.7,0.0
195689.3,218076.2,711990.4,404436.8,711962.9,178836.2,712478.3,189123.8,0.0
195990.7,218281.9,711995.8,404598.4,711968.3,179050.6,712483.9,189435.5,0.0
195857.1,218150.4,711988.1,404485.5,711960.7,178937.7,712476.6,189352.3,0.0
195471.7,217859.3,711975.9,404246.2,711948.3,178652.3,712464.1,188981.4,0.0
195371.3,217814.0,711977.5,404203.8,711950.1,178592.6,712465.3,188838.1,0.0
195687.6,218066.0,711988.9,404402.9,711961.8,178832.7,712476.8,189110.9,0.0
195986.0,218266.5,711993.8,404566.5,711966.7,179045.9,712482.0,189424.2,0.0
195857.5,218142.2,711985.7,404461.9,711958.2,178937.2,712474.1,189348.1,0.0
195473.1,217858.7,711975.6,404216.5,711948.8,178653.3,712464.1,188983.0,0.0
195366.2,217812.2,711978.3,404175.3,711951.4,178593.0,712466.7,188840.7,0.0
195682.0,218067.1,711990.3,404383.1,711963.0,178838.6,712478.4,189120.8,0.0
195982.0,218272.0,711995.8,404541.0,711968.2,179049.7,712483.7,189440.9,0.0
195850.6,218142.2,711987.7,404422.8,711959.9,178934.0,712475.7,189357.9,0.0
195465.0,217858.3,711977.7,404183.3,711950.1,178650.7,712465.8,188987.0,0.0
195361.9,217813.0,711980.3,404145.1,711952.8,178593.4,712468.7,188842.4,0.0
195680.0,218070.1,711992.4,404352.9,711965.1,178841.3,712481.0,189120.0,0.0
195975.3,218272.2,711994.3,404508.3,711967.8,179051.4,712483.3,189427.4,0.0
195836.2,218135.8,711982.8,404388.9,711956.0,178930.0,712471.1,189338.2,0.0
195459.8,217855.8,711972.2,404157.0,711945.2,178653.2,712460.4,188976.0,0.0
195362.4,217813.8,711974.7,404124.3,711948.1,178598.4,712463.4,188837.7,0.0
195681.1,218071.0,711987.4,404327.0,711960.5,178845.0,712475.8,189118.5,0.0
195982.4,218275.5,711992.3,404481.2,711964.9,179056.6,712480.6,189432.7,0.0
195849.7,218146.6,711985.5,404372.7,711958.2,178940.8,712473.6,189350.8,0.0
195470.0,217866.9,711977.2,404140.5,711950.1,178662.2,712465.4,188989.9,0.0
195367.0,217821.3,711980.9,404101.1,711953.7,178604.0,712469.3,188849.5,0.0
195685.6,218079.2,711991.3,404304.9,711964.3,178845.3,712479.6,189125.8,0.0
195983.8,218278.1,711994.4,404458.2,711967.3,179049.7,712482.6,189436.5,0.0
195848.9,218144.3,711983.2,404340.6,711956.1,178930.3,712471.6,189348.1,0.0
195470.0,217863.1,711972.8,404106.4,711945.5,178652.5,712461.2,188985.6,0.0
195369.7,217818.2,711977.6,404067.6,711950.2,178598.7,712465.8,188847.8,0.0
195694.3,218077.3,711990.6,404276.8,711963.4,178848.0,712479.1,189129.8,0.0
195997.0,218281.8,711996.8,404442.1,711969.4,179060.8,712485.3,189446.3,0.0
195865.9,218153.5,711989.4,404320.8,711962.4,178945.2,712478.1,189363.8,0.0
195476.8,217863.2,711977.4,404072.9,711950.3,178656.5,712466.3,188988.8,0.0
195373.6,217817.6,711980.3,404038.9,711952.9,178603.0,712469.1,188850.4,0.0
195695.3,218076.0,711993.7,404247.6,711966.1,178852.2,712482.1,189135.7,0.0
195995.4,218277.9,711996.9,404404.8,711969.6,179061.9,712485.5,189446.8,0.0
195852.9,218139.9,711983.9,404282.8,711956.6,178941.5,712472.5,189352.2,0.0
195477.4,217864.2,711976.9,404053.0,711949.3,178666.8,712465.3,188994.6,0.0
195373.6,217814.7,711979.6,404010.4,711952.4,178602.9,712467.9,188847.9,0.0
195681.6,218059.9,711987.6,404208.0,711960.6,178836.9,712476.1,189113.2,0.0
195979.4,218262.9,711990.4,404363.4,711963.4,179044.5,712478.9,189423.0,0.0
195840.7,218128.6,711977.7,404242.6,711951.0,178922.7,712466.7,189331.8,0.0
195462.8,217849.0,711968.3,404011.3,711941.4,178647.2,712456.9,188971.8,0.0
195371.5,217811.1,711974.4,403988.9,711947.1,178595.3,712462.7,188838.8,0.0
195697.7,218075.4,711989.8,404198.7,711962.4,178845.7,712478.2,189123.8,0.0
195998.3,218281.3,711995.3,404358.8,711968.0,179060.6,712484.1,189441.4,0.0
195863.6,218154.7,711987.9,404248.2,711960.8,178946.2,712476.1,189357.5,0.0
195477.0,217869.6,711979.4,404007.3,711952.2,178665.9,712467.3,188993.8,0.0
195368.5,217815.6,711981.4,403961.4,711954.3,178602.8,712469.9,188848.6,0.0
195686.2,218069.5,711991.9,404167.4,711965.1,178851.9,712480.6,189124.1,0.0
195989.0,218274.9,712000.4,404330.9,711973.4,179069.0,712488.9,189443.0,0.0
195854.9,218145.8,711993.6,404218.5,711966.1,178956.5,712482.0,189365.0,0.0
195468.0,217858.3,711980.4,403979.7,711953.3,178671.2,712469.1,188996.3,0.0
195362.2,217810.7,711981.6,403939.6,711954.6,178607.3,712470.3,188849.5,0.0
195679.2,218068.4,711994.6,404144.5,711967.4,178848.8,712483.4,189125.2,0.0
195984.2,218276.2,712001.0,404305.8,711973.6,179060.5,712489.5,189440.8,0.0
195846.3,218140.4,711989.3,404188.2,711961.6,178942.5,712477.8,189349.6,0.0
195454.1,217847.1,711975.0,403943.7,711947.6,178653.3,712463.5,188976.7,0.0
195348.9,217798.9,711974.6,403902.8,711947.4,178594.5,712462.9,188833.7,0.0
195669.1,218055.9,711987.3,404109.3,711959.8,178839.8,712475.4,189114.0,0.0
195971.0,218256.6,711993.2,404269.4,711965.4,179048.9,712481.4,189427.3,0.0
195838.1,218126.2,711985.2,404154.6,711958.2,178934.6,712473.9,189343.3,0.0
195451.1,217839.3,711973.4,403914.3,711946.4,178650.5,712462.4,188976.2,0.0
195347.0,217793.0,711977.4,403875.1,711950.4,178590.7,712466.2,188836.4,0.0
195667.0,218052.1,711990.6,404087.0,711963.4,178837.5,712478.9,189115.8,0.0
195968.0,218256.4,711997.7,404243.8,711970.6,179048.0,712486.4,189432.6,0.0
195836.8,218124.8,711990.2,404131.0,711963.3,178932.3,712478.3,189350.7,0.0
195455.2,217842.5,711979.6,403896.5,711951.9,178649.5,712467.2,188986.3,0.0
195351.2,217795.7,711978.6,403858.0,711951.1,178587.6,712466.7,188840.8,0.0
195671.6,218053.9,711990.2,404065.2,711962.8,178833.7,712478.6,189115.3,0.0
195973.8,218260.7,711996.3,404232.8,711968.8,179047.9,712484.3,189430.2,0.0
195845.0,218139.1,711990.4,404116.8,711962.8,178941.3,712478.5,189353.2,0.0
195468.3,217862.4,711981.9,403881.6,711954.1,178665.4,712470.0,188994.2,0.0
195364.4,217813.8,711984.0,403841.3,711956.2,178605.9,712472.1,188853.6,0.0
195678.9,218063.3,711995.3,404042.8,711967.9,178844.7,712483.4,189127.8,0.0
195975.5,218263.4,712000.0,404199.5,711973.0,179052.2,712488.1,189437.7,0.0
195842.4,218135.0,711991.1,404087.0,711964.0,178939.2,712478.9,189353.5,0.0
195450.5,217843.1,711978.6,403842.1,711951.3,178653.1,712466.6,188978.8,0.0
195339.4,217790.8,711980.1,403797.9,711952.6,178587.9,712467.8,188831.0,0.0
195653.9,218044.3,711989.4,404002.1,711961.4,178829.0,712476.8,189104.5,0.0
195962.5,218256.3,711997.1,404165.8,711969.3,179049.6,712485.1,189429.6,0.0
195833.6,218129.6,711989.6,404051.0,711962.2,178938.3,712477.9,189351.8,0.0
195442.7,217840.2,711978.3,403808.2,711951.0,178652.1,712466.4,188982.1,0.0
195330.7,217787.1,711977.2,403765.3,711950.1,178582.5,712465.6,188830.9,0.0
195653.5,218046.6,711988.6,403976.5,711961.1,178836.0,712476.9,189112.4,0.0
195954.5,218252.2,711994.4,404132.0,711966.9,179049.6,712482.8,189427.7,0.0
195822.2,218124.6,711987.8,404011.3,711960.3,178932.4,712476.3,189348.9,0.0
195435.0,217836.0,711975.1,403770.9,711947.9,178645.8,712463.6,188982.7,0.0
195335.0,217792.8,711978.3,403734.2,711950.8,178591.2,712466.3,188844.6,0.0
195654.5,218047.8,711990.1,403934.8,711962.6,178835.9,712478.3,189122.4,0.0
195954.9,218251.3,711996.2,404092.0,711968.6,179047.7,712484.5,189435.0,0.0
195818.6,218115.2,711987.8,403974.7,711960.4,178928.7,712475.7,189346.3,0.0
195436.6,217828.9,711976.3,403737.6,711948.8,178645.4,712463.9,188979.5,0.0
195336.5,217785.0,711978.1,403700.1,711950.2,178590.7,712466.1,188840.6,0.0
195649.8,218038.2,711989.8,403911.4,711961.9,178832.0,712478.3,189115.7,0.0
195944.3,218238.1,711993.8,404060.6,711966.5,179036.9,712482.2,189423.0,0.0
195803.2,218097.7,711983.0,403933.7,711955.9,178915.1,712470.6,189333.3,0.0
195423.2,217818.5,711973.6,403700.0,711946.3,178640.8,712460.9,188974.8,0.0
195327.3,217780.8,711981.3,403668.8,711953.9,178595.4,712468.8,188849.2,0.0
195649.4,218040.9,711994.9,403878.0,711967.3,178847.6,712482.6,189133.6,0.0
195946.3,218242.0,711998.9,404033.1,711971.6,179056.2,712486.6,189443.0,0.0
195813.3,218110.8,711990.6,403919.0,711963.1,178941.3,712478.3,189358.9,0.0
195423.8,217818.4,711979.4,403676.6,711952.2,178653.8,712467.1,188986.2,0.0
195314.1,217765.9,711978.1,403635.5,711950.8,178585.3,712466.3,188834.7,0.0
195623.4,218014.9,711986.5,403833.2,711959.1,178822.5,712474.5,189101.0,0.0
195920.7,218216.3,711990.7,403989.7,711963.8,179035.1,712478.9,189413.9,0.0
195798.8,218094.2,711984.9,403885.8,711957.6,178931.7,712472.9,189343.8,0.0
195420.3,217812.9,711974.8,403657.3,711947.8,178655.6,712462.9,188984.3,0.0
195305.9,217758.8,711975.1,403607.3,711947.4,178586.8,712462.6,188834.2,0.0
195624.0,218015.1,711986.0,403811.9,711958.2,178827.0,712473.6,189110.2,0.0
195926.5,218220.7,711992.3,403971.2,711964.9,179038.0,712479.9,189427.3,0.0
195792.3,218089.5,711984.6,403854.3,711957.4,178923.5,712472.6,189348.2,0.0
195404.7,217799.3,711973.8,403617.0,711946.2,178641.1,712461.8,188980.5,0.0
195302.0,217755.5,711975.9,403580.2,711948.5,178583.8,712463.8,188840.2,0.0
195621.5,218017.9,711988.8,403791.7,711961.5,178833.5,712476.6,189122.6,0.0
195921.5,218223.0,711994.2,403950.8,711966.8,179046.7,712482.1,189438.5,0.0
195791.8,218095.9,711986.1,403832.1,711958.8,178931.0,712474.1,189357.3,0.0
195412.0,217812.9,711975.6,403595.5,711948.3,178649.9,712463.6,188989.5,0.0
195318.6,217774.7,711979.9,403567.9,711952.3,178598.0,712467.5,188855.2,0.0
195634.6,218026.3,711992.1,403766.2,711965.1,178840.3,712480.2,189128.2,0.0
195924.0,218220.7,711993.4,403915.0,711966.3,179038.9,712481.6,189427.3,0.0
195793.8,218094.5,711987.1,403802.5,711959.8,178923.9,712475.3,189344.0,0.0
195409.8,217810.9,711978.1,403560.5,711950.8,178645.8,712466.2,188977.8,0.0
195307.3,217764.9,711981.1,403522.6,711953.5,178588.2,712468.6,188838.3,0.0
195630.8,218026.0,711993.9,403733.9,711966.7,178838.4,712482.0,189120.6,0.0
195934.5,218230.0,712001.3,403896.9,711974.4,179050.1,712489.3,189434.6,0.0
195799.0,218099.2,711992.8,403781.8,711966.1,178930.5,712481.3,189346.4,0.0
195407.5,217810.1,711980.3,403543.3,711953.4,178642.9,712468.8,188973.4,0.0
195304.0,217762.2,711978.8,403504.1,711951.6,178580.7,712466.6,188824.4,0.0
195631.2,218022.8,711991.3,403716.0,711964.0,178833.5,712478.9,189110.6,0.0
195927.6,218222.6,711998.9,403874.9,711971.4,179045.6,712486.6,189424.7,0.0
195795.0,218091.6,711990.8,403761.0,711963.7,178931.4,712478.9,189340.8,0.0
195404.0,217798.6,711977.4,403521.7,711949.9,178642.2,712465.6,188969.1,0.0
195301.0,217754.7,711977.6,403483.1,711950.6,178584.7,712466.1,188830.4,0.0
195621.8,218011.6,711988.9,403684.9,711961.9,178828.8,712477.4,189107.3,0.0
195922.0,218214.6,711993.2,403843.1,711966.4,179036.0,712481.4,189417.5,0.0
195790.7,218088.6,711984.9,403729.8,711957.9,178923.7,712473.1,189336.6,0.0
195416.0,217812.7,711978.1,403500.3,711951.0,178651.5,712466.0,188980.1,0.0
195312.1,217762.5,711979.9,403462.3,711952.4,178590.0,712467.9,188837.0,0.0
195626.9,218013.7,711990.2,403661.3,711962.8,178831.5,712478.3,189109.9,0.0
195920.7,218211.2,711995.0,403814.5,711967.1,179037.8,712482.8,189418.2,0.0
195784.1,218080.9,711985.8,403698.8,711957.9,178923.0,712473.5,189336.7,0.0
195397.8,217796.0,711975.9,403464.4,711948.5,178644.0,712463.3,188973.6,0.0
195292.2,217748.9,711979.6,403423.6,711952.1,178582.3,712467.1,188832.1,0.0
195615.8,218009.7,711992.3,403632.1,711964.5,178831.1,712480.1,189115.4,0.0
195919.1,218217.1,711999.8,403795.3,711971.6,179044.7,712487.3,189434.4,0.0
195786.8,218086.7,711989.9,403675.8,711962.1,178930.2,712477.7,189350.1,0.0
195402.9,217799.7,711978.8,403435.5,711951.4,178647.5,712466.4,188983.2,0.0
195294.8,217745.3,711977.8,403394.5,711949.9,178584.1,712465.8,188834.7,0.0
195614.7,218002.2,711989.4,403605.1,711961.5,178832.6,712477.4,189115.1,0.0
195916.5,218211.7,711994.4,403762.7,711966.6,179043.3,712482.4,189430.3,0.0
195777.4,218077.5,711984.1,403641.5,711956.4,178921.1,712471.8,189339.8,0.0
195395.0,217793.9,711973.4,403405.1,711946.0,178639.1,712461.3,188975.3,0.0
195300.4,217756.9,711978.4,403375.0,711951.2,178590.3,712466.6,188840.9,0.0
195621.0,218013.7,711991.4,403583.2,711964.3,178836.0,712479.5,189120.2,0.0
195925.5,218220.5,711998.9,403751.4,711971.4,179050.1,712486.6,189442.3,0.0
195788.7,218087.2,711990.9,403629.6,711963.2,178930.7,712478.5,189354.9,0.0
195399.2,217795.8,711977.4,403385.3,711949.7,178646.1,712465.8,188980.3,0.0
195293.1,217746.1,711977.8,403344.6,711950.2,178584.7,712466.1,188834.8,0.0
195614.8,218004.7,711989.6,403545.1,711962.2,178830.7,712478.0,189113.7,0.0
195918.2,218211.1,711994.6,403707.2,711967.4,179045.3,712482.8,189428.5,0.0
195778.4,218074.2,711985.7,403591.1,711958.4,178927.1,712473.9,189338.4,0.0
195398.8,217795.0,711978.3,403354.8,711950.7,178649.5,712466.2,188976.0,0.0
195292.9,217746.5,711979.4,403312.8,711951.8,178584.5,712467.3,188832.4,0.0
195609.0,218000.0,711991.7,403519.2,711963.9,178829.5,712479.7,189110.4,0.0
195906.6,218202.1,711996.8,403679.6,711969.0,179039.5,712484.9,189421.6,0.0
195778.8,218078.0,711985.7,403570.6,711958.7,178925.5,712474.3,189338.3,0.0
195391.3,217794.1,711973.8,403331.7,711946.6,178643.5,712462.0,188971.3,0.0
195293.4,217756.4,711976.5,403299.8,711949.3,178590.9,712464.4,188838.2,0.0
195624.4,218022.0,711992.9,403518.7,711966.1,178843.7,712480.8,189125.6,0.0
195923.0,218222.6,711999.8,403671.7,711972.6,179052.9,712488.1,189437.6,0.0
195792.6,218094.3,711991.0,403558.2,711963.6,178941.3,712479.3,189354.8,0.0
195408.0,217807.1,711981.6,403321.7,711954.1,178658.4,712469.6,188982.8,0.0
195305.2,217760.5,711983.4,403284.3,711955.9,178597.3,712471.4,188838.2,0.0
195622.8,218014.3,711995.3,403487.3,711968.3,178842.0,712483.4,189117.6,0.0
195907.3,218202.5,711997.8,403634.1,711970.4,179039.5,712485.7,189419.5,0.0
195777.0,218076.6,711991.0,403522.2,711963.6,178930.0,712478.9,189342.3,0.0
195396.4,217794.0,711980.4,403283.3,711953.2,178651.8,712468.7,188978.1,0.0
195290.7,217747.6,711981.9,403242.6,711954.6,178592.6,712469.6,188831.2,0.0
195613.2,218010.1,711994.2,403452.7,711967.0,178838.8,712482.1,189108.5,0.0
195914.8,218215.5,711999.1,403611.1,711972.0,179049.1,712487.0,189424.7,0.0
195780.5,218083.8,711990.2,403499.7,711962.9,178934.8,712477.7,189340.6,0.0
195396.8,217798.6,711978.2,403260.5,711951.0,178654.8,712466.3,188973.6,0.0
195298.1,217753.3,711981.8,403220.5,711954.9,178598.0,712470.5,188835.2,0.0
195627.5,218017.0,711994.8,403433.6,711967.8,178850.3,712483.4,189118.5,0.0
195931.3,218226.7,712002.0,403598.6,711975.0,179066.0,712490.6,189436.1,0.0
195793.0,218093.4,711992.1,403477.1,711965.1,178947.1,712480.1,189348.8,0.0
195403.4,217806.0,711979.6,403233.2,711951.9,178661.5,712467.1,188979.2,0.0
195298.2,217758.1,711982.5,403196.3,711954.4,178600.1,712469.8,188836.0,0.0
195620.4,218012.7,711994.9,403407.3,711967.4,178842.8,712482.8,189115.1,0.0
195913.3,218208.6,711998.9,403557.5,711972.0,179050.8,712487.3,189425.0,0.0
195784.1,218083.7,711990.6,403444.6,711963.8,178941.3,712479.4,189346.2,0.0
195401.1,217798.8,711982.1,403207.5,711955.4,178659.6,712471.4,188982.6,0.0
195296.0,217747.8,711984.9,403168.2,711957.6,178598.5,712473.4,188837.5,0.0
195612.5,218000.6,711995.3,403375.6,711967.8,178842.4,712483.6,189112.3,0.0
195904.6,218199.4,711999.1,403523.6,711971.5,179046.5,712487.3,189420.1,0.0
195769.8,218072.7,711988.6,403410.7,711961.1,178931.6,712476.8,189335.4,0.0
195384.2,217789.2,711977.6,403171.3,711949.9,178652.7,712465.6,188969.9,0.0
195279.3,217741.4,711979.2,403131.0,711951.4,178593.7,712467.1,188828.3,0.0
195598.8,217996.9,711994.6,403335.4,711966.7,178836.4,712482.6,189106.8,0.0
195894.1,218193.9,711998.6,403491.1,711970.9,179040.3,712486.6,189414.1,0.0
195756.8,218057.9,711988.1,403377.8,711960.4,178923.5,712476.3,189329.2,0.0
195380.1,217778.2,711978.0,403143.8,711950.6,178644.5,712466.7,188964.0,0.0
195281.6,217735.2,711982.3,403107.2,711954.8,178585.8,712470.6,188821.6,0.0
195603.8,217994.0,711993.1,403318.8,711965.6,178833.0,712481.3,189098.2,0.0
195904.6,218197.4,711997.7,403476.4,711970.1,179044.3,712485.5,189410.6,0.0
195772.1,218068.9,711988.3,403361.8,711960.8,178932.0,712476.4,189328.5,0.0
195385.6,217782.0,711978.1,403121.2,711950.4,178650.3,712466.0,188961.8,0.0
195281.6,217735.3,711980.0,403085.8,711952.6,178591.4,712468.3,188820.3,0.0
195599.0,217991.0,711991.1,403289.3,711963.8,178833.0,712479.3,189097.2,0.0
195907.1,218200.3,711999.0,403452.1,711971.6,179046.3,712487.3,189418.3,0.0
195771.2,218065.1,711986.9,403333.4,711959.4,178927.3,712475.0,189328.9,0.0
195384.3,217777.3,711976.1,403095.9,711948.8,178643.4,712464.1,188960.9,0.0
195279.8,217732.6,711978.6,403059.4,711951.3,178586.1,712466.8,188823.0,0.0
195603.8,217993.8,711991.9,403266.3,711964.6,178833.0,712480.3,189104.3,0.0
