EEG 1,EEG 2,EEG 3,EEG 4,EEG 5,EEG 6,EEG 7,EEG 8,TRIG
203849.6,213504.6,668200.8,654912.3,221195.2,242513.6,294197.5,260501.8,0.0
203784.0,213450.1,666357.1,653560.8,221172.0,242465.1,294155.3,260475.9,0.0
203720.6,213400.0,664511.3,652203.2,221139.8,242420.9,294104.5,260436.7,0.0
203736.9,213391.5,662709.4,650865.7,221120.7,242391.5,294049.4,260388.9,0.0
203806.2,213405.3,660954.3,649561.7,221118.6,242372.8,294004.0,260352.1,0.0
203833.3,213399.1,659198.3,648275.2,221119.9,242351.5,293972.8,260334.3,0.0
203774.5,213354.0,657404.6,646972.9,221101.8,242312.9,293934.2,260313.7,0.0
203715.5,213311.0,655608.7,645663.1,221075.4,242274.1,293886.9,260277.2,0.0
203722.7,213293.2,653845.8,644360.5,221046.9,242235.3,293824.5,260220.1,0.0
203787.3,213305.2,652133.6,643097.3,221040.1,242210.5,293776.5,260181.3,0.0
203802.1,213292.2,650410.9,641843.9,221032.5,242177.5,293732.3,260156.7,0.0
203733.8,213241.4,648654.4,640575.6,221007.7,242131.4,293681.3,260130.2,0.0
203667.7,213196.9,646900.6,639301.9,220977.6,242091.1,293624.9,260091.0,0.0
203697.5,213206.4,645206.3,638059.4,220967.7,242076.4,293577.2,260052.5,0.0
203758.3,213219.8,643538.1,636835.3,220960.0,242056.0,293523.5,260013.3,0.0
203760.9,213199.3,641854.0,635615.2,220944.2,242021.2,293470.3,259979.8,0.0
203690.5,213141.1,640140.4,634384.0,220914.3,241971.2,293415.4,259948.2,0.0
203639.3,213104.0,638442.4,633163.6,220894.6,241941.4,293369.3,259919.2,0.0
203668.4,213109.3,636790.1,631962.0,220885.8,241927.1,293322.2,259880.0,0.0
203731.8,213118.6,635167.1,630777.3,220880.8,241907.7,293269.0,259837.7,0.0
203747.6,213104.3,633539.8,629604.5,220875.6,241880.2,293223.1,259813.6,0.0
203668.0,213039.5,631865.2,628404.6,220839.2,241824.1,293159.3,259774.1,0.0
203598.7,212986.8,630198.4,627205.2,220803.8,241777.2,293093.7,259727.7,0.0
203645.7,213011.8,628616.6,626068.9,220818.2,241786.6,293070.8,259716.5,0.0
203710.8,213030.8,627043.2,624928.7,220813.3,241769.4,293023.1,259680.3,0.0
203726.6,213019.9,625459.1,623792.5,220805.1,241738.3,292978.0,259653.8,0.0
203666.1,212974.6,623845.4,622650.0,220786.0,241699.1,292937.2,259633.5,0.0
203602.1,212928.8,622233.4,621502.4,220760.5,241663.8,292889.5,259600.9,0.0
203626.9,212931.8,620673.8,620379.9,220752.9,241650.2,292846.2,259564.9,0.0
203676.1,212931.9,619129.1,619261.0,220734.2,241619.8,292783.9,259513.8,0.0
203695.6,212924.7,617598.3,618172.5,220733.0,241601.3,292748.4,259497.0,0.0
203628.8,212872.8,616026.6,617065.9,220710.0,241563.1,292704.1,259474.6,0.0
203570.5,212833.4,614463.5,615960.3,220688.2,241534.6,292661.6,259446.5,0.0
203599.6,212844.4,612952.2,614877.0,220681.9,241524.6,292623.1,259415.1,0.0
203661.3,212861.3,611464.2,613804.3,220672.4,241501.8,292572.1,259373.6,0.0
203671.1,212847.7,609968.1,612741.2,220662.1,241471.5,292528.1,259347.2,0.0
203606.5,212797.9,608442.6,611671.9,220640.4,241433.7,292487.3,259326.2,0.0
203537.0,212745.1,606910.3,610590.6,220608.4,241393.1,292435.6,259290.3,0.0
203563.1,212753.6,605435.5,609536.8,220597.3,241378.4,292392.8,259257.2,0.0
203635.8,212781.2,603995.8,608504.8,220595.5,241367.7,292348.8,259226.0,0.0
203655.8,212775.9,602547.7,607480.8,220589.0,241347.6,292310.4,259207.1,0.0
203584.6,212717.9,601057.9,606434.3,220560.0,241303.9,292262.3,259179.3,0.0
203524.5,212674.3,599576.8,605389.9,220534.1,241270.1,292216.8,259148.9,0.0
203550.5,212678.9,598144.3,604369.6,220526.0,241256.8,292176.3,259116.9,0.0
203609.0,212691.4,596740.1,603366.6,220521.7,241241.1,292132.5,259082.3,0.0
203626.9,212684.1,595330.2,602374.4,220517.2,241215.4,292097.5,259062.4,0.0
203570.8,212644.8,593889.6,601374.0,220501.4,241180.3,292063.2,259048.1,0.0
203530.6,212624.2,592467.2,600384.8,220499.3,241166.5,292042.4,259039.6,0.0
203544.0,212619.0,591066.3,599390.1,220481.0,241145.7,291998.0,259000.8,0.0
203588.0,212610.3,589690.1,598404.4,220460.7,241118.9,291943.7,258954.0,0.0
203611.3,212606.4,588322.7,597445.0,220458.2,241098.7,291911.7,258937.8,0.0
203550.9,212564.2,586917.9,596470.8,220437.2,241062.8,291875.0,258919.8,0.0
203491.4,212524.3,585516.1,595496.6,220416.2,241034.4,291838.3,258896.3,0.0
203508.6,212522.5,584154.4,594535.4,220404.8,241017.8,291799.3,258862.5,0.0
203576.7,212547.5,582835.3,593600.3,220407.5,241008.8,291764.6,258835.9,0.0
203601.1,212552.2,581509.2,592677.3,220408.6,240992.0,291737.5,258824.4,0.0
203536.9,212506.9,580139.4,591735.9,220387.4,240955.7,291702.3,258808.0,0.0
203473.0,212464.9,578773.6,590789.1,220362.8,240923.8,291664.0,258783.0,0.0
203491.0,212466.6,577458.5,589864.4,220355.2,240913.1,291631.5,258757.3,0.0
203570.9,212500.6,576189.9,588970.9,220368.4,240915.7,291610.9,258743.0,0.0
203588.1,212496.1,574893.1,588065.2,220361.3,240888.2,291575.5,258721.6,0.0
203508.6,212436.1,573548.3,587136.6,220327.1,240835.5,291527.4,258691.6,0.0
203452.9,212401.9,572223.8,586224.5,220308.2,240808.0,291498.8,258673.0,0.0
203476.8,212407.6,570944.3,585328.6,220301.8,240798.9,291466.8,258643.9,0.0
203550.7,212438.9,569705.3,584459.2,220312.8,240800.5,291441.3,258624.3,0.0
203576.7,212440.8,568454.0,583597.0,220317.7,240790.0,291419.6,258616.7,0.0
203526.4,212407.1,567171.0,582723.5,220311.2,240767.9,291400.5,258614.5,0.0
203472.2,212375.7,565884.0,581841.1,220298.2,240748.2,291374.9,258599.2,0.0
203495.1,212382.6,564635.1,580969.6,220288.8,240738.0,291341.2,258567.0,0.0
203551.8,212397.5,563410.7,580109.3,220278.2,240718.0,291296.4,258527.3,0.0
203571.0,212395.2,562190.6,579269.8,220280.1,240699.8,291270.6,258515.7,0.0
203506.2,212346.2,560925.8,578407.8,220260.0,240661.2,291234.4,258498.5,0.0
203446.5,212304.8,559662.5,577541.9,220237.2,240633.0,291196.9,258475.4,0.0
203462.7,212300.1,558443.4,576690.9,220226.3,240621.2,291158.8,258441.9,0.0
203537.1,212328.4,557270.5,575873.3,220235.1,240621.8,291130.8,258418.5,0.0
203561.1,212332.0,556081.8,575055.6,220232.6,240604.5,291098.8,258403.0,0.0
203502.3,212292.5,554858.8,574229.2,220218.8,240573.9,291068.8,258393.8,0.0
203452.5,212264.4,553642.8,573404.4,220208.3,240556.6,291043.1,258383.8,0.0
203472.0,212267.3,552461.2,572585.3,220199.5,240548.5,291009.1,258356.4,0.0
203517.7,212270.2,551295.6,571767.4,220180.7,240525.8,290957.1,258313.1,0.0
203535.3,212262.8,550139.7,570977.3,220183.4,240510.7,290930.3,258303.3,0.0
203489.5,212235.3,548954.9,570180.8,220175.8,240487.9,290908.0,258301.0,0.0
203427.1,212194.0,547755.2,569365.3,220149.5,240456.6,290870.4,258275.2,0.0
203450.6,212200.9,546606.5,568571.6,220144.0,240448.5,290839.0,258249.8,0.0
203527.5,212233.8,545499.6,567805.6,220153.8,240448.4,290811.2,258232.0,0.0
203541.8,212224.4,544370.6,567034.6,220150.1,240426.5,290775.8,258217.3,0.0
203475.4,212174.5,543206.8,566252.6,220133.5,240394.3,290742.6,258207.2,0.0
203409.5,212132.2,542037.7,565460.2,220105.4,240362.5,290702.7,258182.0,0.0
203427.9,212138.0,540915.6,564687.9,220093.3,240352.7,290667.3,258153.4,0.0
203520.2,212190.6,539856.8,563964.9,220122.0,240374.8,290661.5,258155.1,0.0
203523.2,212171.6,538743.9,563204.0,220105.1,240341.1,290616.3,258125.2,0.0
203451.3,212120.8,537601.1,562436.6,220079.1,240300.7,290577.4,258103.9,0.0
203392.3,212086.0,536464.8,561670.3,220055.6,240273.4,290541.4,258081.8,0.0
203413.8,212095.4,535374.9,560925.8,220048.7,240270.0,290509.4,258057.0,0.0
203488.6,212128.0,534328.9,560209.9,220060.4,240277.2,290486.9,258042.5,0.0
203506.3,212124.5,533263.4,559489.9,220059.5,240260.7,290459.4,258029.4,0.0
203442.8,212082.3,532159.3,558754.4,220043.1,240228.7,290427.9,258017.7,0.0
203387.8,212053.6,531060.4,558018.3,220028.9,240209.7,290400.8,258005.0,0.0
203395.2,212046.4,529986.1,557279.7,220007.9,240188.6,290356.9,257965.4,0.0
203470.7,212078.9,528968.3,556581.2,220016.5,240190.4,290332.0,257946.2,0.0
203492.8,212079.7,527935.4,555885.6,220018.4,240175.8,290306.9,257938.5,0.0
203429.3,212036.2,526858.7,555172.0,219998.8,240140.5,290275.3,257926.7,0.0
203367.5,211997.2,525779.1,554449.6,219975.1,240111.8,290240.8,257902.8,0.0
203390.0,212006.8,524745.5,553746.8,219965.9,240103.4,290210.9,257874.6,0.0
203469.5,212043.6,523756.9,553072.6,219978.0,240108.6,290190.8,257859.5,0.0
203500.0,212053.7,522758.3,552405.1,219991.5,240105.6,290179.5,257862.5,0.0
203441.5,212019.2,521707.7,551709.3,219974.8,240074.2,290151.8,257856.6,0.0
203383.7,211989.3,520660.8,551012.6,219959.7,240053.6,290124.3,257846.6,0.0
203381.5,211973.9,519636.6,550312.5,219938.5,240031.6,290076.8,257809.3,0.0
203452.9,212000.4,518668.2,549656.3,219947.1,240034.3,290052.2,257798.4,0.0
203485.5,212011.5,517693.2,549007.1,219954.2,240025.7,290035.2,257800.9,0.0
203421.2,211968.4,516669.4,548332.9,219938.0,239995.3,290008.5,257796.7,0.0
203353.1,211928.2,515643.9,547653.4,219917.4,239971.5,289979.8,257782.8,0.0
203367.5,211930.2,514660.8,546988.7,219909.3,239964.0,289950.8,257762.0,0.0
203446.4,211963.0,513724.2,546354.1,219921.4,239971.2,289932.4,257753.6,0.0
203482.6,211978.2,512783.1,545732.0,219936.6,239973.2,289923.7,257764.0,0.0
203410.5,211929.1,511779.1,545070.0,219913.9,239935.8,289889.2,257752.0,0.0
203346.9,211891.6,510779.2,544407.7,219891.8,239910.3,289858.1,257735.8,0.0
203360.5,211892.7,509820.3,543760.2,219881.0,239900.8,289825.5,257710.6,0.0
203428.9,211919.4,508903.0,543139.4,219887.8,239902.5,289802.1,257695.5,0.0
203449.2,211915.1,507973.6,542523.2,219889.7,239892.4,289782.9,257692.3,0.0
203398.6,211881.4,507009.7,541895.1,219882.1,239871.4,289762.8,257695.9,0.0
203349.8,211858.3,506046.0,541263.9,219873.9,239858.3,289743.7,257692.5,0.0
203348.2,211843.4,505096.2,540616.4,219849.0,239832.2,289698.3,257652.6,0.0
203405.2,211853.7,504191.5,540000.6,219843.5,239820.2,289663.2,257625.7,0.0
203442.3,211865.7,503300.1,539414.9,219860.1,239821.8,289657.0,257635.4,0.0
203384.3,211827.8,502354.5,538799.4,219849.7,239796.5,289633.4,257632.6,0.0
203319.1,211786.6,501399.6,538170.9,219826.8,239769.7,289599.1,257613.5,0.0
203340.0,211791.6,500494.3,537561.6,219820.9,239765.3,289570.9,257590.9,0.0
203418.4,211826.9,499629.3,536978.4,219831.5,239771.3,289549.2,257576.7,0.0
203438.5,211823.1,498741.6,536393.3,219832.6,239756.6,289524.9,257567.5,0.0
203372.8,211778.2,497809.4,535785.0,219811.7,239720.3,289490.1,257551.4,0.0
203318.6,211749.1,496887.2,535178.8,219796.1,239700.4,289462.8,257537.5,0.0
203344.0,211761.4,496007.1,534589.6,219792.6,239698.5,289438.0,257516.0,0.0
203414.8,211791.2,495159.8,534019.3,219800.5,239701.7,289414.8,257497.3,0.0
203438.3,211792.5,494301.3,533458.6,219810.5,239697.3,289398.9,257495.8,0.0
203374.8,211749.1,493395.4,532870.7,219794.7,239667.2,289370.7,257485.5,0.0
203313.8,211713.2,492490.3,532279.4,219778.4,239645.2,289346.6,257469.2,0.0
203327.3,211713.2,491626.1,531699.4,219768.4,239635.8,289318.5,257440.8,0.0
203402.3,211741.9,490802.6,531145.1,219775.1,239637.8,289296.1,257422.0,0.0
203440.0,211757.7,489973.3,530604.3,219786.9,239638.1,289283.9,257423.4,0.0
203379.8,211720.2,489094.5,530038.6,219776.6,239613.1,289260.9,257415.7,0.0
203322.3,211690.0,488216.2,529467.1,219765.8,239596.8,289239.5,257403.8,0.0
203341.3,211696.8,487377.9,528905.5,219761.9,239596.5,289214.3,257382.7,0.0
203403.6,211715.6,486563.8,528354.1,219755.8,239590.9,289177.8,257354.9,0.0
203426.7,211713.5,485746.7,527816.6,219757.0,239581.9,289154.0,257347.4,0.0
203367.5,211674.6,484890.2,527259.6,219739.9,239553.9,289125.3,257336.6,0.0
203300.0,211634.5,484026.8,526696.4,219718.2,239531.4,289096.6,257318.6,0.0
203319.9,211642.4,483212.3,526157.3,219717.8,239534.1,289076.8,257300.2,0.0
203395.3,211676.0,482434.8,525639.6,219729.8,239541.6,289060.0,257287.4,0.0
203421.1,211680.1,481643.0,525123.3,219736.5,239535.6,289044.9,257284.8,0.0
203377.1,211658.6,480821.7,524599.8,219736.0,239521.7,289034.8,257292.3,0.0
203311.3,211618.5,479974.1,524048.8,219712.4,239494.8,289002.3,257271.1,0.0
203332.6,211627.1,479170.1,523515.9,219704.8,239491.0,288973.0,257246.2,0.0
203401.8,211652.1,478401.5,522999.5,219704.6,239490.5,288944.2,257221.2,0.0
203443.3,211668.3,477638.4,522505.0,219720.6,239495.5,288936.8,257224.9,0.0
203380.9,211628.7,476819.6,521979.3,219703.7,239468.4,288908.0,257214.1,0.0
203310.8,211588.7,475992.1,521440.7,219681.5,239443.7,288874.4,257193.4,0.0
203316.0,211587.2,475205.3,520915.4,219670.8,239435.3,288841.3,257163.5,0.0
203391.2,211623.3,474467.9,520427.0,219684.0,239445.8,288823.3,257150.4,0.0
203423.3,211636.3,473717.2,519942.4,219692.5,239442.2,288806.6,257147.7,0.0
203365.2,211599.1,472921.9,519433.5,219681.3,239420.0,288785.8,257143.6,0.0
203298.2,211562.2,472117.9,518912.2,219662.0,239397.6,288759.8,257126.5,0.0
203318.5,211574.8,471359.5,518415.6,219663.9,239400.5,288738.4,257110.2,0.0
203398.8,211610.6,470641.4,517944.8,219681.5,239415.7,288723.8,257101.3,0.0
203428.6,211614.6,469908.4,517472.9,219689.1,239415.6,288708.2,257099.9,0.0
203366.1,211573.0,469122.3,516967.6,219665.7,239384.0,288674.2,257085.0,0.0
203297.4,211533.4,468332.9,516458.0,219643.7,239360.8,288642.5,257068.1,0.0
203315.2,211541.6,467591.4,515969.7,219640.2,239362.3,288620.1,257051.6,0.0
203389.3,211571.6,466885.5,515503.3,219650.9,239369.1,288602.9,257038.1,0.0
203412.7,211572.5,466164.3,515037.7,219656.2,239359.3,288585.2,257030.7,0.0
203346.7,211525.8,465401.2,514553.6,219642.0,239332.6,288563.3,257024.6,0.0
203291.2,211499.6,464638.2,514063.9,219627.3,239313.4,288542.2,257012.3,0.0
203327.5,211527.6,463931.6,513603.4,219639.1,239329.6,288536.5,257009.9,0.0
203394.0,211555.9,463240.9,513143.7,219641.1,239332.8,288513.5,256991.3,0.0
203407.1,211548.6,462528.8,512681.4,219632.3,239313.1,288484.2,256974.5,0.0
203352.8,211518.9,461795.2,512219.8,219627.0,239297.6,288471.1,256978.7,0.0
203272.2,211467.5,461033.7,511727.2,219598.8,239266.2,288435.3,256953.8,0.0
203290.7,211477.7,460326.3,511264.3,219595.3,239266.0,288413.4,256937.7,0.0
203379.6,211526.5,459669.0,510835.7,219617.4,239286.7,288409.1,256939.6,0.0
203415.5,211540.3,458994.6,510405.6,219629.7,239290.0,288401.7,256946.0,0.0
203354.3,211498.8,458265.8,509946.8,219613.9,239264.5,288377.7,256938.8,0.0
203283.5,211460.1,457530.9,509476.1,219591.7,239243.7,288350.8,256922.7,0.0
203290.8,211458.7,456836.0,509019.2,219581.1,239240.8,288323.5,256900.1,0.0
203370.3,211497.1,456192.2,508597.0,219599.1,239257.6,288313.3,256894.7,0.0
203400.5,211506.8,455531.7,508176.1,219608.0,239257.9,288301.5,256896.5,0.0
203333.7,211460.6,454812.3,507722.0,219586.8,239227.8,288272.1,256885.0,0.0
203272.9,211426.6,454095.9,507266.3,219568.9,239211.4,288249.3,256874.5,0.0
203289.2,211432.2,453419.1,506825.0,219561.9,239209.2,288225.8,256855.8,0.0
203362.7,211464.0,452780.5,506406.6,219572.1,239215.6,288207.3,256843.4,0.0
203393.8,211474.0,452134.8,505993.3,219582.3,239215.2,288195.4,256846.4,0.0
203329.7,211431.1,451435.1,505551.8,219562.3,239187.8,288166.6,256836.0,0.0
203264.8,211394.2,450732.3,505105.8,219540.7,239169.7,288139.1,256819.9,0.0
203282.2,211401.1,450074.9,504677.0,219537.6,239173.2,288116.9,256801.9,0.0
203356.8,211434.4,449455.9,504271.1,219548.6,239184.2,288098.9,256789.9,0.0
203383.4,211437.4,448821.8,503864.9,219553.5,239180.1,288078.0,256784.8,0.0
203319.3,211396.4,448142.5,503438.6,219539.3,239156.4,288051.9,256779.2,0.0
203251.0,211362.0,447458.0,503004.7,219520.4,239136.7,288029.4,256766.3,0.0
203266.6,211370.7,446815.2,502582.9,219512.6,239132.8,288008.4,256746.5,0.0
203338.6,211397.2,446212.7,502188.2,219523.4,239141.9,287995.6,256736.9,0.0
203368.9,211403.3,445594.4,501794.1,219526.7,239134.1,287977.5,256729.2,0.0
203307.5,211363.5,444929.6,501377.7,219512.8,239108.5,287954.8,256718.6,0.0
203249.7,211339.1,444268.5,500960.6,219503.2,239098.0,287939.5,256712.7,0.0
203264.5,211346.0,443638.6,500549.8,219497.5,239099.2,287916.2,256693.0,0.0
203341.3,211381.7,443049.7,500166.9,219509.5,239112.0,287901.6,256682.0,0.0
203376.3,211397.4,442450.3,499788.6,219520.7,239111.0,287891.5,256683.3,0.0
203312.0,211357.3,441800.4,499383.0,219508.5,239088.4,287870.9,256678.0,0.0
203238.7,211314.4,441139.9,498964.1,219488.2,239068.3,287844.2,256662.0,0.0
203269.2,211337.5,440538.0,498576.4,219494.6,239081.5,287833.1,256653.0,0.0
203344.6,211370.4,439963.8,498202.2,219504.6,239089.4,287816.4,256640.2,0.0
203375.5,211378.0,439376.8,497830.5,219514.1,239086.6,287802.3,256638.4,0.0
203315.4,211342.5,438741.3,497433.8,219498.4,239061.4,287778.6,256630.5,0.0
203248.1,211308.7,438103.4,497033.0,219484.4,239048.0,287760.0,256620.4,0.0
203277.0,211328.9,437516.6,496658.6,219494.9,239064.3,287755.4,256616.1,0.0
203345.1,211355.1,436946.1,496285.6,219496.3,239063.9,287729.6,256593.9,0.0
203372.5,211362.8,436372.4,495923.4,219504.2,239061.6,287714.9,256589.9,0.0
203322.2,211335.2,435761.1,495545.9,219498.8,239049.3,287701.1,256592.1,0.0
203243.0,211286.0,435120.6,495137.5,219467.7,239021.3,287665.9,256567.8,0.0
203254.3,211289.8,434533.8,494758.9,219462.5,239023.0,287645.4,256549.0,0.0
203335.2,211328.8,433991.3,494408.0,219478.0,239038.9,287634.3,256542.0,0.0
203355.8,211325.6,433421.7,494047.8,219478.9,239029.9,287613.4,256533.1,0.0
203297.2,211289.3,432814.7,493669.9,219464.8,239003.7,287587.5,256523.7,0.0
203237.2,211259.0,432205.2,493289.3,219452.8,238991.4,287569.3,256516.3,0.0
203254.7,211269.5,431636.3,492924.5,219454.5,239001.5,287555.7,256506.1,0.0
203327.2,211301.6,431104.1,492580.9,219467.9,239017.1,287544.5,256499.1,0.0
203355.6,211309.8,430556.1,492235.3,219475.7,239015.2,287531.4,256497.4,0.0
203302.6,211282.4,429968.8,491874.8,219469.9,239001.8,287516.6,256501.5,0.0
203235.1,211247.2,429366.4,491496.0,219450.3,238983.4,287492.6,256487.5,0.0
203241.5,211245.5,428800.8,491130.5,219439.9,238979.3,287467.6,256465.1,0.0
203313.5,211275.1,428273.9,490787.4,219442.4,238983.5,287446.4,256447.9,0.0
203347.3,211282.9,427738.7,490449.1,219447.3,238978.5,287430.6,256443.2,0.0
203282.7,211238.1,427154.0,490086.7,219428.3,238950.3,287405.4,256432.9,0.0
203215.0,211199.1,426560.6,489713.6,219403.8,238928.8,287377.2,256415.0,0.0
203236.7,211212.3,426017.4,489366.0,219404.6,238934.6,287359.8,256400.2,0.0
203305.5,211238.7,425502.8,489031.0,219411.5,238940.3,287338.5,256383.5,0.0
203329.5,211239.0,424970.5,488692.5,219408.8,238930.6,287314.1,256372.3,0.0
203294.9,211229.3,424424.6,488362.2,219415.5,238931.4,287315.1,256389.8,0.0
203220.2,211188.8,423846.1,487998.9,219394.5,238912.1,287291.2,256376.8,0.0
203213.8,211173.8,423291.9,487635.3,219372.5,238895.5,287253.4,256341.6,0.0
203298.1,211215.0,422801.3,487318.2,219387.8,238910.3,287242.5,256335.7,0.0
203344.5,211241.3,422302.8,487007.0,219402.6,238917.0,287236.5,256341.1,0.0
203272.0,211195.1,421735.5,486651.9,219377.1,238884.1,287202.8,256324.1,0.0
203206.5,211162.7,421173.7,486302.1,219365.2,238872.1,287183.4,256315.4,0.0
203219.1,211166.0,420651.0,485966.8,219367.3,238877.5,287166.4,256302.5,0.0
203294.5,211200.6,420167.3,485651.7,219376.9,238887.3,287151.2,256293.3,0.0
203332.8,211220.3,419674.5,485340.8,219384.7,238886.9,287138.5,256294.3,0.0
203271.0,211183.5,419128.4,485005.5,219370.0,238863.1,287116.7,256291.1,0.0
203202.9,211149.6,418578.3,484664.0,219354.5,238849.1,287097.4,256284.1,0.0
203222.4,211160.2,418075.0,484342.1,219356.2,238858.3,287084.8,256274.7,0.0
203301.1,211194.7,417604.7,484039.7,219369.3,238873.5,287071.5,256266.3,0.0
203326.8,211196.1,417113.7,483731.0,219371.2,238869.4,287051.9,256259.9,0.0
203255.2,211145.9,416568.2,483392.6,219346.0,238837.2,287020.7,256245.9,0.0
203193.1,211118.6,416032.1,483061.8,219332.6,238826.1,287004.3,256240.8,0.0
203210.9,211129.8,415535.2,482744.2,219332.2,238832.5,286990.3,256231.1,0.0
203276.6,211156.0,415063.9,482436.0,219332.8,238832.0,286967.4,256213.5,0.0
203314.7,211173.8,414596.0,482147.3,219343.8,238836.6,286961.8,256221.3,0.0
203251.5,211135.4,414074.3,481826.6,219329.3,238812.2,286941.0,256217.1,0.0
203175.3,211091.4,413539.5,481493.8,219311.1,238790.9,286916.5,256203.1,0.0
203190.4,211103.6,413049.3,481179.4,219309.0,238792.3,286897.7,256189.1,0.0
203276.4,211148.3,412609.1,480899.7,219329.5,238813.7,286893.3,256190.5,0.0
203317.0,211163.1,412151.9,480618.3,219343.1,238819.1,286888.4,256196.9,0.0
203248.4,211119.0,411630.9,480296.9,219320.8,238786.9,286859.2,256184.3,0.0
203174.6,211080.1,411107.4,479968.7,219298.5,238766.1,286834.1,256172.8,0.0
203189.3,211085.7,410628.5,479658.3,219294.0,238769.8,286814.8,256159.2,0.0
203270.8,211126.5,410193.1,479378.2,219309.0,238785.6,286803.1,256152.9,0.0
203298.2,211133.2,409735.1,479091.4,219312.5,238779.3,286785.5,256149.2,0.0
203235.7,211093.5,409229.9,478781.5,219297.1,238752.7,286763.0,256144.9,0.0
203165.6,211055.7,408715.0,478463.8,219278.1,238736.0,286741.5,256137.2,0.0
203180.0,211063.5,408244.6,478164.5,219276.8,238741.2,286726.3,256127.5,0.0
203256.9,211101.2,407818.0,477891.8,219290.9,238757.2,286720.2,256126.7,0.0
203290.6,211113.3,407375.8,477618.8,219300.6,238759.1,286711.8,256132.1,0.0
203228.2,211075.0,406878.8,477314.7,219285.0,238734.4,286687.9,256127.5,0.0
203157.3,211038.8,406374.6,477001.7,219267.4,238717.0,286664.9,256118.3,0.0
203171.2,211047.3,405914.0,476708.7,219266.3,238724.1,286649.8,256109.4,0.0
203249.3,211085.7,405495.5,476442.3,219281.6,238741.4,286640.9,256107.9,0.0
203282.2,211097.4,405063.7,476175.6,219291.7,238741.5,286632.0,256112.6,0.0
203222.8,211064.0,404585.9,475888.0,219283.4,238723.0,286619.2,256116.5,0.0
203147.7,211025.6,404091.9,475586.5,219265.3,238703.5,286600.4,256107.1,0.0
203158.9,211031.3,403638.0,475298.7,219260.1,238704.6,286582.7,256091.3,0.0
203232.1,211062.3,403224.2,475031.9,219267.0,238712.9,286568.7,256079.7,0.0
203264.8,211072.4,402802.1,474770.1,219273.9,238710.9,286556.9,256082.4,0.0
203216.4,211050.4,402341.9,474496.2,219273.8,238702.6,286551.5,256095.9,0.0
203144.1,211011.5,401857.8,474197.4,219255.7,238683.3,286529.8,256086.2,0.0
203147.6,211007.1,401408.1,473904.2,219242.1,238675.3,286505.4,256062.0,0.0
203233.0,211048.6,401014.5,473650.7,219260.2,238693.5,286501.4,256059.5,0.0
203259.9,211048.9,400597.7,473389.2,219264.5,238689.3,286488.0,256058.0,0.0
203197.5,211008.4,400134.2,473107.2,219249.5,238664.9,286468.7,256052.6,0.0
203132.2,210976.1,399662.7,472820.4,219236.9,238650.8,286452.2,256045.3,0.0
203152.9,210988.9,399236.3,472552.5,219241.0,238662.1,286441.5,256037.5,0.0
203226.5,211019.2,398840.3,472297.2,219249.4,238672.4,286426.7,256027.5,0.0
203259.3,211028.9,398433.4,472046.8,219257.2,238672.3,286416.4,256029.0,0.0
203196.0,210988.1,397975.6,471769.3,219241.1,238647.2,286394.6,256022.5,0.0
203131.1,210954.3,397517.5,471489.4,219232.3,238637.1,286382.5,256018.4,0.0
203148.1,210966.1,397098.9,471223.9,219234.7,238646.1,286371.6,256007.0,0.0
203230.2,211008.3,396719.7,470980.4,219250.4,238664.3,286364.2,256001.2,0.0
203254.6,211011.0,396315.6,470726.9,219249.0,238655.5,286344.7,255992.8,0.0
203198.6,210977.6,395876.1,470461.9,219238.7,238637.6,286330.3,255993.7,0.0
203141.8,210954.0,395432.8,470195.0,219236.3,238634.7,286325.2,255997.0,0.0
203146.0,210951.7,395009.0,469920.9,219225.6,238628.5,286302.5,255974.7,0.0
203224.0,210986.9,394635.6,469680.3,219238.4,238642.5,286295.9,255968.5,0.0
203261.0,210996.5,394250.6,469440.2,219247.6,238643.8,286287.5,255971.1,0.0
203202.0,210956.8,393811.4,469171.9,219231.6,238621.8,286265.0,255964.5,0.0
203139.5,210924.6,393367.5,468899.9,219217.8,238609.7,286250.0,255958.2,0.0
203162.1,210941.1,392968.5,468648.1,219220.5,238620.0,286241.0,255949.8,0.0
203243.5,210978.2,392605.8,468416.2,219232.5,238635.5,286233.9,255942.6,0.0
203283.6,210990.5,392233.6,468189.3,219245.0,238641.4,286231.0,255948.9,0.0
203236.5,210962.8,391817.4,467942.8,219245.2,238630.7,286224.8,255959.5,0.0
203185.1,210942.7,391393.7,467689.3,219243.3,238628.8,286222.3,255965.4,0.0
203198.7,210950.7,390992.7,467432.3,219237.8,238628.0,286204.6,255945.2,0.0
203266.2,210976.3,390625.6,467192.3,219241.0,238630.7,286186.4,255923.9,0.0
203310.5,210997.6,390262.7,466968.7,219256.9,238639.6,286183.3,255926.4,0.0
203266.0,210972.2,389853.6,466724.4,219256.0,238630.8,286175.1,255931.2,0.0
203207.9,210942.0,389431.4,466467.3,219246.9,238622.4,286165.7,255928.5,0.0
203224.5,210953.3,389047.2,466225.3,219250.4,238631.2,286157.9,255919.8,0.0
203302.7,210994.1,388701.9,466004.6,219266.9,238649.0,286153.1,255912.6,0.0
203334.5,211004.8,388335.6,465776.6,219270.1,238643.4,286140.9,255905.8,0.0
203270.6,210961.9,387922.4,465526.0,219252.6,238620.0,286120.5,255898.3,0.0
203199.8,210924.6,387501.8,465268.5,219236.3,238607.4,286102.9,255889.5,0.0
203223.5,210948.5,387132.1,465038.0,219244.0,238624.4,286101.3,255889.8,0.0
203296.8,210982.7,386791.2,464821.1,219258.2,238642.4,286096.0,255885.4,0.0
203324.6,210987.8,386434.6,464600.1,219266.1,238647.4,286087.3,255885.2,0.0
203268.1,210956.5,386036.4,464362.7,219255.9,238633.1,286074.9,255888.0,0.0
203185.6,210908.5,385616.7,464103.6,219229.0,238611.4,286050.0,255873.8,0.0
203194.3,210916.1,385241.5,463862.0,219220.6,238614.4,286032.3,255858.1,0.0
203271.9,210955.1,384913.8,463650.8,219238.2,238634.0,286028.0,255857.1,0.0
203308.3,210969.5,384572.2,463438.7,219250.0,238640.6,286024.1,255863.4,0.0
203236.7,210920.0,384169.6,463194.6,219230.5,238616.8,286003.0,255856.5,0.0
203162.2,210879.2,383759.3,462943.6,219210.6,238598.6,285983.8,255844.0,0.0
203189.5,210901.6,383408.5,462726.8,219223.8,238620.3,285987.8,255846.4,0.0
203275.1,210946.8,383092.6,462528.2,219246.2,238647.3,285993.6,255850.5,0.0
203308.3,210957.3,382755.8,462322.3,219256.5,238652.2,285989.3,255856.1,0.0
203244.9,210917.3,382366.7,462090.1,219244.2,238631.6,285972.8,255855.3,0.0
203172.8,210877.9,381965.7,461845.7,219226.3,238613.6,285955.5,255846.9,0.0
203198.5,210902.3,381621.6,461632.9,219239.0,238634.8,285960.1,255851.8,0.0
203284.4,210952.4,381314.0,461438.0,219260.9,238663.4,285966.3,255855.5,0.0
203298.5,210947.8,380965.1,461213.9,219250.2,238646.2,285940.6,255836.3,0.0
203232.8,210906.3,380583.3,460983.4,219236.7,238624.8,285921.4,255831.7,0.0
203171.3,210879.8,380201.2,460755.9,219231.8,238620.7,285914.8,255835.5,0.0
203198.5,210905.3,379864.9,460548.3,219243.4,238640.6,285918.1,255838.8,0.0
203265.5,210936.9,379547.9,460342.8,219251.0,238651.8,285905.5,255826.6,0.0
203279.5,210931.5,379205.9,460124.1,219240.6,238636.0,285880.4,255810.1,0.0
203225.8,210900.1,378838.8,459905.4,219231.6,238621.7,285870.7,255814.0,0.0
203162.6,210870.2,378464.0,459679.6,219222.0,238617.1,285862.7,255814.2,0.0
203167.9,210872.3,378119.5,459459.7,219219.8,238624.0,285852.1,255803.8,0.0
203242.1,210910.3,377812.8,459262.0,219231.2,238639.6,285844.8,255795.8,0.0
203278.5,210923.8,377497.5,459069.9,219240.6,238643.8,285840.3,255800.0,0.0
203225.5,210892.1,377135.2,458855.2,219232.5,238629.1,285831.5,255803.8,0.0
203158.1,210859.0,376759.6,458629.0,219218.8,238620.6,285821.5,255800.3,0.0
203171.8,210870.9,376428.1,458420.7,219222.2,238634.7,285818.1,255794.1,0.0
203248.6,210909.8,376137.3,458231.3,219240.0,238657.3,285815.7,255791.0,0.0
203283.4,210926.0,375829.1,458039.1,219249.5,238659.9,285806.7,255790.1,0.0
203222.3,210890.3,375469.2,457822.7,219236.1,238639.8,285789.6,255786.8,0.0
203153.1,210852.7,375099.6,457598.0,219218.2,238625.4,285775.0,255780.0,0.0
203171.8,210866.5,374776.5,457393.5,219220.1,238639.2,285772.2,255774.6,0.0
203246.5,210902.4,374485.3,457204.3,219232.4,238656.6,285766.7,255767.1,0.0
203276.0,210908.0,374175.4,457010.4,219235.6,238655.2,285755.6,255763.5,0.0
203228.7,210882.3,373830.5,456809.4,219230.3,238644.5,285748.1,255770.9,0.0
203157.3,210848.8,373465.2,456590.6,219212.6,238630.3,285731.8,255763.3,0.0
203162.0,210851.9,373137.4,456383.3,219206.8,238633.6,285717.5,255748.1,0.0
203226.0,210878.3,372843.3,456191.4,219209.5,238640.4,285700.1,255731.1,0.0
203262.0,210892.7,372547.9,456010.8,219218.8,238644.0,285693.2,255733.7,0.0
203218.8,210871.1,372217.0,455818.2,219219.0,238640.6,285692.7,255745.9,0.0
203126.9,210812.2,371840.0,455577.5,219180.7,238605.7,285656.3,255718.0,0.0
203129.6,210811.9,371512.4,455363.3,219168.3,238601.8,285634.0,255695.1,0.0
203204.4,210848.5,371236.1,455185.0,219181.8,238618.4,285628.8,255689.6,0.0
203237.8,210858.0,370951.0,455010.4,219193.2,238623.3,285626.9,255695.8,0.0
203182.5,210822.7,370615.5,454810.4,219181.1,238604.7,285614.3,255696.7,0.0
203121.1,210795.2,370273.6,454605.0,219173.5,238596.6,285607.4,255699.3,0.0
203135.2,210807.2,369965.0,454410.3,219176.1,238605.6,285600.3,255692.3,0.0
203208.6,210843.7,369691.2,454232.9,219188.2,238623.6,285591.4,255683.8,0.0
203240.8,210852.5,369405.3,454055.6,219194.1,238626.6,285580.0,255684.4,0.0
203184.4,210817.1,369073.0,453856.5,219180.6,238605.7,285562.0,255683.6,0.0
203110.6,210778.6,368724.6,453645.1,219162.1,238587.2,285542.4,255673.2,0.0
203115.3,210780.6,368413.4,453445.1,219156.4,238589.3,285524.3,255654.9,0.0
203193.6,210818.9,368149.3,453273.2,219171.8,238608.4,285518.6,255646.8,0.0
203235.0,210837.0,367875.4,453107.8,219187.5,238617.4,285516.6,255650.7,0.0
203188.5,210809.0,367556.5,452922.0,219183.7,238606.0,285508.1,255657.1,0.0
203120.4,210770.5,367216.4,452714.9,219164.4,238590.6,285490.8,255648.2,0.0
203114.1,210761.3,366899.3,452507.5,219145.5,238580.1,285461.4,255619.4,0.0
203188.0,210797.3,366639.0,452338.3,219157.5,238594.4,285454.4,255613.0,0.0
203222.9,210810.9,366370.5,452173.8,219170.0,238601.8,285450.9,255617.9,0.0
203165.7,210775.5,366050.3,451984.0,219159.9,238585.0,285434.1,255615.5,0.0
203098.5,210743.3,365715.7,451783.1,219145.5,238570.9,285418.3,255608.9,0.0
203119.3,210764.3,365430.8,451606.2,219152.1,238588.2,285419.4,255606.2,0.0
203191.5,210797.1,365172.3,451438.5,219160.4,238604.7,285411.8,255597.4,0.0
203217.0,210801.2,364897.0,451264.4,219159.4,238600.1,285396.1,255591.4,0.0
203142.1,210750.2,364569.4,451065.8,219138.1,238571.4,285371.8,255580.9,0.0
203078.2,210719.5,364245.1,450872.2,219126.5,238560.4,285362.2,255578.9,0.0
203096.3,210731.7,363961.4,450691.9,219127.4,238569.3,285357.0,255573.1,0.0
203170.9,210770.0,363709.8,450527.9,219137.8,238584.1,285349.1,255565.8,0.0
203201.2,210778.0,363443.8,450360.7,219142.1,238581.5,285334.0,255562.8,0.0
203138.8,210734.0,363125.0,450167.6,219122.6,238552.9,285309.5,255554.0,0.0
203075.7,210702.2,362806.2,449974.3,219108.6,238540.8,285296.6,255551.1,0.0
203088.1,210710.9,362525.3,449791.5,219108.1,238546.8,285285.1,255541.5,0.0
203162.1,210745.9,362280.2,449628.9,219119.8,238560.5,285273.9,255530.5,0.0
203205.0,210768.1,362028.4,449474.2,219133.1,238567.2,285265.8,255533.5,0.0
203148.6,210737.2,361723.5,449290.5,219120.3,238548.2,285247.3,255530.6,0.0
203078.2,210701.2,361403.1,449092.9,219100.2,238529.8,285227.0,255518.5,0.0
203095.7,210714.4,361127.3,448914.6,219098.8,238535.9,285216.5,255507.8,0.0
203171.6,210749.1,360887.2,448755.9,219110.7,238551.2,285207.9,255500.8,0.0
203204.1,210755.7,360634.0,448597.1,219117.4,238551.2,285197.2,255501.3,0.0
203136.3,210706.0,360322.8,448408.5,219094.8,238521.6,285169.3,255491.5,0.0
203078.8,210683.3,360019.4,448227.6,219084.4,238513.8,285162.3,255492.9,0.0
203082.2,210683.1,359740.3,448046.7,219076.6,238513.0,285146.7,255476.3,0.0
203156.9,210720.3,359503.3,447889.9,219084.9,238523.3,285134.6,255464.1,0.0
203198.9,210738.3,359263.5,447743.4,219099.7,238531.8,285131.9,255472.8,0.0
203131.3,210693.1,358959.8,447560.1,219083.7,238506.3,285107.8,255463.4,0.0
203062.8,210659.8,358651.5,447372.3,219067.8,238490.8,285088.3,255453.5,0.0
203077.4,210671.2,358383.4,447200.8,219067.3,238498.6,285077.3,255443.9,0.0
203145.2,210699.5,358148.9,447043.3,219074.5,238510.6,285064.3,255433.9,0.0
203182.5,210713.3,357914.4,446898.5,219086.7,238518.2,285059.2,255442.0,0.0
203138.8,210692.2,357635.0,446733.8,219080.6,238506.4,285048.7,255447.9,0.0
203064.1,210653.1,357330.3,446550.8,219061.8,238489.5,285030.8,255440.9,0.0
203075.4,210666.0,357068.1,446385.7,219064.9,238496.6,285022.3,255434.7,0.0
203151.1,210703.9,356840.4,446237.0,219078.0,238509.6,285014.2,255426.5,0.0
203184.2,210711.9,356600.1,446089.5,219083.0,238509.5,285003.3,255425.1,0.0
203125.9,210677.5,356313.0,445920.6,219068.2,238488.3,284985.0,255422.3,0.0
203054.1,210640.2,356011.3,445736.3,219047.6,238470.5,284964.7,255413.0,0.0
203065.3,210649.3,355752.5,445570.1,219046.0,238475.5,284954.4,255406.1,0.0
203137.8,210683.2,355533.7,445425.2,219057.1,238490.6,284948.6,255401.2,0.0
203184.4,210704.5,355309.0,445289.8,219070.8,238499.2,284948.6,255408.1,0.0
203140.4,210679.4,355039.4,445131.7,219070.2,238490.5,284943.9,255418.1,0.0
203059.9,210634.1,354737.0,444942.9,219046.0,238470.2,284920.8,255407.9,0.0
203070.1,210644.1,354481.3,444776.4,219044.0,238474.8,284908.4,255400.5,0.0
203152.2,210687.5,354273.8,444639.9,219064.8,238496.5,284908.4,255405.1,0.0
203187.4,210699.5,354048.1,444498.8,219075.1,238497.4,284901.1,255412.3,0.0
203124.9,210659.0,353763.6,444327.5,219056.1,238468.1,284877.4,255407.9,0.0
203048.5,210618.0,353474.8,444153.5,219038.7,238453.0,284863.4,255405.3,0.0
203058.5,210629.7,353229.0,443997.4,219040.9,238466.1,284859.1,255402.8,0.0
203135.2,210670.6,353021.3,443862.1,219055.5,238486.2,284857.4,255403.4,0.0
203170.6,210681.4,352799.6,443725.6,219064.8,238489.4,284853.4,255409.5,0.0
203117.8,210650.8,352532.4,443571.0,219057.7,238474.3,284845.5,255418.0,0.0
203036.6,210605.6,352240.6,443393.1,219032.2,238448.4,284823.7,255407.7,0.0
203042.4,210611.5,351989.8,443232.3,219025.2,238448.9,284812.3,255398.3,0.0
203121.6,210652.1,351788.3,443101.1,219043.0,238471.1,284815.2,255403.2,0.0
203162.1,210668.7,351571.2,442966.9,219049.6,238474.4,284813.4,255407.7,0.0
203114.0,210640.0,351310.7,442816.1,219042.1,238459.8,284806.0,255414.4,0.0
203041.1,210601.4,351027.2,442645.7,219022.6,238440.7,284791.1,255409.0,0.0
203048.5,210608.0,350785.3,442491.9,219020.4,238445.7,284785.6,255402.8,0.0
203126.2,210645.8,350590.6,442363.7,219038.4,238465.0,284787.9,255404.8,0.0
203161.5,210652.9,350376.8,442230.6,219046.0,238463.0,284781.4,255407.4,0.0
203116.4,210627.7,350120.7,442081.4,219039.4,238447.0,284772.4,255411.7,0.0
203046.7,210596.3,349848.0,441918.9,219026.0,238433.8,284761.9,255408.4,0.0
203056.8,210605.5,349613.5,441770.5,219025.6,238443.6,284757.3,255403.4,0.0
203125.3,210637.8,349411.3,441634.4,219034.3,238454.0,284747.6,255395.3,0.0
203157.1,210645.2,349196.8,441498.2,219038.0,238448.3,284736.1,255392.9,0.0
203103.1,210610.5,348941.5,441347.4,219030.2,238430.4,284727.1,255395.3,0.0
203030.7,210574.9,348668.1,441181.5,219013.0,238412.4,284711.0,255388.4,0.0
203036.5,210579.7,348435.0,441031.0,219011.4,238417.3,284699.6,255380.2,0.0
203116.0,210621.2,348248.2,440907.3,219029.7,238438.7,284698.9,255381.1,0.0
203157.1,210639.8,348046.3,440784.2,219041.4,238444.4,284697.8,255386.5,0.0
203101.2,210603.5,347791.6,440632.8,219028.0,238423.9,284682.6,255384.7,0.0
203029.9,210564.3,347526.4,440473.2,219013.5,238411.0,284670.8,255380.1,0.0
203038.3,210570.0,347296.7,440327.0,219011.8,238418.2,284662.8,255370.8,0.0
203113.3,210604.4,347106.2,440201.0,219021.1,238434.0,284657.9,255363.2,0.0
203151.3,210618.2,346907.1,440076.7,219029.4,238435.8,284654.3,255364.0,0.0
203105.1,210592.3,346666.1,439935.9,219025.5,238424.7,284650.1,255371.5,0.0
203040.8,210563.2,346410.1,439783.8,219017.5,238416.1,284646.5,255373.6,0.0
203049.9,210570.6,346189.5,439645.4,219022.1,238424.4,284645.4,255370.6,0.0
203124.7,210605.7,346009.0,439527.1,219037.5,238441.3,284647.8,255368.3,0.0
203171.5,210629.9,345822.8,439413.0,219052.4,238450.7,284652.3,255377.3,0.0
203118.0,210598.0,345581.1,439267.5,219042.2,238432.0,284642.4,255378.1,0.0
203045.0,210559.6,345320.1,439109.7,219025.2,238415.4,284630.3,255369.0,0.0
203060.6,210576.2,345110.7,438978.5,219035.4,238433.0,284635.3,255371.1,0.0
203128.9,210607.7,344925.8,438853.5,219042.1,238443.4,284629.0,255360.9,0.0
203164.2,210620.4,344732.9,438732.8,219049.7,238445.4,284625.7,255361.6,0.0
203109.5,210586.8,344491.4,438589.0,219040.0,238426.6,284614.4,255360.6,0.0
203034.4,210549.0,344236.6,438437.3,219028.9,238412.9,284607.8,255357.8,0.0
203039.3,210553.8,344019.7,438298.9,219031.6,238421.5,284606.4,255350.6,0.0
203118.7,210592.9,343847.6,438185.6,219048.6,238442.9,284610.2,255348.0,0.0
203174.7,210623.3,343677.8,438084.2,219074.3,238461.7,284623.1,255363.8,0.0
203125.4,210591.0,343443.8,437945.6,219065.8,238445.6,284613.9,255363.2,0.0
203048.3,210548.1,343186.1,437786.8,219043.9,238426.3,284598.6,255349.7,0.0
203063.2,210565.9,342983.8,437659.9,219052.8,238444.0,284607.8,255352.7,0.0
203131.7,210597.3,342805.9,437537.5,219060.8,238456.2,284601.9,255342.8,0.0
203164.5,210604.8,342617.2,437417.2,219067.1,238455.4,284593.3,255339.3,0.0
203121.6,210577.8,342394.2,437287.8,219065.3,238446.9,284592.4,255346.4,0.0
203055.1,210541.9,342149.6,437141.7,219051.4,238437.9,284585.7,255345.1,0.0
203060.8,210544.1,341937.1,437005.2,219049.5,238446.8,284580.3,255336.6,0.0
203141.9,210585.8,341773.0,436899.4,219069.3,238471.9,284586.7,255341.3,0.0
203188.7,210606.2,341599.3,436792.9,219086.4,238483.8,284593.3,255352.2,0.0
203142.0,210578.4,341380.6,436666.8,219084.1,238472.5,284592.6,255363.1,0.0
203066.9,210538.6,341139.5,436521.6,219070.5,238458.1,284582.7,255361.5,0.0
203071.9,210545.3,340933.5,436390.7,219072.6,238468.3,284581.0,255357.3,0.0
203148.0,210584.6,340772.1,436282.7,219092.6,238493.9,284589.0,255359.4,0.0
203173.5,210583.0,340588.8,436163.6,219095.7,238490.7,284584.0,255353.1,0.0
203127.2,210556.8,340368.4,436037.7,219091.2,238479.5,284585.0,255359.2,0.0
203061.5,210530.3,340137.1,435906.3,219086.6,238477.8,284592.6,255366.0,0.0
203062.8,210537.6,339938.0,435782.2,219093.2,238492.0,284598.2,255363.0,0.0
203145.5,210587.1,339785.0,435683.0,219119.4,238521.4,284609.4,255369.0,0.0
203193.2,210614.6,339620.8,435584.7,219139.0,238537.7,284619.8,255382.6,0.0
203146.3,210588.8,339407.5,435461.3,219135.7,238530.9,284622.4,255393.9,0.0
203075.7,210555.3,339176.9,435324.7,219124.8,238523.2,284622.6,255397.6,0.0
203093.2,210575.2,338994.9,435211.6,219139.4,238547.8,284637.4,255406.5,0.0
203167.2,210612.0,338838.3,435105.3,219156.8,238570.4,284643.1,255405.8,0.0
203205.7,210627.0,338668.3,434997.3,219166.7,238577.5,284645.5,255409.9,0.0
203158.4,210599.8,338458.1,434876.8,219165.1,238569.7,284648.8,255419.9,0.0
203095.8,210575.2,338239.4,434751.8,219162.4,238570.7,284660.2,255429.9,0.0
203096.3,210580.1,338050.8,434633.6,219169.1,238589.6,284671.8,255434.5,0.0
203180.4,210628.0,337905.9,434540.1,219195.9,238623.4,284691.7,255445.8,0.0
203227.5,210651.3,337748.5,434445.0,219214.6,238640.5,284705.4,255458.8,0.0
203167.6,210613.6,337531.8,434315.5,219202.4,238622.9,284698.2,255457.9,0.0
203095.4,210576.5,337309.1,434183.5,219194.3,238618.2,284703.4,255463.7,0.0
203095.7,210577.5,337120.5,434062.0,219198.1,238631.6,284710.6,255462.0,0.0
203175.9,210623.7,336974.9,433962.3,219216.9,238656.7,284720.7,255464.8,0.0
203212.0,210635.9,336812.1,433858.0,219225.6,238663.3,284722.2,255467.8,0.0
203162.2,210603.3,336607.0,433738.7,219218.4,238654.0,284720.8,255473.8,0.0
203096.4,210575.8,336387.3,433608.3,219211.0,238652.1,284723.0,255476.5,0.0
203103.6,210585.2,336199.4,433489.2,219213.9,238665.3,284728.3,255474.4,0.0
203172.7,210615.7,336050.2,433387.6,219227.2,238685.9,284734.7,255472.3,0.0
203223.0,210640.2,335905.2,433299.4,219247.0,238705.5,284748.4,255487.7,0.0
203180.4,210617.5,335705.0,433183.8,219242.2,238696.7,284748.9,255496.0,0.0
203097.5,210571.1,335474.0,433045.4,219220.4,238680.0,284739.8,255488.9,0.0
203095.2,210573.7,335285.4,432922.7,219219.4,238690.6,284740.1,255483.5,0.0
203177.0,210620.9,335149.4,432832.1,219243.8,238721.9,284755.3,255489.6,0.0
203227.2,210645.0,334999.8,432740.1,219257.6,238735.6,284764.4,255497.6,0.0
203175.1,210612.3,334798.8,432622.2,219250.4,238724.8,284762.5,255503.3,0.0
203103.9,210578.3,334585.6,432496.0,219241.7,238721.1,284765.1,255506.5,0.0
203104.4,210582.9,334397.6,432369.8,219234.7,238725.4,284758.9,255494.6,0.0
203173.9,210614.5,334255.9,432270.9,219248.4,238746.2,284763.2,255491.2,0.0
203208.8,210625.6,334099.4,432167.8,219252.6,238749.2,284759.0,255489.1,0.0
203168.4,210605.0,333912.2,432062.3,219254.4,238745.9,284764.9,255502.2,0.0
203111.6,210585.2,333709.9,431947.1,219253.0,238747.6,284775.5,255512.0,0.0
203111.0,210588.6,333527.9,431826.0,219249.0,238754.7,284773.5,255503.5,0.0
203180.9,210623.2,333387.1,431728.3,219262.8,238775.7,284776.3,255498.7,0.0
203222.3,210641.0,333242.9,431638.5,219277.2,238790.0,284784.2,255506.9,0.0
203175.0,210613.7,333052.7,431527.3,219273.2,238782.7,284784.5,255515.2,0.0
203105.2,210579.3,332845.3,431404.9,219265.3,238777.8,284784.4,255519.5,0.0
203112.0,210588.2,332669.3,431289.5,219264.7,238790.6,284786.1,255515.8,0.0
203179.6,210618.1,332526.4,431187.6,219271.6,238805.9,284785.4,255506.1,0.0
203213.7,210626.8,332374.4,431087.0,219275.3,238808.2,284780.7,255500.8,0.0
203164.1,210597.8,332183.3,430973.8,219268.1,238795.0,284777.0,255505.0,0.0
203094.8,210567.0,331977.9,430852.9,219258.8,238789.1,284775.9,255507.8,0.0
203091.3,210567.2,331803.4,430740.5,219257.8,238799.9,284775.5,255504.5,0.0
203173.3,210612.4,331675.8,430652.8,219275.7,238821.6,284783.3,255505.2,0.0
203227.3,210641.3,331543.3,430572.3,219297.7,238840.0,284798.0,255520.2,0.0
203181.3,210614.3,331359.2,430466.3,219293.5,238832.7,284800.9,255529.1,0.0
203118.6,210587.4,331164.6,430354.1,219289.9,238833.4,284810.2,255539.5,0.0
203129.4,210602.0,331004.0,430252.5,219301.1,238854.2,284822.7,255545.6,0.0
203192.8,210628.5,330866.6,430153.5,219308.1,238872.5,284823.3,255539.3,0.0
203228.2,210640.0,330720.0,430058.2,219310.5,238875.4,284821.1,255537.8,0.0
203178.4,210611.4,330532.9,429949.0,219301.7,238862.5,284820.5,255542.0,0.0
203101.5,210570.7,330325.2,429823.7,219285.0,238848.2,284815.7,255535.4,0.0
203105.7,210576.7,330160.8,429716.8,219289.5,238861.8,284822.8,255532.5,0.0
203184.8,210621.9,330041.7,429636.3,219313.5,238892.7,284838.7,255538.2,0.0
203232.5,210645.4,329914.3,429556.7,219333.8,238909.8,284852.2,255552.2,0.0
203183.3,210614.8,329730.8,429449.3,219327.0,238895.7,284851.8,255559.1,0.0
203117.1,210585.7,329534.3,429333.8,219317.4,238891.4,284858.3,255565.3,0.0
203121.8,210596.6,329372.6,429231.1,219322.8,238908.4,284869.5,255568.1,0.0
203193.2,210633.3,329248.7,429145.1,219339.0,238932.5,284879.8,255569.6,0.0
203235.1,210649.0,329120.0,429062.9,219354.3,238946.1,284889.4,255580.9,0.0
203188.9,210621.8,328942.7,428958.1,219349.3,238938.0,284890.2,255589.6,0.0
203125.8,210597.1,328754.5,428848.8,219345.5,238938.8,284899.6,255601.5,0.0
203121.1,210598.5,328588.5,428739.8,219341.3,238946.5,284902.6,255594.7,0.0
203188.5,210630.6,328462.2,428651.6,219351.7,238962.2,284905.7,255588.7,0.0
203231.3,210645.8,328330.8,428566.5,219361.5,238968.2,284908.9,255592.8,0.0
203188.1,210617.9,328157.3,428465.9,219357.6,238959.8,284909.9,255600.8,0.0
203105.9,210568.5,327951.2,428336.9,219333.5,238939.4,284895.7,255589.4,0.0
203096.3,210559.5,327776.0,428217.7,219318.8,238935.9,284881.8,255570.1,0.0
203175.0,210602.4,327659.5,428136.4,219336.3,238960.1,284889.1,255570.3,0.0
203219.5,210622.1,327533.4,428052.5,219348.0,238968.8,284891.2,255575.8,0.0
203176.4,210595.1,327362.2,427950.4,219344.8,238958.5,284890.3,255582.5,0.0
203097.0,210553.7,327163.5,427826.0,219324.7,238939.0,284878.6,255574.2,0.0
203094.8,210558.1,327001.2,427717.1,219319.4,238943.2,284873.5,255565.1,0.0
203164.8,210593.9,326885.0,427631.7,219333.8,238963.6,284877.8,255564.2,0.0
203207.9,210611.4,326759.5,427549.4,219341.6,238970.8,284881.0,255569.1,0.0
203158.5,210579.0,326584.3,427444.6,219330.3,238955.3,284873.4,255570.5,0.0
203081.2,210538.7,326389.9,427325.1,219313.5,238941.3,284864.2,255566.1,0.0
203078.6,210540.7,326226.8,427216.9,219307.3,238945.9,284858.3,255556.4,0.0
203150.9,210578.5,326109.4,427132.2,219317.4,238964.6,284857.5,255550.9,0.0
203204.5,210607.4,325994.5,427059.3,219334.7,238979.6,284862.3,255560.2,0.0
203153.6,210574.3,325819.9,426952.8,219320.1,238960.4,284847.3,255556.0,0.0
203055.6,210513.5,325604.4,426809.3,219275.3,238920.4,284810.2,255524.8,0.0
203052.8,210516.3,325445.1,426701.2,219268.7,238924.6,284800.5,255513.2,0.0
203134.7,210564.3,325338.8,426626.3,219288.4,238949.6,284803.8,255513.2,0.0
203168.3,210573.8,325209.3,426538.4,219289.9,238944.0,284790.2,255504.8,0.0
203118.5,210540.7,325040.6,426436.9,219278.8,238925.6,284775.9,255503.2,0.0
203049.9,210508.8,324855.0,426324.1,219262.8,238914.0,284763.1,255500.4,0.0
203040.4,210501.9,324688.5,426209.5,219246.7,238907.9,284740.9,255481.3,0.0
203105.6,210532.3,324571.1,426124.8,219251.5,238919.5,284731.6,255471.2,0.0
203155.5,210558.0,324455.5,426050.7,219260.3,238925.0,284727.5,255473.8,0.0
203106.1,210527.3,324287.1,425949.4,219245.2,238902.9,284711.3,255470.1,0.0
203020.5,210476.5,324089.9,425823.9,219216.3,238874.8,284684.9,255453.5,0.0
203017.2,210472.5,323934.8,425718.8,219210.4,238878.0,284673.4,255444.1,0.0
203083.6,210499.5,323817.4,425630.7,219215.5,238888.1,284663.0,255432.7,0.0
203131.3,210519.6,323698.7,425549.9,219220.9,238888.6,284654.5,255431.9,0.0
203087.5,210488.5,323531.7,425446.6,219204.9,238863.8,284634.2,255429.6,0.0
203013.4,210450.0,323345.5,425330.8,219180.7,238839.4,284614.2,255421.3,0.0
203011.4,210451.3,323193.0,425226.0,219171.6,238838.6,284599.5,255409.9,0.0
203079.9,210480.3,323080.9,425140.4,219175.7,238847.8,284588.6,255398.9,0.0
203130.7,210499.7,322968.7,425064.2,219185.4,238852.3,284582.3,255401.9,0.0
203090.7,210474.1,322805.1,424960.9,219171.0,238830.5,284562.8,255399.2,0.0
203015.8,210433.5,322619.9,424846.0,219152.0,238809.1,284543.8,255395.0,0.0
203002.8,210425.3,322458.3,424730.6,219134.1,238796.5,284516.5,255374.8,0.0
203073.5,210461.4,322348.9,424649.2,219143.2,238808.4,284506.7,255368.2,0.0
203112.9,210473.5,322227.7,424568.1,219147.3,238806.4,284492.8,255366.2,0.0
203073.1,210451.3,322070.9,424480.8,219147.4,238796.1,284486.8,255376.8,0.0
203002.5,210417.0,321891.3,424374.2,219135.7,238781.4,284476.8,255378.5,0.0
202990.5,210410.5,321733.7,424268.1,219121.4,238775.9,284458.9,255364.9,0.0
203074.5,210459.4,321642.5,424206.7,219146.3,238805.6,284469.7,255376.6,0.0
203134.8,210492.8,321546.0,424149.1,219168.3,238821.6,284480.4,255393.6,0.0
203057.4,210430.2,321357.1,424023.0,219127.3,238769.7,284438.5,255365.4,0.0
202970.9,210375.3,321170.9,423903.9,219100.1,238743.7,284418.2,255354.8,0.0
202966.2,210373.1,321024.2,423803.8,219093.7,238744.6,284406.4,255345.8,0.0
203043.5,210413.3,320924.2,423731.2,219108.5,238762.2,284404.9,255345.5,0.0
203090.4,210434.8,320813.1,423655.7,219114.1,238763.0,284397.6,255346.0,0.0
203049.0,210409.4,320662.5,423566.6,219106.1,238746.7,284389.9,255351.1,0.0
202982.1,210378.1,320492.3,423463.9,219092.2,238735.7,284382.9,255353.2,0.0
202979.2,210378.9,320346.8,423363.4,219082.6,238739.7,284369.8,255342.8,0.0
203055.6,210416.8,320250.8,423292.9,219097.0,238763.6,284369.0,255342.2,0.0
203095.3,210427.5,320133.2,423210.4,219095.5,238759.6,284352.2,255332.4,0.0
203043.9,210391.1,319966.2,423102.8,219072.5,238729.3,284323.7,255320.8,0.0
202970.1,210350.8,319785.4,422989.7,219051.0,238707.3,284301.5,255310.5,0.0
202963.1,210346.3,319638.1,422887.8,219042.0,238703.6,284285.1,255294.8,0.0
203032.9,210379.5,319539.3,422811.3,219053.5,238716.9,284276.6,255289.2,0.0
203093.1,210408.7,319450.7,422753.8,219076.9,238734.5,284280.4,255304.4,0.0
203043.8,210372.0,319295.3,422658.2,219060.6,238711.4,284260.2,255301.0,0.0
202958.4,210320.9,319108.0,422536.5,219025.5,238673.2,284225.9,255279.2,0.0
202957.1,210322.1,318970.5,422443.8,219021.7,238676.0,284214.3,255271.5,0.0
203039.9,210370.0,318886.0,422382.8,219045.3,238705.3,284218.5,255277.6,0.0
203085.7,210388.0,318780.3,422313.3,219053.1,238707.2,284208.8,255277.3,0.0
203040.0,210358.2,318629.2,422222.0,219043.0,238687.9,284191.8,255275.1,0.0
202954.1,210304.4,318450.1,422106.8,219016.7,238660.6,284165.2,255260.4,0.0
202948.9,210302.6,318306.8,422005.3,219005.9,238655.9,284144.4,255243.4,0.0
203031.9,210351.0,318223.4,421943.8,219026.2,238680.5,284145.3,255245.1,0.0
203072.0,210360.9,318111.8,421865.2,219023.2,238672.7,284124.6,255234.0,0.0
203024.4,210328.9,317959.3,421769.3,219006.3,238645.5,284101.1,255227.6,0.0
202954.4,210293.5,317794.9,421666.8,218989.6,238626.7,284084.9,255222.2,0.0
202944.5,210287.5,317652.5,421567.7,218977.5,238620.4,284062.3,255203.6,0.0
203020.3,210328.6,317561.8,421499.6,218990.4,238636.1,284052.8,255196.5,0.0
203066.5,210350.1,317463.0,421429.2,218998.0,238638.4,284035.3,255191.1,0.0
203017.2,210316.8,317310.7,421331.4,218978.0,238613.2,284002.6,255177.0,0.0
202947.7,210281.3,317144.8,421227.0,218959.8,238595.0,283978.2,255166.3,0.0
202931.2,210271.9,316995.0,421119.3,218942.8,238583.5,283942.6,255137.9,0.0
203001.1,210308.5,316903.8,421050.2,218954.1,238601.1,283927.3,255127.4,0.0
203056.8,210334.6,316815.7,420992.7,218971.1,238611.6,283920.7,255131.7,0.0
203023.2,210313.7,316674.4,420910.5,218967.8,238596.1,283903.6,255131.0,0.0
202934.7,210262.3,316493.5,420795.5,218940.1,238565.2,283868.7,255108.4,0.0
202932.5,210261.6,316362.1,420704.2,218932.9,238568.0,283851.9,255094.9,0.0
203004.6,210292.3,316270.7,420629.6,218933.5,238577.3,283834.1,255077.0,0.0
203040.4,210300.7,316167.1,420553.1,218927.8,238570.5,283810.6,255060.5,0.0
203000.8,210274.0,316031.3,420469.8,218921.0,238554.9,283789.3,255058.6,0.0
202939.2,210246.4,315876.8,420376.9,218910.9,238543.8,283770.8,255055.9,0.0
202927.8,210236.9,315733.9,420274.4,218892.0,238535.0,283737.9,255027.9,0.0
202989.0,210264.5,315635.5,420193.5,218892.0,238540.4,283711.1,255004.8,0.0
203034.4,210283.8,315540.1,420125.8,218899.9,238541.0,283692.9,255000.1,0.0
202995.8,210257.1,315404.9,420044.4,218893.3,238526.5,283672.5,255000.2,0.0
202911.0,210204.1,315236.2,419932.3,218858.0,238496.6,283635.5,254976.7,0.0
202907.2,210202.2,315111.1,419834.2,218841.7,238492.6,283606.8,254956.8,0.0
202991.2,210248.4,315034.9,419772.3,218859.0,238514.0,283597.7,254955.0,0.0
203061.5,210289.5,314964.5,419727.0,218886.7,238536.8,283598.0,254971.7,0.0
203015.2,210259.7,314821.6,419636.2,218870.0,238514.8,283568.2,254963.1,0.0
202916.0,210197.0,314635.1,419507.5,218824.7,238470.4,283517.1,254928.0,0.0
202882.2,210171.4,314474.5,419385.4,218789.9,238438.7,283467.6,254886.2,0.0
202953.8,210213.5,314391.9,419320.6,218806.6,238454.8,283458.8,254881.2,0.0
203014.9,210251.8,314317.9,419274.8,218830.6,238473.1,283460.3,254894.2,0.0
202963.5,210212.9,314167.7,419176.1,218804.3,238437.4,283417.2,254870.7,0.0
202882.1,210166.1,313998.5,419063.8,218770.8,238404.3,283374.9,254845.9,0.0
202905.2,210198.6,313899.8,419003.2,218788.2,238431.0,283379.5,254860.7,0.0
202959.9,210224.3,313800.8,418922.1,218781.2,238428.6,283349.3,254836.7,0.0
202989.4,210226.5,313692.9,418838.6,218770.0,238409.1,283309.7,254812.5,0.0
202945.3,210193.8,313553.7,418750.7,218755.5,238384.4,283277.9,254803.1,0.0
202867.8,210154.7,313389.0,418645.6,218728.4,238355.6,283241.7,254788.4,0.0
202865.5,210159.1,313263.4,418558.4,218720.0,238352.2,283218.3,254774.8,0.0
202940.8,210198.2,313185.3,418495.8,218731.4,238367.8,283205.2,254768.0,0.0
202971.2,210199.4,313081.2,418415.8,218720.4,238351.0,283169.6,254747.0,0.0
202931.8,210175.1,312946.3,418332.1,218707.3,238328.9,283143.4,254740.3,0.0
202860.4,210137.3,312793.3,418235.9,218689.5,238308.0,283120.5,254733.3,0.0
202855.5,210135.9,312669.3,418145.1,218678.2,238301.3,283097.4,254716.7,0.0
202921.5,210165.2,312585.2,418073.8,218681.2,238307.9,283079.0,254701.9,0.0
202967.4,210180.9,312493.0,418003.9,218678.7,238300.4,283053.4,254689.6,0.0
202940.3,210170.3,312371.5,417931.6,218673.7,238287.0,283036.8,254690.9,0.0
202852.2,210121.0,312205.9,417822.2,218640.3,238253.2,282999.3,254668.2,0.0
202832.2,210104.4,312068.2,417719.3,218618.7,238238.7,282964.3,254639.9,0.0
202893.0,210126.8,311982.1,417648.4,218623.2,238244.0,282942.8,254623.1,0.0
202953.7,210155.0,311905.8,417593.6,218637.2,238247.3,282933.3,254622.9,0.0
202912.7,210124.2,311769.8,417500.9,218616.3,238214.0,282901.7,254606.0,0.0
202841.9,210088.6,311619.2,417405.6,218597.2,238192.7,282879.6,254597.9,0.0
202829.1,210080.9,311488.5,417312.5,218580.9,238181.5,282850.2,254573.7,0.0
202904.6,210118.3,311415.5,417252.2,218596.3,238196.8,282838.8,254566.3,0.0
202944.3,210131.8,311320.7,417174.8,218587.6,238179.8,282806.0,254546.6,0.0
202898.8,210103.5,311188.3,417088.4,218571.7,238152.1,282776.9,254537.6,0.0
202830.8,210071.5,311043.4,417000.1,218558.3,238134.3,282757.1,254534.0,0.0
202825.6,210071.5,310929.2,416920.9,218554.6,238134.5,282741.0,254524.2,0.0
202893.6,210102.9,310852.9,416856.6,218561.7,238142.7,282723.8,254510.8,0.0
202938.6,210117.3,310763.4,416784.3,218557.0,238130.5,282695.4,254494.8,0.0
202894.1,210085.3,310631.0,416696.2,218537.2,238101.0,282660.3,254481.4,0.0
202807.8,210031.8,310468.4,416588.9,218505.1,238065.5,282621.6,254458.2,0.0
202809.4,210039.1,310355.2,416508.9,218501.6,238067.9,282606.7,254447.4,0.0
202885.8,210081.7,310287.7,416452.3,218516.8,238085.7,282597.2,254440.7,0.0
202934.0,210099.5,310211.4,416397.7,218528.3,238088.1,282584.2,254439.0,0.0
202899.8,210076.9,310087.0,416320.8,218518.3,238065.6,282563.6,254435.5,0.0
202821.8,210029.8,309932.6,416219.7,218491.4,238035.5,282533.8,254419.3,0.0
202820.4,210032.6,309816.7,416135.7,218482.8,238032.0,282513.5,254405.2,0.0
202885.5,210061.4,309736.1,416064.4,218482.6,238033.2,282491.3,254387.8,0.0
202931.4,210074.0,309651.5,415996.3,218481.6,238023.9,282465.1,254373.1,0.0
202899.0,210051.9,309533.8,415922.5,218476.3,238006.7,282447.5,254373.4,0.0
202824.8,210016.2,309387.7,415829.3,218456.0,237981.3,282424.1,254362.4,0.0
202795.0,209991.6,309249.2,415722.9,218423.1,237951.5,282380.9,254324.7,0.0
202883.8,210040.8,309195.5,415678.6,218448.7,237978.5,282383.1,254330.9,0.0
202948.1,210073.2,309131.4,415629.3,218464.9,237986.9,282375.5,254335.6,0.0
202900.1,210040.3,309004.3,415547.0,218446.7,237957.4,282348.2,254328.7,0.0
202807.5,209979.5,308841.8,415436.1,218405.4,237913.1,282306.8,254303.9,0.0
202817.1,209994.1,308736.8,415359.3,218401.1,237915.4,282296.1,254295.8,0.0
202897.9,210039.4,308676.8,415304.5,218416.7,237935.8,282290.6,254291.3,0.0
202936.3,210049.9,308594.5,415236.0,218415.6,237926.1,282264.0,254277.8,0.0
202896.9,210022.9,308472.7,415156.2,218401.9,237900.9,282238.9,254271.0,0.0
202812.8,209973.7,308318.5,415050.5,218367.0,237864.2,282202.5,254249.2,0.0
202814.4,209980.9,308215.0,414973.7,218363.6,237869.1,282189.7,254242.6,0.0
202889.8,210021.1,308153.9,414913.9,218373.3,237884.2,282178.2,254236.2,0.0
202944.4,210049.5,308087.3,414858.2,218381.1,237885.0,282161.6,254234.4,0.0
202896.7,210016.6,307960.7,414774.3,218359.5,237852.6,282128.5,254222.4,0.0
202812.2,209969.3,307808.2,414671.6,218327.0,237819.3,282092.8,254203.3,0.0
202800.5,209963.7,307694.4,414583.9,218311.6,237809.5,282067.8,254184.9,0.0
202861.9,209986.5,307620.6,414518.4,218310.8,237809.3,282046.3,254166.9,0.0
202917.7,210011.4,307558.7,414473.1,218324.6,237814.5,282038.3,254170.9,0.0
202895.7,210003.9,307459.3,414414.4,218326.6,237804.7,282029.9,254179.4,0.0
202820.2,209962.5,307315.6,414321.9,218301.0,237774.7,281999.7,254165.7,0.0
202804.2,209955.5,307198.2,414237.6,218285.6,237764.1,281973.3,254147.8,0.0
202888.4,210007.4,307148.5,414195.8,218309.6,237790.2,281975.3,254153.9,0.0
202941.6,210031.0,307080.1,414144.8,218318.8,237791.4,281961.1,254152.1,0.0
202899.0,210001.0,306962.2,414069.9,218306.7,237764.7,281936.7,254147.3,0.0
202828.0,209966.7,306827.9,413986.4,218293.8,237744.7,281918.6,254145.5,0.0
202810.4,209958.3,306708.5,413895.8,218276.4,237725.7,281890.7,254121.4,0.0
202865.6,209981.5,306631.0,413827.6,218276.5,237722.3,281867.5,254099.0,0.0
202923.9,210010.8,306570.1,413784.7,218293.9,237727.6,281860.0,254100.8,0.0
202900.6,210000.3,306471.6,413731.2,218299.7,237719.0,281854.5,254112.4,0.0
202802.7,209939.5,306313.5,413622.3,218259.1,237672.7,281810.9,254082.2,0.0
202786.7,209929.7,306203.1,413541.3,218247.6,237662.0,281789.3,254067.3,0.0
202882.5,209995.9,306166.1,413512.5,218282.3,237695.5,281802.6,254085.1,0.0
202938.9,210025.6,306112.1,413474.8,218303.0,237704.9,281800.2,254094.5,0.0
202888.0,209987.1,305991.2,413397.0,218286.1,237672.9,281772.1,254084.0,0.0
202827.7,209964.2,305868.5,413326.3,218283.9,237664.4,281766.7,254092.3,0.0
202827.7,209971.9,305772.7,413262.1,218292.0,237672.9,281761.1,254093.8,0.0
202889.3,210002.1,305703.2,413202.1,218295.8,237678.8,281745.9,254081.0,0.0
202924.7,210012.6,305628.0,413144.6,218293.8,237670.9,281726.0,254069.8,0.0
202902.8,210001.7,305535.6,413093.8,218299.0,237668.2,281726.2,254086.5,0.0
202832.1,209965.2,305404.7,413010.5,218283.5,237648.1,281710.2,254081.9,0.0
202833.2,209977.7,305313.4,412949.2,218290.5,237662.4,281711.2,254086.2,0.0
202909.5,210024.6,305265.2,412907.7,218314.2,237688.9,281716.8,254091.4,0.0
202922.4,210007.4,305165.3,412821.0,218286.9,237657.8,281672.0,254052.8,0.0
202896.5,209993.2,305068.5,412765.5,218288.1,237653.5,281671.2,254065.2,0.0
202845.2,209981.1,304963.7,412710.5,218295.9,237662.8,281685.8,254088.5,0.0
202827.0,209970.5,304856.0,412632.8,218287.0,237658.5,281673.5,254073.9,0.0
202899.1,210006.4,304801.9,412588.0,218305.8,237680.1,281677.4,254072.8,0.0
202960.1,210041.2,304752.3,412555.3,218328.0,237698.1,281686.5,254085.1,0.0
202904.4,209995.3,304626.8,412466.7,218299.5,237657.9,281653.2,254063.4,0.0
202811.7,209935.0,304474.5,412366.9,218265.6,237618.5,281620.2,254040.0,0.0
202808.5,209938.2,304379.5,412305.4,218273.5,237628.6,281619.6,254042.3,0.0
202927.3,210024.7,304372.1,412306.4,218335.5,237693.9,281666.9,254087.6,0.0
202992.6,210062.6,304331.2,412280.9,218363.7,237719.8,281681.1,254107.4,0.0
202919.6,210000.5,304193.5,412185.2,218322.5,237671.3,281636.5,254075.8,0.0
202842.9,209958.7,304058.0,412096.4,218296.8,237644.1,281616.5,254062.8,0.0
202853.9,209978.2,303980.1,412046.9,218311.6,237667.1,281633.5,254075.7,0.0
202938.7,210032.0,303942.7,412016.5,218342.0,237700.5,281653.6,254087.0,0.0
203000.3,210069.2,303901.6,411989.3,218371.9,237723.4,281671.6,254103.5,0.0
202974.5,210058.9,303813.7,411941.7,218381.7,237723.2,281682.0,254120.4,0.0
202886.1,210004.4,303672.3,411853.3,218359.4,237695.4,281664.7,254107.3,0.0
202866.0,209994.5,303561.6,411772.6,218349.7,237689.4,281650.9,254089.0,0.0
202929.2,210027.6,303502.3,411720.8,218360.5,237707.0,281650.9,254079.5,0.0
202995.5,210068.0,303465.3,411699.7,218392.0,237737.7,281673.5,254102.1,0.0
202993.7,210083.5,303403.2,411680.6,218425.6,237766.3,281710.0,254145.5,0.0
202919.5,210047.5,303281.3,411608.3,218416.6,237754.9,281708.3,254149.5,0.0
202901.2,210035.1,303181.0,411536.7,218409.5,237756.7,281704.5,254140.7,0.0
202958.0,210054.9,303113.1,411471.3,218406.1,237759.1,281689.9,254119.0,0.0
203023.4,210093.2,303075.0,411444.5,218435.8,237787.1,281708.1,254135.7,0.0
202985.7,210066.7,302976.7,411384.3,218430.4,237775.5,281702.9,254139.1,0.0
202930.7,210047.2,302874.1,411330.1,218437.4,237782.5,281718.7,254161.5,0.0
202919.1,210051.3,302786.3,411271.6,218443.3,237799.5,281729.3,254167.9,0.0
202976.9,210078.9,302727.9,411221.1,218450.2,237814.8,281729.3,254161.7,0.0
203041.7,210110.8,302687.1,411194.1,218474.3,237837.9,281747.6,254179.0,0.0
203010.7,210091.8,302597.3,411144.5,218478.1,237836.3,281756.1,254194.2,0.0
202922.0,210042.8,302460.8,411055.7,218451.8,237809.5,281740.3,254181.7,0.0
202922.5,210052.6,302382.2,411007.1,218466.5,237832.0,281758.7,254195.8,0.0
202990.2,210089.1,302334.8,410966.0,218482.3,237854.5,281768.6,254197.9,0.0
203038.6,210108.5,302286.0,410929.3,218497.3,237868.0,281774.6,254205.9,0.0
203022.2,210105.0,302211.6,410891.1,218513.6,237876.9,281792.8,254234.4,0.0
202938.1,210056.9,302084.5,410812.1,218498.0,237858.4,281787.1,254236.9,0.0
202924.6,210056.4,301992.0,410748.3,218499.7,237869.2,281794.1,254241.2,0.0
202986.1,210088.2,301942.3,410705.6,218514.2,237891.5,281804.0,254246.0,0.0
203043.8,210114.4,301896.9,410673.3,218533.2,237908.2,281815.5,254262.1,0.0
203026.0,210115.1,301828.2,410645.4,218558.3,237928.0,281845.5,254303.6,0.0
202960.3,210094.3,301720.7,410585.3,218556.2,237930.0,281859.8,254323.3,0.0
202938.8,210084.4,301619.8,410514.2,218544.5,237931.4,281856.7,254316.9,0.0
203010.6,210127.5,301581.8,410482.3,218569.8,237965.7,281877.9,254332.3,0.0
203051.0,210140.2,301528.3,410442.5,218583.0,237974.8,281884.1,254339.3,0.0
203003.1,210102.7,301420.3,410373.3,218568.3,237950.6,281872.5,254338.4,0.0
202961.2,210098.6,301332.7,410335.9,218591.0,237972.8,281907.9,254378.5,0.0
202963.1,210114.3,301256.2,410289.7,218604.8,237999.5,281931.2,254396.1,0.0
203013.7,210132.7,301195.3,410234.2,218605.8,238007.8,281927.4,254382.9,0.0
203056.8,210146.9,301143.2,410193.0,218617.4,238015.1,281932.2,254385.5,0.0
203039.9,210142.4,301071.7,410158.7,218634.8,238025.9,281956.9,254412.8,0.0
202975.0,210115.2,300965.1,410101.0,218635.2,238030.1,281973.9,254431.2,0.0
202976.8,210131.4,300893.2,410056.4,218650.9,238056.7,281998.9,254450.8,0.0
203032.4,210154.6,300838.2,410005.6,218656.9,238072.5,282002.4,254446.3,0.0
203059.6,210147.2,300764.5,409943.8,218645.0,238059.4,281983.7,254428.9,0.0
203038.2,210136.0,300689.1,409905.4,218656.7,238067.2,282001.1,254449.9,0.0
202986.1,210123.1,300595.9,409857.6,218666.0,238078.5,282024.4,254473.5,0.0
202970.2,210117.9,300505.9,409794.1,218661.8,238084.4,282029.1,254470.4,0.0
203028.6,210143.6,300452.3,409746.9,218669.8,238099.6,282030.3,254463.3,0.0
203092.2,210175.3,300417.9,409721.6,218695.5,238123.6,282047.6,254481.2,0.0
203059.0,210149.9,300330.0,409669.0,218692.3,238114.8,282051.0,254491.5,0.0
202975.1,210099.0,300207.6,409592.8,218672.0,238097.0,282045.0,254489.3,0.0
202979.2,210112.9,300137.3,409550.8,218686.4,238123.3,282067.5,254507.2,0.0
203066.1,210172.8,300114.5,409534.3,218724.2,238168.4,282100.6,254527.7,0.0
203111.0,210190.7,300062.9,409493.9,218735.3,238173.9,282102.8,254525.2,0.0
203052.2,210143.6,299951.8,409420.2,218713.4,238143.9,282083.4,254509.9,0.0
202977.8,210106.0,299838.8,409354.3,218702.1,238136.7,282087.4,254515.1,0.0
202965.8,210104.3,299756.8,409298.2,218706.1,238150.3,282096.7,254515.8,0.0
203029.9,210134.7,299712.0,409254.0,218719.3,238169.6,282100.4,254510.7,0.0
203094.9,210168.3,299678.8,409227.3,218741.6,238189.6,282114.6,254524.3,0.0
203061.4,210146.0,299594.7,409177.2,218739.3,238181.2,282118.2,254534.6,0.0
202986.0,210109.5,299484.4,409110.1,218728.0,238172.3,282120.3,254539.5,0.0
202976.4,210113.8,299405.3,409054.9,218733.5,238187.2,282129.7,254543.8,0.0
203050.0,210155.7,299368.6,409021.1,218753.9,238216.3,282141.4,254548.0,0.0
203101.0,210175.6,299322.6,408983.8,218765.7,238227.3,282144.7,254550.4,0.0
203068.6,210155.0,299234.4,408928.0,218759.9,238215.0,282142.2,254555.0,0.0
202992.9,210117.3,299124.0,408859.6,218748.6,238205.9,282142.2,254559.8,0.0
202981.4,210116.1,299041.9,408799.9,218746.6,238219.6,282147.4,254559.7,0.0
203046.3,210147.2,298999.4,408755.0,218756.4,238239.8,282150.5,254554.5,0.0
203095.5,210162.2,298954.2,408711.8,218763.4,238244.5,282145.9,254550.9,0.0
203065.7,210140.7,298875.9,408664.6,218762.6,238241.3,282148.7,254561.8,0.0
202987.5,210100.9,298759.6,408592.7,218743.4,238225.2,282142.8,254558.5,0.0
202968.0,210094.3,298669.6,408529.2,218737.4,238226.8,282139.0,254549.1,0.0
203033.3,210128.2,298629.4,408491.8,218749.2,238246.2,282142.4,254545.6,0.0
203085.2,210148.0,298586.1,408453.3,218756.9,238255.2,282141.5,254544.4,0.0
203056.6,210126.7,298505.5,408401.1,218752.9,238250.0,282141.3,254550.3,0.0
202971.8,210072.7,298386.1,408320.3,218730.5,238230.6,282129.9,254540.4,0.0
202957.9,210070.8,298305.1,408260.9,218729.4,238240.5,282133.2,254540.8,0.0
203027.1,210111.6,298272.7,408228.5,218748.1,238264.1,282145.4,254544.4,0.0
203081.8,210139.4,298241.7,408200.4,218767.6,238277.5,282157.0,254552.3,0.0
203048.0,210118.8,298163.6,408153.3,218768.7,238270.4,282161.1,254560.2,0.0
202975.3,210082.9,298057.3,408090.6,218759.1,238260.8,282164.5,254563.0,0.0
202956.8,210075.0,297969.4,408027.3,218752.2,238261.1,282165.0,254553.8,0.0
203022.6,210109.5,297929.8,407989.9,218764.5,238280.1,282173.2,254550.7,0.0
203076.4,210133.3,297893.3,407957.4,218776.5,238288.7,282178.6,254553.6,0.0
203046.5,210114.1,297816.7,407912.3,218772.2,238276.7,282181.0,254562.5,0.0
202973.6,210078.9,297712.6,407850.5,218760.8,238265.2,282184.3,254568.8,0.0
202954.2,210070.3,297625.0,407787.7,218753.4,238266.1,282182.6,254561.3,0.0
203014.5,210100.1,297585.3,407745.4,218760.2,238281.6,282184.8,254552.5,0.0
203071.2,210124.0,297551.9,407715.9,218773.5,238293.9,282191.2,254557.1,0.0
203034.4,210094.8,297466.3,407662.4,218764.6,238279.4,282185.3,254558.3,0.0
202961.1,210057.3,297362.3,407597.8,218752.9,238268.1,282183.2,254559.9,0.0
202940.6,210052.5,297278.6,407534.5,218746.3,238270.6,282179.4,254550.1,0.0
203009.2,210092.6,297245.0,407497.7,218760.9,238290.0,282184.8,254547.2,0.0
203059.7,210110.9,297203.6,407462.0,218767.5,238292.9,282181.2,254543.7,0.0
203027.7,210087.3,297120.5,407411.0,218757.7,238276.6,282174.6,254545.5,0.0
202964.4,210060.0,297021.8,407354.6,218751.4,238269.4,282179.3,254557.4,0.0
202938.3,210046.4,296933.4,407288.2,218743.8,238268.6,282174.2,254548.6,0.0
203003.0,210080.3,296899.3,407250.5,218755.5,238287.0,282178.2,254545.2,0.0
203063.2,210109.5,296869.3,407225.4,218771.6,238301.3,282186.1,254552.4,0.0
203028.4,210081.7,296785.7,407171.8,218763.2,238285.3,282182.7,254553.8,0.0
202952.2,210042.0,296676.2,407103.3,218748.7,238266.8,282179.7,254553.2,0.0
202930.1,210032.9,296595.3,407043.4,218745.9,238270.1,282180.3,254549.6,0.0
202997.2,210071.7,296564.7,407011.3,218762.3,238294.9,282187.8,254547.8,0.0
203056.3,210101.1,296533.8,406983.3,218776.5,238306.8,282191.3,254550.1,0.0
203031.7,210084.8,296462.7,406940.6,218778.3,238300.4,282194.4,254560.1,0.0
202954.2,210042.8,296352.8,406872.7,218763.5,238284.8,282189.5,254558.7,0.0
202934.4,210033.5,296264.6,406807.7,218753.7,238282.3,282184.2,254547.8,0.0
202992.1,210062.5,296220.6,406763.8,218760.6,238293.8,282181.1,254536.3,0.0
203046.9,210088.0,296184.0,406728.2,218769.4,238301.3,282175.8,254532.1,0.0
203027.5,210075.2,296113.3,406679.9,218764.2,238291.1,282170.8,254534.1,0.0
202952.3,210029.1,296009.4,406609.5,218745.6,238273.5,282161.8,254529.3,0.0
202933.1,210021.4,295927.4,406547.7,218743.6,238276.7,282159.1,254524.8,0.0
203003.6,210070.2,295895.3,406512.2,218764.5,238297.8,282164.2,254525.6,0.0
203056.7,210096.5,295863.8,406484.1,218782.1,238308.8,282167.7,254529.7,0.0
203020.2,210067.4,295784.1,406434.3,218775.4,238293.1,282163.7,254529.8,0.0
202944.2,210024.6,295678.0,406366.4,218757.3,238277.3,282157.0,254524.2,0.0
202930.7,210025.1,295597.4,406304.9,218747.8,238281.1,282152.3,254513.1,0.0
202997.3,210062.0,295564.1,406268.1,218760.6,238303.0,282154.4,254507.8,0.0
203046.7,210079.3,295528.9,406231.4,218768.3,238311.0,282148.2,254502.5,0.0
203022.1,210062.7,295459.9,406188.3,218765.6,238304.7,282147.9,254508.9,0.0
202955.5,210034.1,295363.5,406131.2,218756.9,238296.3,282149.1,254514.3,0.0
202936.8,210027.2,295284.5,406072.7,218750.5,238301.3,282145.8,254506.1,0.0
203012.0,210070.0,295258.2,406040.7,218764.2,238326.0,282152.4,254503.6,0.0
203068.7,210093.5,295228.9,406008.8,218773.3,238336.8,282151.1,254502.9,0.0
203026.5,210057.8,295145.7,405950.5,218758.1,238315.0,282133.8,254495.5,0.0
202946.8,210014.0,295038.0,405880.2,218738.0,238293.8,282121.8,254488.4,0.0
202925.5,210005.2,294956.1,405816.3,218728.5,238293.4,282115.0,254477.6,0.0
202992.6,210040.7,294927.2,405784.4,218743.4,238317.1,282120.3,254475.3,0.0
203049.0,210065.2,294897.0,405753.9,218753.3,238326.2,282118.1,254475.4,0.0
203017.2,210044.5,294824.7,405705.3,218748.0,238316.0,282111.5,254479.2,0.0
202945.4,210010.1,294723.6,405642.1,218733.6,238304.8,282105.3,254479.2,0.0
202928.0,210006.2,294643.9,405584.0,218725.6,238309.9,282101.9,254473.1,0.0
202995.3,210046.3,294614.0,405549.3,218736.8,238330.8,282105.3,254469.5,0.0
203046.5,210066.3,294579.1,405513.3,218740.5,238333.3,282097.4,254462.8,0.0
203012.6,210040.3,294504.2,405462.3,218731.4,238315.6,282084.7,254462.2,0.0
202939.6,210004.3,294403.1,405397.9,218716.8,238300.9,282076.7,254460.9,0.0
202922.1,209997.9,294325.5,405338.0,218713.2,238306.3,282072.2,254453.9,0.0
203001.1,210045.5,294306.5,405314.9,218737.9,238339.7,282085.3,254461.3,0.0
203061.3,210074.5,294278.9,405288.5,218749.9,238351.2,282084.5,254462.2,0.0
203025.4,210046.3,294198.5,405234.4,218733.5,238331.7,282069.1,254454.4,0.0
202946.5,210004.1,294095.0,405169.5,218714.4,238316.3,282060.6,254451.9,0.0
202922.7,209992.7,294015.5,405108.5,218706.8,238317.6,282054.8,254443.7,0.0
202999.3,210038.1,293991.2,405075.7,218722.6,238342.1,282056.5,254440.4,0.0
203057.7,210064.8,293962.8,405045.7,218733.6,238355.6,282053.2,254440.4,0.0
203023.6,210044.8,293888.4,404997.7,218724.0,238343.1,282041.7,254441.0,0.0
202960.9,210020.6,293802.3,404948.4,218721.8,238340.3,282044.9,254453.7,0.0
202944.5,210013.8,293729.1,404892.7,218718.7,238343.1,282041.7,254445.9,0.0
202992.1,210027.0,293685.5,404845.0,218716.1,238348.5,282030.4,254425.2,0.0
203050.7,210052.9,293655.9,404813.2,218722.4,238355.7,282025.3,254421.3,0.0
203018.9,210030.5,293582.4,404764.3,218714.3,238340.3,282014.4,254421.1,0.0
202932.9,209983.7,293474.1,404693.2,218692.3,238315.9,281997.9,254410.3,0.0
202913.2,209978.1,293397.9,404635.8,218685.4,238317.8,281993.9,254400.8,0.0
202986.3,210020.8,293376.8,404608.8,218704.0,238343.8,282002.5,254401.2,0.0
203037.8,210037.1,293344.8,404575.0,218710.9,238349.8,281995.3,254396.1,0.0
203008.6,210018.6,293271.5,404526.0,218702.0,238336.6,281982.7,254395.7,0.0
202940.3,209988.0,293178.9,404469.0,218692.3,238327.5,281978.7,254400.5,0.0
202918.6,209978.6,293099.9,404408.1,218681.3,238326.2,281970.0,254388.4,0.0
202979.5,210011.4,293067.9,404371.1,218690.2,238341.0,281966.0,254378.6,0.0
203037.7,210040.3,293042.3,404342.2,218704.2,238352.5,281961.7,254378.0,0.0
203000.6,210014.4,292966.9,404289.8,218693.7,238333.8,281945.9,254372.9,0.0
202927.8,209982.2,292872.3,404232.3,218682.6,238322.5,281939.7,254374.4,0.0
202919.0,209986.0,292810.2,404186.4,218686.3,238336.8,281944.3,254377.7,0.0
202987.2,210026.5,292788.5,404156.6,218704.5,238361.8,281948.0,254378.0,0.0
203045.3,210056.2,292764.4,404128.6,218716.6,238372.7,281944.8,254376.4,0.0
203021.2,210039.7,292702.9,404089.9,218712.6,238367.6,281940.1,254382.0,0.0
202946.1,209999.2,292603.9,404027.4,218695.5,238353.9,281929.8,254381.7,0.0
202919.9,209983.5,292521.4,403961.4,218681.3,238349.5,281915.9,254366.3,0.0
202984.3,210014.1,292488.9,403921.4,218688.4,238364.7,281911.1,254355.2,0.0
203043.6,210037.7,292463.8,403892.8,218698.7,238372.7,281907.2,254354.2,0.0
203041.1,210041.7,292418.3,403870.4,218716.4,238379.2,281920.4,254378.3,0.0
202953.7,209992.1,292307.5,403796.3,218689.7,238351.1,281898.7,254362.3,0.0
202913.2,209963.5,292210.4,403717.6,218660.3,238331.3,281871.1,254330.1,0.0
202981.8,209996.1,292183.0,403684.0,218671.2,238349.1,281867.8,254322.3,0.0
203042.5,210020.0,292159.3,403656.9,218682.4,238355.9,281861.8,254319.6,0.0
203012.5,209994.9,292092.3,403614.5,218680.0,238344.4,281853.2,254324.5,0.0
202936.6,209955.0,291994.7,403552.4,218663.2,238326.7,281840.0,254322.0,0.0
202922.6,209949.7,291922.7,403498.5,218658.9,238330.8,281831.9,254315.1,0.0
203000.3,209992.9,291904.1,403472.5,218677.3,238356.5,281836.8,254317.4,0.0
203071.8,210027.6,291885.7,403447.9,218690.7,238369.1,281832.0,254319.0,0.0
203043.9,210004.8,291818.0,403401.1,218682.2,238353.7,281815.5,254317.2,0.0
202956.6,209955.2,291710.5,403327.8,218655.0,238326.5,281793.5,254304.1,0.0
202944.3,209953.8,291643.2,403275.0,218651.1,238333.3,281790.8,254299.9,0.0
203020.3,209995.6,291625.6,403246.2,218667.2,238358.4,281796.4,254299.0,0.0
203081.3,210020.9,291601.0,403217.8,218676.9,238366.7,281789.5,254295.3,0.0
203051.6,209999.2,291532.8,403171.5,218667.1,238350.9,281772.8,254292.6,0.0
202972.7,209960.3,291436.6,403108.8,218649.6,238334.5,281759.3,254288.8,0.0
202958.0,209958.3,291370.4,403060.8,218649.3,238345.3,281759.8,254287.6,0.0
203034.0,210002.5,291352.4,403037.4,218669.5,238378.0,281768.4,254288.6,0.0
203094.9,210030.0,291331.8,403012.1,218680.8,238391.7,281763.8,254289.5,0.0
203061.0,210002.0,291259.9,402960.2,218665.3,238373.2,281744.7,254285.5,0.0
202985.0,209961.7,291164.9,402899.0,218648.2,238356.9,281732.8,254284.2,0.0
202965.2,209954.3,291096.7,402847.8,218642.3,238359.9,281729.2,254279.5,0.0
203029.2,209988.5,291073.6,402819.2,218654.9,238379.9,281731.9,254275.3,0.0
203078.4,210004.6,291046.4,402789.0,218661.0,238383.9,281723.0,254269.2,0.0
203048.8,209985.2,290980.1,402746.3,218654.2,238368.2,281711.7,254268.2,0.0
202979.3,209957.3,290895.8,402697.9,218646.2,238357.5,281709.5,254273.7,0.0
202958.9,209953.4,290828.5,402648.5,218643.8,238361.7,281708.1,254270.3,0.0
203017.7,209984.3,290798.3,402610.7,218648.9,238373.9,281701.9,254258.3,0.0
203080.1,210014.7,290780.9,402587.8,218659.4,238385.7,281700.8,254260.0,0.0
203052.3,209996.9,290720.4,402547.7,218651.7,238373.0,281692.9,254264.4,0.0
202970.3,209952.5,290625.0,402486.6,218630.2,238352.6,281680.6,254261.8,0.0
202946.5,209944.1,290551.8,402431.8,218621.3,238352.1,281672.8,254253.2,0.0
203015.2,209982.0,290533.7,402406.4,218638.6,238376.7,281678.0,254253.6,0.0
203075.9,210011.5,290514.7,402384.6,218654.7,238389.8,281678.1,254257.5,0.0
203031.5,209976.4,290435.8,402328.1,218635.8,238362.9,281652.4,254246.3,0.0
202939.4,209923.3,290337.8,402263.6,218616.5,238341.7,281638.3,254244.9,0.0
202926.7,209926.4,290280.1,402221.1,218622.2,238356.3,281644.8,254255.9,0.0
203005.3,209975.6,290273.4,402206.3,218646.5,238391.0,281661.9,254271.0,0.0
203068.6,210006.8,290260.1,402188.7,218662.1,238405.9,281664.5,254279.4,0.0
203045.4,209993.2,290202.6,402151.3,218658.0,238395.4,281659.8,254287.8,0.0
202957.3,209946.0,290104.3,402088.8,218636.6,238373.9,281648.4,254285.4,0.0
202929.8,209936.4,290033.2,402038.9,218630.8,238377.4,281647.1,254285.2,0.0
202990.6,209969.3,290005.3,402001.7,218633.5,238389.0,281643.1,254278.6,0.0
203051.2,209997.2,289991.6,401979.4,218645.7,238399.4,281643.1,254285.8,0.0
203028.4,209980.5,289939.1,401946.6,218648.7,238394.0,281644.8,254300.8,0.0
202932.0,209920.4,289831.8,401875.8,218617.7,238362.9,281622.7,254290.3,0.0
202920.4,209923.6,289772.8,401834.1,218618.0,238373.6,281628.9,254297.0,0.0
202980.9,209954.3,289748.1,401800.0,218624.9,238386.5,281627.9,254291.2,0.0
203036.7,209974.6,289730.1,401777.6,218633.9,238394.2,281626.0,254294.7,0.0
203010.8,209953.8,289673.3,401745.2,218632.1,238387.0,281621.7,254305.0,0.0
202931.4,209910.1,289579.8,401691.9,218618.0,238374.9,281613.4,254308.4,0.0
202918.9,209912.9,289517.1,401646.1,218616.7,238382.2,281614.4,254308.3,0.0
202976.0,209942.1,289488.7,401609.4,218617.3,238392.1,281607.4,254294.7,0.0
203032.3,209965.6,289471.0,401586.9,218623.2,238398.9,281603.2,254294.2,0.0
203003.4,209943.2,289413.2,401551.1,218619.5,238387.0,281597.3,254301.9,0.0
202921.6,209899.5,289319.0,401492.3,218600.8,238364.2,281584.9,254301.1,0.0
202898.2,209892.4,289253.0,401444.6,218595.8,238365.5,281581.8,254299.5,0.0
202971.0,209937.3,289242.3,401425.8,218615.1,238391.9,281591.7,254305.3,0.0
203020.1,209954.2,289214.2,401391.0,218613.1,238387.7,281577.5,254293.0,0.0
202994.7,209933.3,289157.5,401352.9,218608.9,238375.2,281569.5,254295.9,0.0
202917.1,209893.2,289070.8,401299.1,218593.3,238359.6,281563.6,254299.3,0.0
202896.6,209889.2,289008.5,401254.7,218591.6,238365.6,281566.2,254299.0,0.0
202963.1,209928.8,288994.8,401234.0,218608.9,238390.0,281575.6,254301.5,0.0
203024.1,209956.9,288981.3,401215.7,218621.3,238402.2,281578.3,254306.5,0.0
202999.1,209937.5,288926.2,401178.5,218618.0,238392.4,281572.8,254311.8,0.0
202931.2,209909.7,288845.1,401127.9,218607.7,238380.8,281569.1,254318.1,0.0
202902.8,209896.7,288773.4,401069.1,218593.8,238375.7,281560.0,254307.4,0.0
202959.8,209923.1,288745.0,401032.0,218596.2,238386.5,281554.8,254295.6,0.0
203022.2,209950.5,288730.2,401011.1,218606.8,238395.9,281553.5,254296.2,0.0
203002.0,209935.5,288680.0,400979.4,218606.0,238389.1,281550.3,254302.9,0.0
202924.4,209893.4,288596.0,400927.1,218595.1,238375.9,281546.1,254306.5,0.0
202896.7,209884.7,288526.1,400871.5,218582.5,238369.6,281537.2,254295.7,0.0
202961.7,209921.7,288509.0,400845.9,218594.2,238386.6,281542.1,254291.2,0.0
203023.9,209948.3,288497.9,400827.4,218608.9,238398.7,281543.7,254294.1,0.0
203000.6,209929.7,288444.0,400791.3,218606.0,238390.0,281536.9,254298.3,0.0
202923.4,209889.8,288357.5,400734.9,218591.8,238374.2,281526.4,254298.3,0.0
202895.5,209877.4,288289.9,400682.8,218585.1,238374.9,281522.1,254293.5,0.0
202963.1,209917.8,288276.4,400660.3,218599.7,238396.8,281530.9,254294.8,0.0
203024.1,209950.3,288264.1,400641.1,218612.0,238406.3,281530.5,254294.4,0.0
202990.4,209925.2,288203.9,400597.9,218603.5,238387.5,281518.5,254290.8,0.0
202910.6,209883.3,288115.4,400541.1,218587.6,238369.1,281509.3,254286.3,0.0
202888.9,209873.9,288049.1,400488.3,218580.0,238369.2,281504.4,254278.5,0.0
202952.9,209905.7,288033.2,400462.2,218591.3,238390.7,281507.8,254274.9,0.0
203017.2,209933.8,288023.8,400446.0,218606.5,238406.8,281511.2,254277.8,0.0
202995.3,209917.5,287967.8,400405.9,218600.0,238394.6,281501.9,254276.9,0.0
202903.7,209861.8,287868.9,400336.8,218571.1,238364.7,281480.1,254264.3,0.0
202880.8,209852.0,287806.6,400287.8,218565.5,238369.3,281478.8,254259.4,0.0
202950.0,209891.7,287794.8,400269.3,218584.7,238398.4,281488.3,254261.8,0.0
203003.0,209910.6,287776.8,400245.7,218591.0,238405.5,281483.4,254258.7,0.0
202976.4,209889.0,287722.8,400207.9,218582.8,238390.6,281474.6,254261.6,0.0
202904.5,209853.5,287643.2,400160.2,218573.1,238379.5,281470.3,254267.6,0.0
202873.7,209839.6,287573.5,400106.3,218560.9,238374.9,281459.3,254255.7,0.0
202926.5,209865.5,287549.2,400071.3,218562.2,238384.3,281453.1,254242.5,0.0
202982.3,209890.1,287534.8,400045.8,218569.9,238389.3,281445.8,254237.4,0.0
202952.8,209870.7,287479.6,400004.2,218561.2,238373.4,281433.4,254236.7,0.0
202880.2,209837.2,287400.1,399956.2,218551.6,238362.2,281431.4,254243.8,0.0
202861.4,209835.1,287343.4,399915.2,218550.1,238368.8,281436.3,254248.3,0.0
202929.6,209875.4,287334.5,399897.7,218568.7,238393.3,281446.4,254251.5,0.0
202994.1,209907.7,287328.8,399884.4,218583.2,238408.0,281447.2,254254.1,0.0
202980.5,209900.5,287285.6,399857.4,218586.8,238405.2,281448.5,254266.7,0.0
202890.5,209851.1,287187.9,399793.3,218561.7,238376.7,281428.1,254256.6,0.0
202850.0,209830.5,287112.7,399731.6,218542.9,238365.2,281410.1,254238.0,0.0
202914.9,209864.7,287099.7,399706.7,218558.1,238387.5,281414.5,254234.9,0.0
202990.3,209900.7,287100.8,399698.0,218583.2,238410.3,281424.7,254245.3,0.0
202973.2,209887.2,287053.3,399665.7,218581.9,238400.0,281420.4,254250.3,0.0
202877.9,209830.0,286952.5,399595.4,218549.6,238365.7,281396.2,254234.2,0.0
202848.4,209819.7,286884.6,399540.8,218536.2,238362.3,281386.5,254224.5,0.0
202921.8,209866.3,286878.0,399521.2,218555.6,238390.7,281396.3,254228.3,0.0
202988.0,209897.9,286871.8,399505.0,218570.7,238405.0,281397.3,254231.3,0.0
202966.9,209877.0,286820.6,399471.6,218565.9,238397.7,281391.3,254235.0,0.0
202900.6,209847.9,286741.9,399422.9,218554.2,238387.4,281387.1,254236.3,0.0
202875.7,209842.4,286682.6,399377.1,218547.8,238391.8,281387.0,254230.6,0.0
202931.4,209871.3,286666.2,399350.9,218558.0,238412.7,281391.7,254225.5,0.0
202979.3,209886.5,286644.4,399319.9,218557.2,238412.0,281379.1,254212.4,0.0
202962.3,209873.6,286593.6,399284.1,218552.0,238398.5,281370.8,254212.1,0.0
202893.6,209843.0,286517.9,399238.2,218545.2,238388.2,281369.6,254219.3,0.0
202870.9,209838.3,286463.1,399198.9,218547.2,238396.8,281373.4,254221.5,0.0
202937.4,209876.3,286455.0,399180.7,218565.5,238421.9,281381.5,254222.6,0.0
202996.3,209902.7,286439.7,399155.2,218569.8,238426.5,281373.5,254213.5,0.0
202979.2,209891.3,286394.6,399122.9,218568.1,238418.7,281371.3,254219.1,0.0
202889.3,209840.3,286301.2,399057.0,218539.2,238389.2,281350.7,254207.0,0.0
202865.1,209831.3,286243.6,399013.0,218535.9,238394.3,281351.8,254206.2,0.0
202943.8,209882.0,286244.4,399004.8,218561.5,238428.8,281371.6,254216.6,0.0
203007.0,209912.9,286235.4,398986.5,218571.7,238438.0,281369.2,254214.5,0.0
202979.4,209888.2,286181.5,398947.3,218562.2,238419.7,281355.2,254210.3,0.0
202898.2,209842.6,286097.5,398893.4,218543.4,238400.2,281342.9,254207.6,0.0
202869.2,209829.2,286036.6,398848.0,218538.3,238403.1,281340.8,254204.8,0.0
202933.0,209862.5,286021.3,398822.7,218550.1,238422.1,281343.5,254201.4,0.0
202998.9,209895.9,286011.9,398803.5,218561.0,238432.1,281342.4,254198.3,0.0
202983.0,209887.0,285969.4,398775.5,218562.9,238427.2,281342.3,254205.6,0.0
202909.4,209847.6,285889.9,398727.1,218550.1,238413.6,281335.8,254206.6,0.0
202880.4,209833.1,285825.8,398679.8,218542.7,238413.4,281330.4,254198.6,0.0
202930.6,209854.6,285803.4,398648.2,218547.0,238424.2,281325.6,254186.9,0.0
203000.3,209892.5,285801.5,398634.3,218562.4,238438.5,281330.3,254190.7,0.0
202978.8,209876.5,285752.4,398598.0,218557.3,238425.4,281321.7,254190.7,0.0
202897.2,209833.1,285666.7,398542.2,218537.4,238405.7,281307.1,254185.7,0.0
202866.1,209817.0,285603.7,398495.5,218528.1,238404.3,281301.0,254178.7,0.0
202932.5,209854.1,285592.3,398472.9,218540.4,238422.1,281304.2,254175.0,0.0
203000.2,209885.4,285590.3,398460.6,218559.9,238436.5,281309.2,254179.8,0.0
202989.9,209882.1,285553.0,398437.3,218566.1,238434.3,281312.8,254192.4,0.0
202911.8,209844.6,285473.8,398388.7,218550.4,238418.8,281306.6,254191.9,0.0
202885.0,209835.9,285416.3,398345.3,218544.9,238423.3,281305.0,254187.6,0.0
202935.2,209854.2,285395.7,398313.3,218548.1,238438.0,281297.8,254177.2,0.0
203009.5,209892.2,285399.3,398305.8,218567.3,238458.2,281302.8,254184.4,0.0
202988.7,209875.7,285349.4,398268.3,218559.8,238444.5,281291.0,254181.9,0.0
202906.8,209832.3,285260.8,398209.8,218537.8,238422.0,281274.5,254173.0,0.0
202876.3,209819.7,285199.9,398164.9,218533.1,238424.8,281271.3,254167.9,0.0
202933.6,209848.2,285184.8,398139.8,218542.8,238444.3,281273.5,254161.9,0.0
203008.3,209888.1,285185.3,398128.1,218556.5,238459.6,281275.8,254166.4,0.0
202995.1,209878.3,285147.3,398102.6,218557.2,238455.5,281274.0,254176.1,0.0
202903.2,209823.5,285052.9,398037.1,218526.8,238424.6,281248.5,254160.5,0.0
202871.2,209808.9,284989.3,397987.6,218515.6,238423.0,281238.9,254150.3,0.0
202940.2,209850.5,284990.5,397977.8,218538.5,238457.6,281254.0,254161.4,0.0
203016.2,209893.3,284996.1,397972.2,218558.9,238478.7,281263.0,254172.1,0.0
202988.0,209868.0,284942.1,397931.4,218544.2,238458.8,281246.6,254166.0,0.0
202904.1,209823.2,284858.3,397876.8,218522.1,238438.9,281233.1,254160.3,0.0
202878.8,209818.8,284804.5,397835.9,218519.9,238446.9,281234.0,254160.6,0.0
202943.3,209857.0,284795.9,397816.8,218535.0,238471.1,281242.1,254161.3,0.0
203008.2,209884.8,284792.0,397802.6,218547.4,238483.6,281243.5,254163.0,0.0
202980.8,209861.5,284739.4,397762.7,218535.2,238463.6,281226.8,254156.2,0.0
202905.7,209827.3,284665.5,397717.9,218523.5,238451.8,281222.6,254161.1,0.0
202871.3,209814.3,284602.8,397667.8,218511.4,238449.1,281215.5,254153.3,0.0
202926.7,209846.4,284589.4,397641.5,218520.3,238466.3,281215.6,254146.3,0.0
202989.2,209874.3,284585.5,397623.6,218532.4,238476.6,281212.8,254145.5,0.0
202965.4,209852.1,284538.7,397586.8,218524.3,238460.9,281201.6,254145.9,0.0
202889.7,209813.5,284460.1,397534.3,218509.3,238442.3,281191.2,254145.1,0.0
202856.2,209799.1,284395.8,397481.1,218496.0,238436.4,281180.5,254133.1,0.0
202920.2,209838.4,284388.8,397462.9,218512.7,238459.5,281186.2,254133.5,0.0
202988.0,209872.2,284387.8,397451.8,218528.4,238472.9,281188.5,254138.4,0.0
202966.5,209854.4,284341.4,397421.5,218522.2,238460.1,281179.5,254140.5,0.0
202878.7,209802.4,284253.9,397361.7,218494.9,238433.1,281159.1,254132.0,0.0
202849.0,209787.8,284192.3,397313.8,218485.4,238431.5,281151.4,254124.5,0.0
202920.2,209833.1,284190.7,397301.7,218503.3,238459.7,281160.7,254128.3,0.0
202989.0,209867.5,284193.0,397290.7,218518.6,238475.4,281162.7,254132.5,0.0
202970.1,209850.2,284151.1,397258.4,218514.4,238463.3,281152.9,254134.3,0.0
202889.0,209806.8,284070.9,397205.2,218495.2,238443.0,281138.6,254130.0,0.0
202853.1,209790.1,284004.6,397153.7,218480.1,238437.1,281127.3,254118.3,0.0
202908.1,209820.8,283991.6,397130.5,218489.0,238454.4,281129.0,254114.1,0.0
202975.8,209853.0,283989.6,397115.3,218499.9,238465.2,281127.3,254113.8,0.0
202959.8,209836.8,283945.7,397085.6,218495.5,238455.1,281119.3,254115.9,0.0
202884.4,209798.5,283868.7,397039.2,218482.0,238438.9,281111.7,254117.3,0.0
202852.9,209787.3,283810.7,396993.1,218472.3,238438.1,281106.2,254111.8,0.0
202908.1,209816.7,283796.7,396966.4,218478.1,238454.6,281103.4,254104.8,0.0
202967.3,209837.7,283791.3,396947.3,218483.2,238460.9,281096.0,254100.6,0.0
202950.4,209822.0,283746.4,396916.8,218476.9,238449.3,281084.5,254101.5,0.0
202878.3,209788.3,283671.5,396872.9,218465.8,238435.3,281077.0,254105.7,0.0
202849.7,209779.3,283614.9,396829.1,218459.7,238435.9,281071.6,254101.2,0.0
202904.6,209805.3,283602.0,396804.2,218467.2,238453.6,281071.4,254093.8,0.0
202967.6,209832.6,283600.7,396789.9,218478.8,238464.6,281071.1,254093.8,0.0
202957.3,209825.3,283563.4,396767.3,218482.4,238460.6,281070.9,254102.1,0.0
202880.5,209789.1,283487.4,396723.5,218472.5,238448.6,281066.3,254107.1,0.0
202856.9,209783.5,283435.1,396686.9,218471.9,238455.6,281069.8,254109.8,0.0
202913.5,209812.1,283422.1,396660.7,218480.6,238472.5,281072.1,254103.4,0.0
202973.5,209835.7,283416.4,396642.0,218491.4,238482.0,281071.1,254101.3,0.0
202953.3,209818.5,283374.8,396613.8,218486.8,238473.0,281066.5,254106.5,0.0
202878.6,209782.4,283298.4,396566.9,218470.2,238455.5,281057.6,254107.0,0.0
202850.0,209773.5,283242.6,396522.6,218464.2,238455.7,281054.7,254104.0,0.0
202909.3,209807.3,283234.7,396501.0,218475.9,238475.8,281058.3,254100.4,0.0
202979.0,209842.8,283237.7,396490.6,218491.8,238491.6,281059.9,254101.9,0.0
202963.0,209828.0,283198.3,396461.8,218489.5,238482.7,281052.5,254103.8,0.0
202889.3,209791.3,283126.0,396416.6,218476.0,238468.3,281044.6,254105.9,0.0
202855.0,209775.7,283064.4,396368.2,218461.5,238466.7,281035.3,254096.9,0.0
202904.5,209800.6,283048.2,396339.4,218463.4,238478.9,281032.0,254087.2,0.0
202966.6,209830.0,283048.8,396323.1,218474.8,238487.1,281030.2,254086.2,0.0
202955.7,209821.6,283014.9,396301.0,218478.8,238482.8,281030.6,254096.3,0.0
202888.2,209790.7,282949.3,396263.9,218472.3,238476.5,281034.0,254107.0,0.0
202855.2,209777.8,282895.1,396221.0,218464.1,238477.8,281032.7,254103.0,0.0
202914.4,209809.8,282888.3,396200.4,218472.6,238498.4,281037.3,254099.5,0.0
202983.0,209843.6,282888.4,396186.7,218483.2,238509.6,281037.2,254097.1,0.0
202969.4,209833.5,282849.5,396160.4,218480.7,238499.3,281032.2,254099.5,0.0
202891.8,209793.7,282774.3,396111.0,218462.8,238478.0,281021.4,254097.1,0.0
202864.3,209788.2,282718.2,396065.7,218453.6,238475.3,281016.3,254091.2,0.0
202924.7,209822.2,282710.8,396044.9,218465.9,238496.0,281020.3,254089.2,0.0
202982.4,209846.3,282707.9,396028.5,218477.5,238507.1,281014.6,254089.5,0.0
202961.3,209827.8,282665.0,395995.7,218473.4,238492.8,281003.1,254094.7,0.0
202885.1,209791.8,282592.3,395949.6,218459.1,238476.9,280995.9,254104.7,0.0
202857.8,209783.3,282544.0,395913.2,218458.9,238484.9,281002.6,254115.6,0.0
202919.3,209819.0,282539.6,395894.7,218474.1,238507.8,281009.6,254121.0,0.0
202984.2,209847.8,282537.8,395881.5,218486.9,238518.3,281007.8,254125.3,0.0
202975.1,209840.3,282506.0,395864.7,218492.5,238515.1,281013.1,254143.5,0.0
202894.0,209795.9,282431.0,395819.7,218473.8,238494.8,281006.0,254149.9,0.0
202869.3,209788.8,282378.4,395783.3,218469.2,238496.1,281007.7,254155.2,0.0
202926.0,209820.6,282368.1,395762.6,218476.6,238513.5,281012.0,254154.7,0.0
202975.6,209833.6,282357.3,395740.6,218476.1,238514.9,281004.3,254147.9,0.0
202956.4,209816.4,282316.0,395711.2,218468.5,238501.3,280995.7,254152.1,0.0
202878.5,209780.4,282241.9,395666.9,218453.1,238485.4,280989.4,254158.3,0.0
202852.9,209777.8,282190.9,395631.7,218450.0,238491.4,280993.7,254166.0,0.0
202909.5,209811.6,282183.1,395614.8,218460.7,238511.6,280999.7,254168.2,0.0
202960.4,209829.2,282176.4,395595.5,218465.2,238514.8,280991.3,254162.2,0.0
202942.7,209816.7,282136.8,395567.2,218460.6,238502.0,280980.8,254164.2,0.0
202872.7,209781.1,282067.2,395528.2,218449.5,238487.4,280979.4,254171.8,0.0
202846.7,209771.4,282017.6,395492.2,218448.8,238492.5,280984.8,254176.9,0.0
202907.4,209806.9,282013.7,395474.7,218463.8,238515.6,280991.9,254179.2,0.0
202962.5,209825.9,282011.0,395457.2,218473.5,238522.9,280987.1,254176.5,0.0
202945.4,209813.5,281972.0,395426.3,218465.5,238508.0,280975.5,254178.6,0.0
202867.4,209774.7,281898.3,395382.0,218449.8,238487.9,280965.8,254183.1,0.0
202827.3,209753.3,281838.0,395338.8,218440.8,238482.8,280959.9,254180.1,0.0
202890.7,209789.7,281836.2,395325.7,218457.3,238505.5,280968.8,254182.6,0.0
202964.8,209828.3,281845.9,395321.3,218475.8,238525.8,280975.7,254190.0,0.0
202953.6,209819.8,281812.6,395299.7,218477.1,238520.2,280972.7,254198.7,0.0
202872.8,209775.9,281736.1,395252.1,218459.3,238498.6,280961.6,254198.0,0.0
202834.1,209754.0,281676.2,395205.2,218449.9,238495.1,280957.8,254194.6,0.0
202897.6,209793.3,281673.1,395186.9,218463.3,238517.1,280964.5,254195.9,0.0
202958.0,209821.8,281668.1,395168.4,218467.2,238521.9,280956.3,254189.7,0.0
202938.0,209803.6,281623.8,395138.2,218461.1,238505.4,280944.3,254188.4,0.0
202859.2,209762.3,281549.5,395092.1,218448.1,238484.5,280936.8,254188.0,0.0
202831.2,209753.5,281497.7,395054.5,218447.0,238486.3,280940.5,254188.3,0.0
202894.0,209789.8,281495.8,395040.4,218463.1,238509.7,280951.2,254190.8,0.0
202961.6,209821.6,281501.6,395029.6,218477.0,238523.9,280955.4,254192.6,0.0
202948.0,209811.5,281464.7,395003.4,218472.1,238512.9,280949.2,254192.8,0.0
202859.5,209763.6,281381.4,394949.3,218447.8,238485.3,280931.6,254182.4,0.0
202824.5,209749.6,281324.9,394906.9,218439.0,238482.0,280928.4,254176.3,0.0
202884.2,209782.2,281320.1,394888.8,218451.0,238502.0,280935.2,254173.3,0.0
202944.1,209806.6,281319.6,394872.1,218460.5,238509.6,280931.4,254168.5,0.0
202922.2,209783.7,281278.8,394839.5,218453.7,238493.8,280921.0,254167.4,0.0
202851.1,209749.4,281209.5,394797.2,218438.8,238476.9,280912.9,254169.4,0.0
202827.3,209745.8,281163.0,394764.4,218440.8,238484.5,280918.8,254173.9,0.0
202889.8,209783.1,281163.8,394752.8,218459.6,238510.4,280931.8,254176.8,0.0
202953.0,209811.6,281164.8,394741.4,218471.0,238524.5,280932.2,254172.7,0.0
202942.9,209802.5,281132.0,394720.8,218472.0,238522.0,280928.1,254174.9,0.0
202855.7,209750.7,281050.2,394666.2,218447.1,238497.4,280910.0,254163.3,0.0
202816.3,209732.5,280988.3,394616.5,218430.9,238489.9,280898.7,254148.6,0.0
202877.9,209771.0,280989.3,394602.9,218446.8,238516.3,280908.9,254149.8,0.0
202942.8,209799.6,280992.4,394589.3,218455.1,238527.0,280906.7,254145.7,0.0
202926.8,209782.7,280955.3,394561.5,218448.3,238512.2,280897.3,254143.8,0.0
202846.6,209738.0,280879.7,394514.1,218429.9,238491.1,280885.1,254139.9,0.0
202811.5,209725.3,280824.9,394472.9,218424.6,238491.1,280882.3,254136.9,0.0
202867.4,209757.3,280817.8,394451.6,218435.7,238509.0,280886.0,254132.4,0.0
202937.0,209792.0,280825.0,394441.9,218448.6,238522.8,280887.3,254132.7,0.0
202919.3,209769.4,280789.6,394415.6,218443.4,238510.1,280878.1,254135.3,0.0
202845.3,209728.9,280720.5,394372.8,218430.5,238493.8,280868.2,254138.5,0.0
202808.7,209712.0,280661.7,394327.7,218418.0,238489.9,280855.8,254128.9,0.0
202856.0,209733.0,280645.7,394298.3,218418.0,238497.1,280842.4,254112.2,0.0
202924.1,209765.7,280649.2,394287.0,218429.7,238505.5,280837.6,254109.7,0.0
202910.3,209754.2,280616.2,394263.2,218427.9,238494.2,280828.9,254113.3,0.0
202839.4,209718.1,280550.4,394223.6,218417.1,238481.2,280824.5,254119.5,0.0
202815.5,209713.4,280506.0,394194.0,218420.5,238491.9,280832.1,254125.8,0.0
202873.9,209748.3,280502.7,394181.2,218434.1,238514.9,280840.7,254125.4,0.0
202935.3,209776.9,280502.9,394167.9,218441.7,238523.1,280837.5,254121.4,0.0
202916.9,209759.9,280467.3,394139.0,218436.5,238508.9,280826.1,254122.2,0.0
202839.0,209718.1,280395.3,394094.7,218420.5,238488.9,280814.9,254122.2,0.0
202807.1,209707.7,280344.1,394056.2,218415.7,238491.4,280815.8,254122.5,0.0
202862.4,209742.5,280338.6,394035.7,218427.9,238511.5,280820.3,254123.7,0.0
202925.2,209770.2,280341.4,394022.1,218438.6,238520.9,280820.1,254123.2,0.0
202906.7,209753.4,280307.3,393996.5,218434.8,238509.5,280813.1,254125.6,0.0
202825.8,209710.8,280233.9,393951.1,218416.9,238489.1,280801.0,254125.0,0.0
202794.8,209700.0,280181.9,393912.2,218411.3,238488.4,280797.3,254120.5,0.0
202857.2,209738.0,280181.4,393898.3,218428.6,238510.6,280805.7,254121.8,0.0
202923.8,209766.8,280186.4,393886.6,218441.9,238522.9,280806.4,254120.9,0.0
202908.5,209753.2,280153.5,393861.6,218438.8,238514.0,280800.3,254123.4,0.0
202827.3,209713.5,280080.6,393816.7,218423.3,238493.8,280789.7,254121.6,0.0
202788.7,209698.3,280025.1,393774.5,218415.3,238491.7,280785.4,254116.3,0.0
202841.6,209725.4,280022.2,393758.1,218430.1,238514.4,280793.5,254116.6,0.0
202914.8,209761.3,280034.0,393752.4,218448.3,238533.1,280798.9,254122.3,0.0
202911.3,209757.0,280008.9,393732.8,218450.8,238530.1,280799.4,254128.6,0.0
202827.2,209710.7,279933.7,393682.7,218426.7,238508.2,280786.1,254121.8,0.0
202796.9,209700.3,279884.3,393643.1,218417.8,238510.0,280785.4,254119.5,0.0
202854.7,209732.6,279882.6,393627.7,218430.0,238531.9,280793.0,254118.0,0.0
202919.5,209758.0,279889.4,393616.8,218441.6,238545.7,280795.9,254116.6,0.0
202918.3,209753.6,279864.7,393597.8,218442.6,238540.8,280795.4,254124.2,0.0
202844.9,209713.7,279799.0,393557.7,218428.5,238524.1,280789.9,254127.0,0.0
202810.9,209700.7,279745.6,393514.8,218419.9,238521.7,280785.2,254121.7,0.0
202865.5,209733.8,279740.2,393496.8,218433.1,238542.8,280790.1,254119.0,0.0
202926.4,209759.2,279743.6,393485.7,218444.6,238555.4,280788.7,254116.0,0.0
202917.5,209751.6,279711.8,393462.0,218440.8,238543.7,280780.8,254116.8,0.0
202842.2,209714.2,279645.9,393421.8,218426.3,238527.6,280774.6,254119.5,0.0
202803.0,209697.8,279590.8,393379.9,218416.3,238522.8,280768.8,254111.5,0.0
202857.8,209728.0,279588.4,393365.1,218428.6,238544.5,280774.4,254108.3,0.0
202929.8,209765.2,279600.3,393358.9,218444.7,238560.7,280779.3,254110.3,0.0
202912.6,209747.8,279567.8,393331.6,218439.9,238548.3,280772.0,254110.1,0.0
202841.3,209711.7,279499.6,393289.1,218424.1,238528.5,280764.1,254111.0,0.0
202811.7,209701.8,279451.3,393253.1,218418.1,238529.9,280764.9,254111.8,0.0
202872.6,209738.0,279455.4,393242.7,218436.0,238555.1,280775.0,254114.6,0.0
202936.7,209765.7,279463.1,393230.6,218447.3,238564.7,280773.9,254109.9,0.0
202920.9,209750.2,279430.0,393204.2,218440.6,238550.8,280765.0,254107.9,0.0
202844.9,209712.5,279365.0,393164.5,218426.1,238536.7,280758.1,254108.2,0.0
202810.5,209698.6,279315.7,393130.4,218421.1,238540.8,280760.4,254108.0,0.0
202874.2,209739.8,279321.3,393121.5,218439.2,238568.7,280775.8,254114.0,0.0
202944.1,209774.3,279330.7,393114.6,218453.1,238583.2,280777.0,254113.7,0.0
202936.6,209765.2,279302.3,393092.7,218452.6,238576.4,280773.2,254116.4,0.0
202862.3,209725.2,279238.2,393052.6,218441.9,238560.1,280767.3,254115.2,0.0
202821.4,209702.2,279185.2,393015.0,218436.4,238559.1,280763.7,254108.5,0.0
202871.0,209727.3,279180.3,392995.1,218446.2,238577.1,280765.6,254101.9,0.0
202937.2,209758.6,279191.0,392985.0,218457.2,238589.7,280765.0,254100.1,0.0
202933.1,209755.1,279168.4,392970.3,218457.6,238586.4,280766.0,254107.0,0.0
202859.2,209718.5,279103.3,392933.3,218443.4,238571.9,280762.8,254110.8,0.0
202821.6,209701.5,279046.4,392887.9,218430.0,238566.1,280754.5,254101.7,0.0
202879.3,209734.2,279043.3,392868.6,218441.3,238586.9,280756.8,254096.5,0.0
202947.0,209766.0,279051.3,392860.6,218454.2,238602.5,280756.1,254095.6,0.0
202933.1,209750.7,279022.0,392841.0,218453.7,238596.8,280750.3,254098.7,0.0
202856.3,209710.0,278951.4,392800.1,218434.3,238576.5,280738.8,254096.8,0.0
202824.5,209700.9,278899.5,392762.5,218425.7,238574.9,280736.4,254091.9,0.0
202872.1,209727.7,278891.1,392739.2,218432.6,238590.7,280734.4,254081.5,0.0
202938.7,209758.1,278897.9,392728.7,218443.2,238603.9,280731.5,254078.3,0.0
202936.8,209756.0,278877.8,392713.7,218446.1,238599.7,280733.5,254087.0,0.0
202860.4,209715.6,278813.3,392675.6,218430.0,238582.9,280728.2,254090.3,0.0
202820.5,209697.5,278761.0,392636.2,218420.2,238581.5,280724.8,254087.0,0.0
202873.3,209729.6,278758.1,392620.5,218431.1,238603.5,280728.8,254084.0,0.0
202940.7,209761.4,278766.8,392614.1,218442.9,238617.9,280728.7,254082.8,0.0
202930.3,209745.9,278738.8,392593.3,218441.0,238608.1,280722.8,254085.2,0.0
202857.4,209706.8,278672.3,392552.9,218424.8,238588.7,280714.6,254085.7,0.0
202823.2,209691.8,278623.3,392519.3,218416.0,238589.8,280716.1,254085.6,0.0
202873.3,209722.0,278619.2,392502.4,218423.8,238607.6,280721.2,254081.0,0.0
202943.6,209756.4,278631.3,392497.5,218440.1,238622.9,280724.5,254081.0,0.0
202931.0,209738.9,278601.0,392474.1,218434.3,238608.9,280716.3,254080.6,0.0
202838.3,209679.5,278520.2,392420.8,218404.1,238577.4,280696.2,254066.6,0.0
202806.2,209670.4,278472.2,392387.7,218398.5,238580.8,280698.0,254067.0,0.0
202860.8,209705.0,278471.1,392372.0,218410.2,238601.4,280702.1,254063.6,0.0
202926.0,209733.8,278479.8,392361.1,218419.1,238611.4,280697.3,254057.0,0.0
202922.0,209728.3,278456.4,392346.2,218422.0,238608.1,280694.8,254065.0,0.0
202839.8,209682.3,278383.9,392300.0,218401.8,238585.6,280680.3,254058.9,0.0
202803.7,209669.0,278335.3,392265.4,218398.4,238587.4,280679.7,254058.7,0.0
202858.3,209702.4,278335.7,392249.2,218412.4,238606.0,280682.6,254055.0,0.0
202921.8,209733.4,278341.9,392235.2,218420.7,238612.6,280677.0,254048.4,0.0
202915.0,209726.5,278317.8,392214.9,218421.2,238605.2,280672.6,254053.3,0.0
202840.2,209688.0,278253.4,392173.8,218405.3,238586.5,280663.9,254056.7,0.0
202799.7,209673.0,278202.3,392134.9,218395.2,238585.7,280661.9,254055.8,0.0
202854.7,209703.5,278202.6,392120.4,218407.8,238607.9,280668.0,254055.2,0.0
202917.8,209726.3,278208.1,392108.1,218414.0,238616.4,280663.0,254049.7,0.0
202911.5,209717.3,278177.8,392084.6,218408.4,238606.0,280654.5,254052.9,0.0
202836.3,209679.0,278111.9,392046.3,218393.5,238590.4,280646.2,254058.3,0.0
202798.4,209665.7,278060.5,392009.2,218386.1,238590.5,280645.3,254057.5,0.0
202843.5,209691.9,278052.6,391986.8,218393.5,238605.7,280645.6,254048.6,0.0
202908.8,209721.1,278062.0,391978.9,218407.8,238620.8,280646.4,254048.2,0.0
202908.1,209718.0,278043.2,391965.3,218413.6,238620.8,280648.3,254059.1,0.0
202827.9,209671.9,277973.7,391920.5,218392.3,238597.1,280635.7,254055.8,0.0
202793.6,209657.7,277925.5,391885.8,218383.6,238595.2,280635.0,254056.6,0.0
202848.3,209691.2,277924.8,391872.5,218396.8,238616.0,280639.9,254058.4,0.0
202919.3,209725.3,277937.8,391867.5,218412.7,238632.0,280641.3,254062.4,0.0
202918.8,209719.6,277920.6,391856.8,218418.7,238633.4,280644.2,254074.6,0.0
202847.4,209683.8,277860.3,391818.7,218402.3,238616.6,280636.3,254076.2,0.0
202796.0,209657.6,277800.3,391771.0,218380.7,238604.6,280620.9,254060.3,0.0
202845.8,209687.8,277795.2,391751.8,218387.7,238622.6,280620.2,254051.6,0.0
202914.0,209723.5,277805.3,391741.9,218398.8,238634.5,280617.8,254047.2,0.0
202909.2,209717.6,277781.6,391723.4,218399.3,238627.5,280613.0,254050.8,0.0
202831.5,209674.8,277715.0,391679.6,218383.6,238607.0,280601.9,254049.1,0.0
202793.9,209661.0,277665.3,391640.0,218375.6,238603.8,280600.0,254045.5,0.0
202851.5,209697.7,277667.3,391626.5,218389.8,238624.6,280605.9,254044.2,0.0
202918.3,209727.8,277677.0,391618.9,218399.9,238636.7,280603.6,254040.8,0.0
202912.5,209717.1,277652.8,391602.8,218397.4,238630.7,280600.1,254045.8,0.0
202839.0,209673.3,277589.7,391566.8,218382.5,238614.7,280592.7,254047.7,0.0
202798.0,209653.9,277534.6,391524.0,218370.7,238608.0,280586.6,254039.3,0.0
202851.4,209688.1,277534.8,391507.2,218381.2,238627.5,280592.3,254038.0,0.0
202918.4,209720.7,277547.6,391498.4,218391.6,238639.7,280592.2,254035.5,0.0
202913.0,209712.5,277522.7,391479.9,218389.5,238631.0,280586.6,254036.3,0.0
202842.9,209679.4,277461.5,391444.3,218376.2,238614.1,280580.4,254039.6,0.0
202809.7,209671.5,277417.2,391411.9,218371.9,238615.7,280580.8,254041.7,0.0
202849.6,209690.8,277405.5,391385.8,218370.2,238623.0,280572.4,254027.4,0.0
202911.6,209714.9,277413.1,391376.0,218379.5,238631.8,280566.8,254022.5,0.0
202913.4,209709.4,277398.7,391368.3,218389.2,238632.7,280570.7,254036.6,0.0
202842.4,209672.3,277335.9,391330.4,218375.1,238614.0,280560.0,254039.5,0.0
202811.2,209666.0,277288.4,391296.2,218370.5,238617.0,280558.0,254038.2,0.0
202862.2,209694.4,277285.1,391277.8,218381.3,238637.0,280559.2,254032.1,0.0
202925.1,209718.7,277294.3,391267.2,218390.0,238647.3,280555.1,254026.1,0.0
202926.1,209715.1,277274.3,391250.4,218390.0,238640.6,280551.5,254029.0,0.0
202857.0,209679.8,277217.3,391216.0,218378.3,238622.7,280545.6,254033.6,0.0
202817.9,209663.6,277167.5,391180.8,218373.3,238621.1,280544.5,254031.9,0.0
202868.6,209693.9,277164.9,391166.8,218384.4,238642.1,280551.8,254031.3,0.0
202931.8,209720.3,277177.7,391160.4,218396.3,238655.8,280552.1,254030.6,0.0
202932.3,209715.9,277160.9,391148.1,218398.6,238650.9,280550.4,254038.0,0.0
202865.0,209680.3,277103.3,391115.3,218385.6,238635.6,280546.3,254043.9,0.0
202829.2,209668.2,277057.5,391081.5,218377.5,238635.5,280546.3,254043.1,0.0
202873.3,209693.7,277052.7,391061.3,218383.9,238653.5,280546.9,254036.3,0.0
202937.0,209723.3,277064.2,391053.3,218396.5,238666.8,280543.4,254034.1,0.0
202942.7,209726.3,277046.7,391038.8,218398.5,238662.2,280539.8,254039.6,0.0
202863.2,209681.8,276980.5,390995.4,218378.7,238639.4,280525.1,254037.5,0.0
202816.4,209659.7,276930.2,390958.5,218368.5,238635.4,280519.7,254034.7,0.0
202876.6,209702.9,276935.7,390949.9,218385.4,238660.0,280527.7,254040.8,0.0
202942.5,209737.3,276947.2,390942.8,218396.6,238671.6,280524.1,254042.9,0.0
202939.3,209732.2,276926.2,390928.7,218398.6,238664.9,280522.1,254055.0,0.0
202862.0,209690.6,276862.4,390893.9,218384.9,238646.3,280518.3,254066.8,0.0
202812.6,209662.3,276806.2,390856.1,218373.8,238641.0,280515.7,254069.6,0.0
202872.1,209702.2,276808.4,390844.8,218387.4,238662.8,280528.2,254075.8,0.0
202944.6,209740.2,276824.8,390842.3,218401.8,238679.0,280535.2,254084.0,0.0
202935.2,209728.8,276800.5,390823.6,218397.8,238668.9,280532.6,254091.2,0.0
202857.4,209686.1,276739.4,390788.6,218383.1,238651.9,280528.2,254098.8,0.0
202813.3,209661.1,276687.3,390750.3,218373.3,238647.0,280525.1,254097.5,0.0
202869.3,209696.4,276689.8,390739.4,218387.5,238671.1,280536.9,254102.8,0.0
202939.8,209732.2,276707.2,390738.7,218401.6,238687.6,280544.7,254109.1,0.0
202938.1,209727.0,276691.7,390730.3,218405.5,238685.3,280552.7,254126.3,0.0
202865.7,209688.3,276629.3,390695.9,218390.0,238665.5,280548.5,254136.0,0.0
202813.6,209660.1,276572.5,390654.5,218375.0,238655.8,280541.3,254132.2,0.0
202860.3,209689.7,276571.2,390640.9,218388.3,238675.9,280549.1,254131.7,0.0
202931.5,209730.8,276587.8,390639.2,218404.4,238692.3,280554.7,254134.8,0.0
202928.0,209722.7,276570.5,390628.4,218405.9,238690.7,280557.8,254147.0,0.0
202864.3,209690.9,276518.7,390602.8,218399.2,238680.6,280562.1,254163.4,0.0
202822.3,209673.6,276466.9,390564.8,218388.6,238674.4,280559.1,254162.6,0.0
202861.8,209694.5,276458.7,390540.2,218391.1,238684.5,280557.8,254153.5,0.0
202930.1,209728.6,276474.8,390536.5,218404.9,238700.2,280560.7,254155.7,0.0
202920.2,209716.2,276449.3,390517.6,218401.5,238689.5,280556.3,254159.3,0.0
202843.7,209673.0,276386.8,390482.8,218388.4,238670.7,280552.9,254165.5,0.0
202799.6,209650.8,276338.0,390450.2,218380.5,238668.3,280552.7,254169.7,0.0
202849.3,209679.4,276338.1,390438.0,218389.3,238685.6,280557.8,254170.3,0.0
202914.5,209707.7,276350.1,390429.8,218397.9,238696.2,280555.9,254165.5,0.0
202908.2,209697.5,276327.8,390412.5,218396.7,238687.3,280552.2,254168.6,0.0
202836.3,209657.4,276269.3,390382.9,218385.8,238671.6,280552.1,254177.3,0.0
202806.9,209649.2,276230.8,390360.4,218389.3,238678.4,280564.8,254187.6,0.0
202857.6,209680.2,276231.5,390350.7,218404.1,238700.4,280577.5,254189.5,0.0
202922.2,209709.4,276241.1,390341.7,218415.6,238712.0,280579.5,254185.0,0.0
202921.8,209704.6,276220.3,390327.1,218414.9,238705.1,280579.5,254189.2,0.0
202855.0,209669.2,276165.7,390299.0,218406.8,238693.3,280581.6,254200.0,0.0
202818.4,209655.6,276122.0,390270.9,218403.6,238696.9,280590.0,254203.1,0.0
202864.2,209683.0,276119.2,390254.2,218411.4,238713.8,280598.4,254197.5,0.0
202927.0,209713.9,276134.4,390248.2,218425.1,238725.8,280603.0,254195.7,0.0
202922.3,209706.4,276117.7,390234.6,218427.6,238720.6,280604.1,254202.7,0.0
202858.1,209675.4,276066.7,390207.7,218420.8,238709.8,280610.6,254214.4,0.0
202825.5,209664.7,276027.2,390181.5,218420.6,238716.9,280623.3,254224.6,0.0
202866.2,209688.6,276020.2,390158.4,218424.7,238730.7,280625.4,254215.9,0.0
202927.4,209718.9,276031.5,390144.4,218435.0,238739.0,280625.1,254206.5,0.0
202924.6,209713.7,276015.8,390130.1,218437.9,238733.6,280625.6,254211.5,0.0
202849.8,209672.0,275958.3,390099.1,218425.5,238718.1,280625.3,254219.9,0.0
202815.3,209663.6,275918.7,390073.7,218426.1,238722.7,280636.3,254228.0,0.0
202861.2,209693.4,275918.5,390058.8,218440.8,238746.1,280648.0,254227.3,0.0
202918.7,209718.3,275926.8,390046.3,218448.3,238756.6,280646.0,254218.4,0.0
202918.9,209714.3,275913.6,390037.1,218454.3,238754.9,280648.9,254227.0,0.0
202839.3,209665.2,275850.1,390000.8,218435.1,238731.3,280641.2,254225.7,0.0
202795.9,209641.0,275799.0,389966.9,218423.8,238726.1,280641.0,254221.5,0.0
202843.6,209668.1,275799.0,389950.3,218433.8,238746.0,280649.2,254218.7,0.0
202909.0,209699.3,275811.1,389940.2,218441.6,238756.3,280647.4,254211.0,0.0
202907.2,209691.6,275793.8,389926.1,218444.6,238751.2,280645.6,254214.1,0.0
202832.3,209648.0,275733.6,389890.3,218429.6,238729.8,280637.2,254215.9,0.0
202797.5,209635.1,275693.7,389862.8,218427.9,238732.2,280641.9,254220.6,0.0
202849.7,209668.4,275696.6,389848.3,218437.9,238750.5,280647.7,254217.5,0.0
202914.2,209698.7,275709.3,389836.9,218443.5,238760.6,280643.5,254208.9,0.0
202906.1,209684.7,275686.8,389816.7,218438.3,238750.7,280633.7,254207.4,0.0
202830.7,209638.2,275623.3,389779.5,218420.9,238729.0,280622.4,254207.7,0.0
202788.3,209614.5,275573.3,389742.2,218411.1,238720.6,280618.7,254203.7,0.0
202831.1,209638.0,275567.7,389722.9,218414.6,238733.0,280618.5,254195.6,0.0
202896.7,209672.9,275579.8,389713.1,218420.7,238742.0,280612.0,254187.0,0.0
202891.6,209666.0,275562.1,389697.0,218418.0,238732.1,280603.0,254186.4,0.0
202828.0,209633.4,275510.5,389671.0,218412.0,238719.5,280601.5,254196.5,0.0
202794.2,209621.3,275469.1,389642.4,218411.3,238724.1,280604.8,254202.3,0.0
202837.9,209646.7,275463.2,389619.7,218413.6,238738.2,280600.3,254191.7,0.0
202905.5,209679.3,275474.5,389606.2,218418.4,238745.8,280592.9,254181.2,0.0
202904.1,209674.6,275457.8,389590.1,218416.8,238738.7,280586.5,254183.1,0.0
202830.6,209632.6,275398.8,389555.2,218402.3,238717.8,280577.8,254186.9,0.0
202789.4,209615.2,275349.5,389520.9,218393.1,238713.3,280573.5,254184.9,0.0
202827.3,209637.5,275338.5,389492.9,218390.9,238718.3,280563.7,254166.4,0.0
202887.9,209666.7,275345.6,389475.4,218392.9,238718.4,280550.6,254149.5,0.0
202888.0,209662.8,275328.2,389458.5,218392.7,238708.0,280542.7,254150.5,0.0
202815.5,209623.8,275271.4,389424.1,218379.6,238687.2,280533.4,254152.4,0.0
202764.1,209592.0,275217.9,389383.8,218365.6,238674.7,280521.9,254143.9,0.0
202800.8,209606.9,275207.6,389358.8,218364.7,238680.5,280510.0,254126.5,0.0
202863.2,209630.7,275213.9,389341.9,218367.4,238683.8,280494.7,254110.7,0.0
202857.5,209617.8,275190.1,389318.8,218360.9,238669.6,280477.7,254102.4,0.0
202791.4,209585.2,275135.5,389288.0,218348.5,238652.5,280469.3,254105.9,0.0
202756.9,209574.1,275092.8,389258.0,218342.3,238654.0,280469.5,254108.6,0.0
202794.3,209593.6,275078.0,389227.1,218338.0,238660.2,280456.4,254088.7,0.0
202854.0,209620.1,275081.2,389207.2,218340.3,238661.6,280436.8,254070.8,0.0
202852.9,209614.3,275063.1,389191.6,218340.2,238651.7,280424.2,254069.9,0.0
202789.9,209580.3,275013.5,389167.2,218332.6,238638.9,280421.3,254078.9,0.0
202750.1,209559.8,274963.0,389133.1,218319.9,238630.8,280413.5,254074.2,0.0
202797.9,209587.9,274958.8,389112.5,218323.5,238640.8,280410.8,254064.3,0.0
202869.4,209623.8,274977.8,389104.9,218332.4,238650.4,280406.9,254058.0,0.0
202868.0,209612.3,274964.7,389090.8,218332.2,238641.4,280400.4,254060.7,0.0
202810.9,209585.3,274915.1,389064.5,218326.0,238627.8,280398.4,254070.9,0.0
202775.5,209571.3,274870.4,389036.0,218324.0,238628.1,280398.7,254073.5,0.0
202824.6,209603.3,274869.1,389020.6,218332.8,238645.9,280399.3,254068.2,0.0
202888.0,209634.4,274880.5,389006.3,218334.9,238650.2,280387.1,254055.1,0.0
202886.0,209627.5,274862.8,388990.8,218331.8,238639.6,280378.5,254054.8,0.0
202812.9,209584.0,274804.9,388957.6,218318.1,238618.8,280369.3,254055.9,0.0
202779.3,209573.3,274758.4,388923.1,218312.5,238613.4,280365.5,254051.3,0.0
202822.0,209598.9,274753.3,388904.3,218322.1,238626.9,280364.5,254039.8,0.0
202887.4,209631.0,274763.8,388891.9,218329.4,238633.8,280354.5,254026.3,0.0
202876.6,209615.3,274740.7,388868.6,218322.8,238618.9,280338.8,254018.6,0.0
202806.3,209577.9,274681.1,388832.1,218308.1,238595.3,280328.2,254019.0,0.0
202771.1,209567.5,274635.8,388803.7,218303.3,238593.6,280329.0,254021.3,0.0
202812.2,209591.1,274628.6,388783.8,218306.3,238605.3,280325.0,254009.3,0.0
202864.6,209610.0,274631.1,388764.8,218305.9,238604.5,280308.6,253991.0,0.0
202869.5,209613.6,274616.5,388752.2,218309.8,238597.8,280302.3,253993.6,0.0
202807.5,209585.3,274563.9,388725.6,218303.1,238582.1,280298.9,254000.7,0.0
202759.8,209560.2,274515.8,388692.0,218295.7,238578.7,280297.0,253999.8,0.0
202799.3,209581.4,274509.7,388670.2,218299.0,238593.1,280294.0,253988.4,0.0
202872.6,209621.1,274527.1,388662.6,218309.8,238606.3,280290.3,253979.6,0.0
202869.9,209613.7,274510.0,388646.4,218309.3,238597.6,280282.3,253977.9,0.0
202799.7,209573.2,274457.9,388620.2,218301.5,238584.0,280281.3,253985.4,0.0
202768.2,209563.1,274419.8,388595.9,218300.9,238587.1,280286.9,253991.0,0.0
202804.1,209579.7,274408.9,388572.0,218300.5,238596.8,280281.2,253976.5,0.0
202866.8,209612.6,274420.6,388559.8,218305.8,238607.7,280273.1,253965.1,0.0
202871.1,209614.8,274410.2,388547.9,218307.6,238602.9,280269.3,253967.5,0.0
202806.2,209579.1,274361.3,388523.1,218299.9,238591.4,280268.9,253977.9,0.0
202766.9,209562.6,274320.7,388498.0,218299.5,238595.6,280274.6,253983.8,0.0
202807.4,209588.1,274318.4,388481.9,218306.7,238614.5,280275.2,253975.4,0.0
202868.6,209615.2,274327.6,388466.4,218310.3,238624.3,280264.3,253959.5,0.0
202865.8,209604.1,274310.4,388448.0,218309.3,238616.3,280254.5,253956.5,0.0
202806.4,209573.0,274262.0,388423.8,218303.0,238605.4,280254.2,253965.3,0.0
202774.4,209563.6,274224.5,388401.1,218304.7,238613.3,280263.8,253972.7,0.0
202817.8,209591.3,274222.9,388384.5,218310.9,238630.7,280267.5,253965.5,0.0
202880.5,209619.9,274234.6,388371.7,218315.3,238637.5,280258.9,253951.8,0.0
202887.4,209619.4,274225.4,388361.8,218321.2,238637.3,280256.0,253957.8,0.0
202819.9,209581.7,274175.5,388335.9,218313.4,238625.2,280255.0,253968.8,0.0
202787.0,209572.5,274140.0,388314.1,218316.4,238632.5,280265.9,253980.3,0.0
202824.3,209597.5,274133.3,388291.9,218319.4,238645.5,280263.7,253971.0,0.0
202885.9,209629.6,274146.2,388277.8,218325.0,238654.5,280255.9,253959.3,0.0
202887.2,209627.8,274135.6,388267.2,218329.8,238651.0,280254.9,253964.0,0.0
202823.7,209592.9,274085.3,388242.9,218323.0,238638.7,280258.8,253975.7,0.0
202781.7,209572.3,274038.7,388215.2,218317.7,238639.6,280265.4,253980.0,0.0
202821.2,209596.4,274033.8,388199.0,218322.8,238655.5,280269.5,253972.3,0.0
202889.1,209630.5,274049.5,388190.3,218330.4,238667.4,280264.0,253962.5,0.0
202892.9,209627.0,274038.3,388177.7,218334.3,238662.2,280259.4,253964.8,0.0
202830.5,209596.0,273992.7,388156.5,218330.4,238652.8,280265.2,253979.6,0.0
202791.0,209578.5,273950.5,388129.2,218323.5,238655.1,280272.9,253984.6,0.0
202829.1,209598.0,273942.9,388108.0,218329.0,238670.7,280273.5,253974.0,0.0
202893.0,209625.7,273955.6,388096.7,218337.9,238681.2,280265.9,253962.4,0.0
202901.0,209625.9,273946.8,388085.8,218342.3,238678.1,280263.9,253966.7,0.0
202834.4,209589.2,273896.2,388059.9,218332.7,238665.0,280263.0,253976.7,0.0
202788.3,209565.4,273850.8,388030.9,218326.1,238665.6,280266.6,253979.1,0.0
202825.8,209584.4,273847.3,388011.5,218331.2,238679.9,280267.9,253969.3,0.0
202893.7,209615.8,273862.6,388001.3,218339.5,238692.6,280264.0,253959.9,0.0
202901.9,209617.3,273855.7,387996.3,218345.5,238694.6,280268.6,253969.9,0.0
202837.7,209582.0,273806.8,387972.5,218335.6,238681.9,280271.0,253980.9,0.0
202799.0,209569.1,273767.1,387950.3,218335.3,238685.2,280280.7,253989.1,0.0
202835.3,209592.9,273761.0,387931.3,218340.7,238697.3,280281.2,253980.6,0.0
202900.1,209625.7,273776.7,387921.7,218349.5,238709.0,280277.3,253971.6,0.0
202908.5,209625.2,273769.8,387912.0,218356.1,238709.8,280279.3,253977.7,0.0
202846.2,209593.3,273719.2,387885.2,218349.1,238697.6,280280.0,253985.8,0.0
202802.6,209575.3,273674.8,387857.1,218343.8,238698.6,280284.3,253989.4,0.0
202836.0,209592.1,273668.5,387838.5,218346.7,238711.8,280283.8,253981.2,0.0
202897.3,209618.6,273681.8,387826.4,218351.4,238718.9,280276.9,253970.5,0.0
202903.4,209619.9,273674.0,387815.9,218354.7,238716.3,280276.8,253977.2,0.0
202837.2,209586.2,273626.3,387790.4,218347.6,238704.3,280276.6,253987.2,0.0
202793.2,209566.6,273583.0,387762.5,218344.2,238706.0,280280.0,253992.9,0.0
202831.8,209590.0,273578.0,387746.6,218349.6,238722.4,280281.5,253987.3,0.0
202894.3,209618.2,273591.1,387736.3,218354.9,238730.9,280276.1,253977.3,0.0
202905.3,209620.4,273585.5,387729.1,218360.8,238731.4,280279.7,253984.5,0.0
202841.9,209587.1,273538.7,387705.4,218354.9,238721.7,280284.8,253993.4,0.0
202804.4,209575.8,273500.5,387681.6,218353.7,238724.2,280293.6,253999.7,0.0
202851.2,209608.0,273505.7,387672.1,218366.8,238749.0,280304.8,254001.6,0.0
202914.3,209637.4,273520.2,387660.4,218373.3,238760.5,280301.3,253992.1,0.0
202919.7,209638.3,273509.6,387648.4,218378.1,238758.2,280301.7,253993.5,0.0
202853.4,209603.3,273459.4,387622.3,218372.8,238746.7,280306.8,254001.5,0.0
202811.5,209587.7,273419.7,387599.0,218371.5,238750.1,280319.1,254010.2,0.0
202850.9,209612.3,273420.7,387587.8,218380.2,238769.1,280327.9,254009.1,0.0
202907.7,209631.5,273429.4,387571.3,218382.6,238772.0,280314.7,253993.4,0.0
202910.4,209626.0,273416.3,387553.7,218382.5,238765.5,280307.1,253991.4,0.0
202837.4,209584.9,273363.1,387524.1,218368.9,238749.2,280301.9,253993.5,0.0
202787.1,209558.9,273316.5,387494.4,218359.9,238746.1,280302.3,253994.9,0.0
202830.1,209588.7,273315.8,387480.4,218369.8,238764.0,280308.3,253991.0,0.0
202903.8,209627.2,273335.9,387476.4,218384.6,238780.9,280309.9,253986.8,0.0
202910.3,209626.1,273327.0,387465.7,218386.1,238777.8,280309.8,253989.9,0.0
202837.7,209584.5,273273.6,387433.7,218372.2,238759.6,280305.9,253995.5,0.0
202798.2,209571.5,273231.2,387404.8,218365.7,238759.9,280308.2,253999.7,0.0
202838.8,209596.7,273228.0,387388.8,218369.4,238775.6,280310.3,253992.7,0.0
202900.1,209619.7,273241.8,387376.3,218375.0,238785.8,280302.4,253981.5,0.0
202904.6,209614.9,273235.0,387368.1,218382.3,238785.0,280302.6,253988.6,0.0
202838.8,209580.4,273183.0,387339.1,218372.0,238771.2,280300.1,253996.1,0.0
202793.9,209562.7,273136.4,387308.5,218363.0,238770.2,280302.3,253997.2,0.0
202833.5,209588.2,273134.3,387294.4,218372.3,238789.9,280306.9,253993.3,0.0
202903.6,209621.6,273149.9,387287.1,218380.7,238800.2,280300.5,253981.8,0.0
202906.2,209614.5,273140.4,387276.4,218382.3,238794.3,280297.5,253981.8,0.0
202838.6,209577.7,273090.8,387247.9,218370.4,238779.1,280295.2,253987.4,0.0
202797.2,209561.4,273048.3,387220.1,218362.2,238779.4,280297.9,253989.3,0.0
202835.3,209582.3,273047.2,387206.3,218368.5,238797.3,280299.9,253985.8,0.0
202899.2,209609.9,273061.3,387195.8,218375.0,238807.7,280292.0,253976.0,0.0
202909.1,209613.2,273055.7,387188.2,218380.5,238807.2,280292.4,253981.6,0.0
202832.0,209567.2,272999.4,387155.8,218363.0,238787.6,280285.3,253982.3,0.0
202789.4,209550.2,272955.8,387125.9,218356.4,238787.5,280287.2,253984.1,0.0
202835.0,209580.8,272956.5,387111.1,218365.0,238806.4,280291.0,253981.0,0.0
202900.6,209609.6,272972.0,387103.3,218371.5,238817.3,280284.5,253972.1,0.0
202905.1,209606.4,272965.1,387093.4,218374.1,238812.8,280282.1,253977.3,0.0
202844.1,209577.3,272920.1,387070.7,218368.4,238799.2,280283.3,253987.6,0.0
202792.7,209551.5,272869.9,387038.4,218356.6,238792.3,280280.7,253985.0,0.0
202829.8,209572.5,272869.7,387024.7,218363.5,238811.1,280286.3,253981.5,0.0
202900.6,209606.1,272887.5,387016.2,218370.6,238821.9,280281.8,253972.7,0.0
202908.1,209606.4,272879.2,387004.8,218369.2,238817.1,280277.3,253974.1,0.0
202836.9,209567.2,272828.4,386977.5,218356.3,238801.4,280273.4,253980.6,0.0
202788.5,209543.0,272781.5,386945.7,218347.3,238799.4,280274.2,253982.1,0.0
202833.9,209574.8,272782.8,386931.7,218353.4,238820.6,280279.1,253978.8,0.0
202895.9,209601.7,272796.6,386918.8,218357.4,238828.9,280271.3,253968.0,0.0
202901.6,209599.1,272790.2,386909.9,218360.7,238825.2,280267.8,253974.0,0.0
202839.0,209569.6,272744.1,386885.1,218350.5,238811.7,280265.1,253986.3,0.0
202788.7,209548.9,272697.8,386851.4,218338.8,238805.2,280261.7,253989.0,0.0
202832.1,209579.3,272702.3,386841.1,218351.5,238825.1,280269.1,253995.2,0.0
202908.3,209621.4,272727.9,386843.1,218370.1,238846.2,280274.3,254001.9,0.0
202912.7,209617.7,272717.0,386831.8,218369.8,238839.8,280269.8,254009.4,0.0
202839.0,209576.0,272663.8,386804.0,218353.8,238821.1,280265.9,254019.3,0.0
202788.4,209553.2,272618.6,386777.4,218344.1,238820.0,280271.8,254029.7,0.0
202824.1,209574.5,272615.8,386762.9,218347.2,238835.2,280276.1,254030.9,0.0
202895.2,209610.0,272632.6,386759.1,218355.6,238847.5,280276.8,254030.0,0.0
202901.8,209607.7,272623.3,386749.2,218357.2,238844.7,280276.7,254039.8,0.0
202831.0,209569.9,272574.0,386723.2,218345.5,238829.9,280277.7,254050.7,0.0
202779.9,209546.2,272527.2,386694.2,218335.8,238826.3,280280.6,254055.0,0.0
202814.4,209564.5,272520.6,386678.3,218340.6,238840.2,280282.7,254051.6,0.0
202877.3,209588.4,272536.1,386672.2,218348.1,238850.3,280281.0,254047.2,0.0
202890.3,209594.9,272534.5,386669.9,218354.7,238850.0,280285.8,254058.9,0.0
202823.0,209560.5,272488.1,386647.8,218346.9,238835.5,280290.5,254073.0,0.0
202778.3,209547.3,272449.4,386628.4,218346.5,238839.8,280302.7,254087.2,0.0
202815.9,209570.7,272446.7,386616.4,218353.6,238856.5,280307.4,254085.6,0.0
202884.8,209600.6,272461.8,386612.3,218361.7,238866.5,280306.3,254079.5,0.0
202887.5,209592.6,272450.3,386602.7,218361.3,238858.4,280303.6,254082.7,0.0
202821.2,209556.0,272401.0,386576.8,218348.3,238840.6,280303.7,254091.5,0.0
202779.9,209537.5,272360.5,386550.6,218345.1,238839.1,280310.7,254098.5,0.0
202815.8,209556.6,272358.8,386535.8,218353.0,238853.5,280314.6,254096.3,0.0
202888.0,209590.4,272376.8,386530.3,218364.0,238865.2,280313.3,254092.0,0.0
202900.6,209592.9,272373.6,386524.6,218370.0,238865.0,280315.8,254100.3,0.0
202828.8,209554.6,272323.2,386497.1,218359.8,238846.3,280314.0,254107.2,0.0
202782.5,209535.9,272281.6,386471.9,218357.1,238846.6,280321.7,254114.3,0.0
202819.2,209560.0,272281.3,386459.8,218364.3,238861.4,280328.6,254111.3,0.0
202889.7,209594.1,272303.3,386461.1,218378.5,238877.0,280334.8,254111.9,0.0
202900.7,209595.0,272298.0,386456.5,218387.8,238875.4,280338.5,254120.7,0.0
202827.3,209554.9,272245.8,386423.5,218371.5,238854.2,280331.5,254122.8,0.0
202769.9,209523.6,272193.2,386383.1,218353.6,238841.2,280324.5,254116.5,0.0
202813.3,209553.4,272197.4,386373.6,218366.4,238863.6,280335.7,254118.3,0.0
202880.3,209584.0,272216.2,386369.7,218375.5,238875.7,280334.6,254111.3,0.0
202883.8,209577.6,272207.3,386361.2,218374.6,238869.4,280332.7,254114.7,0.0
202813.8,209540.1,272156.4,386334.3,218362.0,238852.5,280331.4,254120.7,0.0
202763.6,209516.8,272107.8,386303.3,218351.6,238847.0,280331.9,254119.3,0.0
202804.6,209544.7,272108.4,386293.2,218361.3,238866.8,280341.3,254119.6,0.0
202871.7,209574.3,272123.1,386284.4,218367.7,238877.4,280338.2,254111.6,0.0
202880.7,209569.4,272114.8,386274.5,218368.2,238872.8,280336.1,254114.6,0.0
202814.7,209532.0,272066.0,386246.6,218355.8,238855.8,280331.4,254118.0,0.0
202773.5,209516.4,272027.3,386220.6,218353.7,238858.1,280337.4,254123.3,0.0
202812.9,209537.9,272026.2,386206.5,218360.5,238874.7,280341.3,254120.8,0.0
202880.8,209568.3,272046.1,386200.4,218368.2,238884.5,280337.5,254114.8,0.0
202893.6,209572.0,272045.3,386197.6,218375.4,238883.7,280339.4,254123.7,0.0
202826.3,209537.2,271997.7,386172.1,218366.7,238868.1,280338.8,254130.7,0.0
