EEG 1,EEG 2,EEG 3,EEG 4,EEG 5,EEG 6,EEG 7,EEG 8,TRIG
193648.5,199187.0,309369.4,462464.4,202041.8,228973.9,369557.9,230023.5,0.0
193546.5,199141.5,309072.0,461476.5,201854.0,228754.1,369257.8,229765.1,0.0
194138.2,199593.4,309438.5,461320.7,202368.1,229241.3,369758.6,230284.5,0.0
194593.6,199906.9,309761.7,461213.6,202865.1,229752.5,370354.6,230852.3,0.0
194289.4,199655.1,309408.9,460328.1,202663.2,229585.1,370221.8,230687.6,0.0
193645.3,199180.5,308681.3,458917.7,202044.7,228971.4,369541.1,230021.5,0.0
193552.3,199139.8,308397.0,457972.3,201865.4,228756.3,369248.5,229775.3,0.0
194145.3,199589.4,308770.2,457855.8,202383.7,229241.7,369755.1,230299.3,0.0
194612.5,199914.3,309101.5,457787.5,202886.9,229757.4,370361.4,230871.6,0.0
194305.3,199658.8,308751.5,456932.3,202684.4,229588.5,370231.3,230704.3,0.0
193659.2,199184.3,308027.9,455555.9,202062.0,228973.2,369549.5,230033.4,0.0
193557.2,199138.8,307745.6,454638.6,201877.1,228753.2,369251.0,229779.7,0.0
194150.7,199591.3,308125.4,454554.6,202392.1,229238.5,369754.1,230301.3,0.0
194609.7,199906.0,308462.3,454515.9,202887.8,229749.4,370352.8,230868.9,0.0
194308.5,199656.7,308124.4,453693.7,202685.2,229583.6,370222.2,230704.3,0.0
193660.9,199180.9,307403.0,452339.7,202059.0,228965.7,369536.8,230027.9,0.0
193549.9,199127.2,307115.0,451443.0,201864.1,228737.8,369232.8,229765.7,0.0
194136.9,199578.7,307495.7,451380.3,202374.6,229216.5,369732.4,230279.4,0.0
194604.2,199903.4,307849.4,451378.0,202882.0,229736.9,370343.5,230856.3,0.0
194312.9,199659.9,307533.3,450598.1,202695.4,229589.2,370230.7,230705.1,0.0
193663.9,199182.1,306819.6,449267.7,202069.1,228972.1,369543.1,230025.1,0.0
193573.5,199147.3,306553.2,448404.1,201887.0,228757.7,369245.2,229770.7,0.0
194166.6,199598.9,306943.4,448369.2,202399.4,229243.3,369744.9,230289.4,0.0
194624.5,199916.4,307288.8,448380.1,202893.8,229752.8,370341.2,230852.7,0.0
194326.4,199672.1,306966.3,447617.1,202697.8,229592.7,370218.1,230689.8,0.0
193678.9,199200.2,306259.7,446316.4,202075.3,228977.9,369533.3,230014.5,0.0
193566.2,199142.1,305984.4,445466.5,201877.0,228749.6,369221.7,229749.7,0.0
194151.5,199585.6,306372.0,445450.3,202379.2,229224.7,369710.2,230259.3,0.0
194615.8,199905.7,306730.3,445497.7,202881.5,229740.0,370313.8,230833.4,0.0
194320.5,199659.9,306417.4,444764.5,202687.8,229581.3,370192.3,230676.6,0.0
193668.1,199180.9,305710.1,443485.9,202059.6,228960.3,369503.2,229999.0,0.0
193556.8,199127.6,305437.8,442661.2,201864.3,228731.9,369192.5,229734.0,0.0
194140.1,199576.9,305832.5,442670.9,202373.7,229213.0,369686.8,230250.6,0.0
194604.1,199901.2,306196.1,442738.6,202880.4,229731.1,370291.4,230828.4,0.0
194319.5,199670.0,305897.8,442038.1,202698.9,229584.5,370182.0,230686.2,0.0
193666.4,199191.7,305199.1,440789.0,202072.8,228968.2,369500.6,230015.4,0.0
193551.1,199133.8,304926.2,439981.5,201867.5,228731.5,369184.2,229743.2,0.0
194135.3,199575.0,305320.0,440007.9,202369.0,229203.4,369671.8,230251.7,0.0
194600.9,199895.8,305684.9,440096.6,202869.7,229716.8,370272.1,230823.3,0.0
194310.1,199655.2,305383.3,439409.6,202680.4,229564.0,370156.3,230671.7,0.0
193668.8,199184.5,304696.4,438187.0,202065.1,228957.7,369484.7,230006.4,0.0
193555.9,199128.0,304431.8,437402.8,201867.3,228726.5,369173.8,229740.3,0.0
194144.8,199576.0,304835.2,437457.1,202378.5,229208.6,369669.3,230256.8,0.0
194621.0,199908.7,305218.6,437584.7,202898.0,229742.2,370290.0,230848.2,0.0
194333.0,199669.1,304926.3,436928.2,202711.9,229596.4,370182.9,230705.2,0.0
193691.1,199198.2,304241.9,435727.5,202090.0,228987.6,369510.5,230040.0,0.0
193579.9,199144.6,303982.7,434967.5,201892.4,228759.0,369205.5,229774.9,0.0
194160.0,199587.6,304385.7,435032.6,202398.1,229235.4,369696.6,230285.0,0.0
194634.7,199918.5,304771.8,435174.8,202914.2,229762.4,370314.3,230872.2,0.0
194345.1,199676.5,304481.0,434537.5,202732.8,229617.3,370211.2,230728.8,0.0
193689.9,199197.1,303793.4,433350.8,202112.0,229004.3,369536.0,230059.4,0.0
193569.4,199139.1,303532.0,432604.2,201909.0,228768.8,369222.7,229788.0,0.0
194146.7,199581.2,303939.4,432692.5,202411.6,229242.5,369716.8,230297.5,0.0
194615.0,199903.5,304324.3,432849.3,202918.9,229763.0,370329.7,230875.7,0.0
194336.8,199670.4,304048.2,432240.8,202742.7,229624.2,370232.0,230738.0,0.0
193694.7,199200.9,303376.5,431081.5,202129.2,229019.4,369564.8,230077.4,0.0
193569.5,199133.1,303114.1,430344.9,201923.3,228780.8,369245.8,229799.0,0.0
194149.6,199575.5,303520.0,430443.1,202422.4,229251.7,369730.5,230299.5,0.0
194623.4,199905.6,303911.9,430624.2,202932.1,229776.9,370345.3,230883.8,0.0
194343.5,199672.3,303639.3,430035.3,202754.6,229637.6,370249.0,230746.9,0.0
193695.9,199197.2,302960.8,428886.6,202133.3,229026.1,369575.7,230076.4,0.0
193562.7,199125.0,302690.9,428159.6,201914.6,228776.7,369247.3,229788.5,0.0
194133.4,199557.8,303098.4,428274.8,202408.8,229243.6,369729.9,230289.5,0.0
194613.1,199892.8,303498.2,428474.8,202921.5,229770.8,370346.6,230875.7,0.0
194334.6,199659.0,303223.6,427894.7,202740.3,229626.4,370243.5,230732.7,0.0
193684.7,199179.0,302547.3,426758.9,202118.7,229012.1,369565.5,230061.1,0.0
193555.5,199110.1,302288.8,426052.5,201906.0,228767.3,369242.4,229779.4,0.0
194139.3,199560.2,302703.1,426186.9,202401.8,229235.6,369725.8,230282.3,0.0
194620.4,199900.3,303106.1,426405.7,202915.5,229766.3,370343.2,230871.1,0.0
194341.4,199670.5,302840.0,425849.1,202741.2,229631.4,370246.5,230737.0,0.0
193687.8,199191.8,302164.1,424722.9,202114.4,229013.6,369563.6,230059.6,0.0
193558.2,199124.2,301904.6,424023.2,201896.6,228764.8,369232.2,229770.9,0.0
194135.0,199566.0,302320.9,424168.3,202393.6,229234.6,369712.1,230270.8,0.0
194611.5,199898.0,302725.0,424397.6,202906.8,229762.1,370325.3,230854.5,0.0
194335.2,199666.4,302462.1,423857.6,202730.9,229625.6,370227.5,230718.2,0.0
193698.4,199202.3,301805.7,422769.2,202119.5,229025.8,369564.1,230059.6,0.0
193583.2,199150.8,301567.0,422106.3,201922.0,228796.0,369252.3,229788.3,0.0
194153.0,199584.5,301978.3,422261.6,202411.7,229258.5,369726.5,230280.9,0.0
194630.8,199915.3,302385.2,422505.9,202923.7,229783.4,370342.7,230865.0,0.0
194360.0,199690.2,302130.6,421986.5,202756.7,229650.6,370255.0,230736.8,0.0
193704.1,199208.0,301457.6,420892.7,202131.1,229032.3,369574.2,230061.9,0.0
193568.7,199137.4,301201.9,420225.0,201913.4,228785.8,369247.5,229773.7,0.0
194143.6,199576.0,301619.8,420396.9,202411.1,229256.5,369729.0,230271.9,0.0
194630.3,199914.0,302034.8,420660.3,202932.5,229792.7,370351.3,230863.4,0.0
194352.4,199681.6,301773.3,420144.0,202754.1,229652.7,370253.2,230724.7,0.0
193703.4,199208.4,301106.7,419070.5,202129.6,229041.4,369577.3,230053.4,0.0
193562.0,199130.2,300842.1,418405.6,201902.8,228783.0,369238.1,229755.9,0.0
194134.1,199567.7,301257.8,418586.8,202394.3,229246.0,369712.5,230249.1,0.0
194624.6,199913.9,301676.9,418866.6,202917.5,229784.5,370337.4,230843.7,0.0
194350.2,199681.2,301428.1,418374.7,202749.4,229654.9,370247.8,230718.1,0.0
193692.0,199198.1,300760.4,417307.9,202122.2,229039.4,369567.7,230044.3,0.0
193556.8,199127.5,300508.1,416662.7,201904.3,228793.2,369238.2,229755.2,0.0
194133.5,199566.4,300932.8,416858.4,202399.8,229260.5,369714.9,230251.9,0.0
194618.1,199902.9,301351.3,417148.0,202920.5,229793.0,370335.3,230844.6,0.0
194341.5,199668.5,301099.8,416666.2,202751.0,229660.4,370244.5,230713.4,0.0
193693.5,199193.1,300442.3,415618.7,202131.4,229048.3,369573.2,230043.8,0.0
193557.4,199121.7,300189.7,414982.6,201908.3,228795.9,369242.0,229753.0,0.0
194127.9,199555.9,300609.1,415186.2,202397.5,229255.7,369716.1,230245.9,0.0
194621.9,199902.2,301040.1,415497.9,202928.5,229797.8,370347.3,230847.1,0.0
194365.4,199689.8,300807.0,415044.3,202774.8,229682.9,370273.4,230732.7,0.0
193716.6,199214.2,300153.7,414014.4,202159.6,229080.5,369607.9,230072.2,0.0
193585.7,199151.8,299911.1,413399.8,201946.3,228837.5,369285.7,229788.2,0.0
194146.5,199579.5,300329.1,413611.0,202431.0,229293.7,369758.2,230276.9,0.0
194622.5,199909.5,300743.7,413916.4,202939.3,229817.4,370370.8,230859.4,0.0
194359.3,199686.5,300505.7,413467.6,202775.8,229693.3,370290.6,230737.2,0.0
193705.2,199203.3,299846.0,412439.0,202150.8,229078.4,369615.8,230065.5,0.0
193566.7,199131.5,299598.3,411828.3,201929.3,228828.9,369285.5,229776.8,0.0
194144.4,199577.5,300030.4,412062.7,202420.7,229297.0,369765.4,230276.4,0.0
194635.7,199918.7,300462.9,412394.4,202941.5,229834.0,370392.4,230873.0,0.0
194369.3,199692.2,300229.9,411957.7,202780.4,229710.6,370313.7,230753.6,0.0
193713.0,199208.4,299574.5,410942.3,202158.9,229097.7,369642.5,230087.6,0.0
193576.3,199141.4,299327.3,410339.9,201938.7,228844.3,369311.4,229798.1,0.0
194145.1,199577.6,299749.4,410569.7,202424.2,229299.1,369777.9,230284.1,0.0
194631.8,199917.6,300178.7,410904.8,202944.0,229833.3,370398.1,230875.7,0.0
194358.3,199686.7,299940.1,410471.0,202778.7,229705.0,370313.2,230751.1,0.0
193708.2,199212.7,299290.6,409468.7,202162.4,229097.6,369644.5,230086.6,0.0
193572.5,199145.4,299048.8,408881.5,201945.7,228850.8,369316.8,229801.5,0.0
194138.8,199578.6,299475.3,409124.9,202433.1,229310.0,369788.3,230293.1,0.0
194628.7,199920.2,299910.4,409476.9,202958.4,229850.0,370418.8,230892.5,0.0
194370.3,199704.2,299686.5,409068.7,202807.7,229738.0,370350.2,230782.2,0.0
193727.0,199235.1,299043.5,408085.0,202194.0,229137.8,369690.5,230126.1,0.0
193576.7,199154.1,298790.0,407496.0,201960.6,228878.1,369354.9,229830.8,0.0
194137.1,199586.0,299213.5,407743.9,202441.4,229330.5,369824.8,230317.0,0.0
194617.5,199915.0,299641.3,408093.0,202957.9,229856.1,370444.3,230902.7,0.0
194356.8,199688.3,299416.4,407690.4,202803.1,229736.7,370373.0,230789.2,0.0
193706.1,199207.3,298766.5,406703.8,202179.2,229124.4,369702.9,230121.6,0.0
193560.3,199127.8,298517.5,406120.8,201950.3,228863.5,369362.5,229824.8,0.0
194130.4,199566.3,298942.9,406375.8,202433.5,229316.5,369827.4,230312.2,0.0
194623.5,199912.3,299379.8,406744.3,202954.8,229848.7,370450.2,230907.5,0.0
194367.3,199694.9,299160.6,406356.4,202801.2,229734.5,370381.0,230798.7,0.0
193710.9,199212.2,298511.1,405380.9,202176.6,229124.9,369711.9,230132.0,0.0
193558.9,199126.0,298256.3,404803.3,201941.7,228860.9,369369.8,229828.5,0.0
194132.2,199566.6,298689.3,405076.5,202432.4,229321.8,369841.6,230320.1,0.0
194631.9,199920.8,299136.4,405461.7,202966.2,229868.6,370475.5,230924.6,0.0
194377.8,199706.6,298918.8,405082.1,202812.1,229755.1,370406.7,230812.6,0.0
193724.6,199225.8,298274.8,404117.7,202193.1,229149.5,369740.9,230148.3,0.0
193571.6,199139.8,298021.9,403546.6,201959.0,228885.1,369398.0,229845.0,0.0
194132.9,199570.3,298442.6,403809.0,202435.1,229328.4,369853.1,230320.3,0.0
194624.3,199911.0,298882.3,404189.0,202959.0,229862.1,370471.4,230912.0,0.0
194372.6,199695.3,298666.4,403817.6,202809.5,229749.4,370400.8,230803.3,0.0
193722.3,199216.5,298025.1,402864.0,202193.4,229145.6,369736.6,230145.1,0.0
193562.0,199126.3,297770.2,402300.0,201956.8,228880.8,369391.0,229840.9,0.0
194130.5,199563.4,298200.7,402583.6,202443.7,229337.7,369857.7,230329.4,0.0
194636.4,199924.2,298651.0,402985.2,202979.5,229884.0,370489.0,230932.9,0.0
194384.3,199712.8,298439.2,402624.5,202831.3,229775.3,370421.9,230825.3,0.0
193728.8,199232.8,297796.6,401673.8,202212.8,229168.3,369754.6,230162.2,0.0
193567.7,199140.1,297542.2,401114.5,201975.6,228898.3,369403.7,229853.8,0.0
194127.0,199568.5,297967.6,401399.6,202453.2,229346.2,369863.3,230331.8,0.0
194614.1,199905.2,298406.6,401798.9,202974.2,229880.1,370487.5,230922.9,0.0
194371.9,199702.5,298207.2,401454.4,202832.8,229774.3,370432.3,230821.5,0.0
193722.4,199229.9,297574.7,400520.6,202218.5,229172.5,369776.3,230162.0,0.0
193562.0,199137.6,297322.3,399969.4,201977.9,228902.5,369430.3,229854.2,0.0
194116.3,199557.5,297744.0,400250.1,202447.2,229340.6,369881.4,230325.3,0.0
194614.9,199903.8,298193.8,400659.2,202972.4,229876.8,370506.8,230918.2,0.0
194371.8,199694.2,297993.9,400321.2,202831.6,229772.7,370449.6,230817.5,0.0
193717.6,199214.4,297356.3,399386.7,202212.8,229167.6,369784.6,230157.4,0.0
193556.2,199122.0,297100.1,398835.2,201970.3,228895.5,369429.5,229847.1,0.0
194112.9,199547.8,297523.4,399124.8,202441.9,229336.9,369878.3,230321.6,0.0
194621.0,199908.1,297986.4,399557.0,202982.5,229889.4,370516.8,230933.4,0.0
194386.2,199710.4,297795.1,399238.0,202852.8,229797.9,370471.3,230849.5,0.0
193738.5,199232.8,297161.6,398320.5,202243.0,229199.1,369816.6,230202.2,0.0
193574.2,199141.8,296904.2,397781.6,202001.1,228927.7,369468.2,229900.1,0.0
194131.9,199573.2,297330.0,398082.3,202475.8,229374.4,369925.8,230385.3,0.0
194629.3,199922.4,297781.4,398504.1,203004.0,229914.9,370555.9,230991.2,0.0
194382.3,199712.5,297580.1,398181.1,202859.6,229811.5,370502.7,230899.5,0.0
193730.4,199233.7,296946.0,397269.0,202244.3,229212.2,369849.1,230253.4,0.0
193563.8,199137.7,296692.9,396732.7,202001.8,228941.0,369500.6,229951.5,0.0
194113.1,199560.0,297117.6,397034.4,202472.4,229381.2,369954.8,230428.3,0.0
194609.3,199909.0,297570.5,397465.3,203002.3,229923.4,370586.5,231031.9,0.0
194369.3,199703.3,297374.6,397149.8,202865.7,229822.1,370535.3,230943.7,0.0
193711.0,199219.9,296735.4,396231.0,202245.8,229212.3,369871.2,230285.2,0.0
193545.2,199127.8,296480.6,395697.1,202001.0,228937.7,369518.5,229975.9,0.0
194108.1,199565.2,296918.0,396014.7,202479.7,229387.6,369981.4,230461.4,0.0
194615.7,199922.8,297383.6,396462.1,203017.5,229935.9,370620.9,231071.6,0.0
194374.0,199718.3,297190.0,396153.9,202879.5,229835.7,370571.5,230978.6,0.0
193714.6,199230.6,296549.2,395238.4,202254.9,229224.4,369905.8,230313.8,0.0
193539.3,199127.0,296285.3,394698.6,201999.2,228938.3,369540.9,229991.9,0.0
194092.0,199552.9,296710.1,395007.0,202467.3,229375.3,369987.4,230459.9,0.0
194599.8,199908.0,297172.8,395452.6,203000.1,229917.8,370616.1,231059.9,0.0
194369.7,199707.8,296988.0,395156.3,202866.8,229822.4,370568.6,230971.2,0.0
193721.8,199229.8,296360.4,394259.4,202252.0,229219.8,369911.1,230316.7,0.0
193549.8,199132.1,296098.8,393730.1,201999.0,228935.4,369548.5,229995.5,0.0
194091.3,199546.0,296509.7,394031.2,202452.5,229357.7,369980.3,230446.4,0.0
194602.7,199903.8,296975.9,394483.6,202986.7,229901.0,370612.6,231046.7,0.0
194377.0,199709.2,296801.4,394200.9,202862.2,229813.9,370574.8,230963.6,0.0
193721.5,199224.1,296170.4,393306.2,202242.8,229205.0,369910.9,230300.2,0.0
193542.3,199119.1,295910.2,392781.3,201988.5,228918.0,369546.1,229975.0,0.0
194099.1,199551.6,296340.4,393105.2,202460.4,229356.3,369992.8,230442.4,0.0
194611.2,199914.1,296808.6,393568.1,202999.5,229904.5,370629.7,231045.9,0.0
194382.5,199716.3,296632.3,393289.3,202877.2,229816.4,370591.3,230961.8,0.0
193727.9,199234.3,296001.8,392402.0,202261.8,229212.1,369932.0,230300.4,0.0
193542.3,199120.8,295732.4,391873.8,201999.5,228920.7,369561.1,229967.5,0.0
194090.8,199542.6,296153.6,392190.5,202459.3,229350.5,369999.9,230425.4,0.0
194613.0,199912.6,296631.4,392667.3,203004.3,229906.9,370643.9,231037.2,0.0
194391.6,199720.6,296461.4,392403.5,202884.5,229826.6,370615.0,230961.8,0.0
193735.0,199235.7,295831.0,391518.4,202266.5,229222.3,369954.8,230301.7,0.0
193545.6,199119.5,295556.3,390985.1,201993.0,228921.3,369570.5,229959.3,0.0
194090.3,199535.2,295971.3,391299.3,202443.9,229341.3,369998.3,230407.4,0.0
194608.2,199902.9,296445.9,391775.1,202985.2,229893.2,370636.6,231014.2,0.0
194384.7,199711.4,296270.4,391512.8,202863.7,229810.4,370600.5,230934.6,0.0
193735.2,199235.5,295645.1,390641.3,202254.8,229211.0,369946.3,230281.9,0.0
193549.0,199125.2,295379.7,390123.2,201993.6,228919.2,369572.0,229949.6,0.0
194091.0,199541.4,295804.6,390448.2,202454.3,229348.8,370002.9,230403.4,0.0
194604.7,199905.4,296277.8,390928.8,202998.0,229900.1,370635.3,231006.4,0.0
194377.8,199709.2,296102.3,390667.9,202877.1,229811.6,370593.1,230921.8,0.0
193718.6,199220.0,295470.1,389789.1,202259.4,229202.2,369929.7,230258.2,0.0
193540.3,199117.7,295209.4,389275.1,202004.0,228912.2,369559.2,229928.3,0.0
194086.4,199542.5,295632.9,389605.3,202463.0,229338.0,369991.8,230381.3,0.0
194601.4,199903.5,296109.9,390090.6,203005.6,229888.8,370629.7,230986.5,0.0
194394.4,199722.5,295953.1,389854.0,202898.1,229821.3,370612.8,230923.0,0.0
193736.1,199236.2,295321.0,388983.9,202274.9,229214.5,369953.2,230262.6,0.0
193537.0,199117.3,295042.9,388458.9,201996.4,228908.3,369566.7,229915.5,0.0
194069.1,199521.9,295449.3,388774.3,202438.1,229319.2,369982.0,230351.5,0.0
194597.5,199894.2,295932.3,389268.3,202986.2,229877.4,370621.2,230961.8,0.0
194387.9,199717.1,295772.7,389030.7,202875.9,229804.9,370593.2,230892.0,0.0
193745.2,199251.2,295166.0,388187.1,202278.2,229222.3,369950.5,230252.8,0.0
193558.3,199144.1,294901.2,387676.6,202012.5,228927.7,369571.0,229915.7,0.0
194091.9,199551.3,295315.6,387999.1,202460.8,229343.1,369988.3,230356.3,0.0
194605.6,199910.1,295792.4,388488.4,203000.9,229893.3,370619.8,230958.4,0.0
194396.5,199729.4,295630.3,388255.0,202887.8,229820.4,370593.2,230889.8,0.0
193752.5,199255.2,295013.9,387409.8,202280.3,229227.3,369948.0,230245.2,0.0
193560.5,199138.9,294745.7,386901.4,202012.3,228930.4,369568.2,229908.1,0.0
194092.0,199547.5,295155.3,387227.4,202456.5,229344.4,369984.3,230346.7,0.0
194600.8,199904.7,295620.7,387716.3,202988.5,229887.7,370612.1,230946.9,0.0
194392.1,199724.6,295463.3,387494.4,202883.5,229821.7,370595.7,230888.4,0.0
193739.7,199241.0,294842.9,386649.2,202276.2,229226.8,369948.7,230242.1,0.0
193549.0,199128.9,294574.6,386142.3,202007.6,228925.1,369570.9,229903.1,0.0
194086.3,199539.7,294991.3,386475.1,202455.9,229338.2,369993.7,230345.6,0.0
194608.4,199906.7,295473.9,386980.3,202999.5,229892.0,370635.2,230955.5,0.0
194408.5,199734.9,295330.6,386771.4,202903.3,229832.7,370629.0,230904.3,0.0
193744.6,199245.7,294704.7,385916.9,202282.2,229223.9,369972.0,230246.5,0.0
193533.6,199115.3,294424.3,385400.2,201998.8,228912.6,369580.3,229895.0,0.0
194069.0,199527.0,294835.3,385728.1,202439.1,229322.7,369990.8,230330.6,0.0
194599.9,199907.0,295327.7,386244.3,202991.8,229884.0,370633.9,230946.7,0.0
194400.9,199735.8,295185.0,386038.9,202896.7,229826.7,370623.9,230894.5,0.0
193746.8,199251.0,294564.8,385195.0,202283.7,229227.3,369970.8,230240.7,0.0
193538.3,199121.0,294278.9,384675.2,201996.6,228910.9,369569.4,229881.5,0.0
194066.3,199526.9,294690.5,385003.8,202434.4,229322.7,369979.4,230313.8,0.0
194587.2,199895.3,295174.3,385512.2,202976.1,229874.6,370614.4,230919.2,0.0
194388.6,199722.5,295030.3,385308.7,202878.5,229812.5,370600.7,230861.7,0.0
193737.1,199241.3,294413.4,384472.8,202268.9,229216.3,369949.4,230213.5,0.0
193537.9,199118.6,294139.2,383968.1,201991.8,228909.4,369557.3,229864.3,0.0
194080.3,199538.0,294560.7,384313.1,202442.7,229330.6,369977.2,230307.9,0.0
194604.5,199909.8,295047.9,384833.2,202992.2,229890.7,370617.3,230920.4,0.0
194391.5,199725.9,294892.7,384626.8,202883.8,229822.3,370596.8,230855.4,0.0
193745.9,199250.4,294279.3,383803.8,202278.1,229230.2,369955.2,230211.7,0.0
193530.4,199116.5,293995.9,383294.5,201990.6,228912.7,369559.7,229854.5,0.0
194061.3,199529.7,294410.4,383636.8,202433.2,229325.3,369975.9,230290.0,0.0
194601.7,199917.0,294911.9,384173.8,202992.9,229896.1,370633.3,230915.1,0.0
194394.7,199733.5,294759.7,383970.6,202885.7,229827.7,370617.3,230852.9,0.0
193741.2,199249.8,294141.6,383142.5,202274.5,229231.5,369970.6,230204.3,0.0
193542.1,199131.5,293867.0,382646.3,201996.6,228925.4,369586.7,229858.8,0.0
194079.7,199545.1,294284.5,382989.9,202441.3,229332.8,370002.3,230295.8,0.0
194600.0,199909.6,294766.6,383503.0,202977.3,229875.5,370631.0,230896.7,0.0
194393.4,199732.9,294617.7,383304.9,202872.7,229813.0,370617.6,230838.2,0.0
193738.1,199249.8,293999.6,382476.0,202263.8,229220.1,369967.7,230189.9,0.0
193538.0,199128.2,293729.0,381978.3,201987.0,228915.5,369577.6,229841.6,0.0
194060.0,199530.5,294131.8,382307.5,202414.7,229312.0,369972.2,230258.7,0.0
194588.1,199902.8,294612.9,382822.7,202952.8,229855.6,370593.6,230855.2,0.0
194398.6,199735.3,294479.7,382639.9,202863.8,229804.5,370589.2,230809.6,0.0
193754.7,199259.8,293875.0,381823.2,202264.8,229221.1,369947.8,230169.9,0.0
193546.6,199135.4,293599.5,381325.5,201982.7,228913.8,369550.4,229815.3,0.0
194063.8,199529.7,293996.4,381648.5,202406.6,229305.8,369934.6,230226.0,0.0
194599.1,199906.4,294492.2,382177.8,202959.0,229865.0,370566.2,230834.1,0.0
194438.4,199761.7,294389.3,382027.9,202897.9,229841.6,370583.1,230814.1,0.0
193773.0,199265.0,293766.6,381196.9,202276.7,229238.3,369920.5,230156.3,0.0
193540.5,199114.5,293466.3,380676.0,201967.5,228907.2,369498.1,229774.9,0.0
194070.3,199526.2,293879.4,381019.6,202404.0,229310.8,369896.3,230198.0,0.0
194607.8,199913.5,294380.3,381562.3,202961.5,229875.9,370541.4,230813.6,0.0
194422.5,199751.7,294254.9,381394.4,202877.4,229830.1,370542.4,230773.0,0.0
193776.0,199279.6,293650.3,380589.8,202274.7,229246.0,369903.1,230133.7,0.0
193532.4,199123.1,293342.6,380072.9,201962.7,228910.1,369483.1,229753.2,0.0
194041.4,199521.3,293734.6,380405.2,202380.8,229299.3,369872.1,230165.0,0.0
194607.8,199933.4,294259.8,380984.1,202964.9,229890.7,370550.8,230815.3,0.0
194408.1,199754.2,294117.1,380807.8,202870.2,229827.4,370545.8,230765.9,0.0
193757.3,199277.8,293504.9,380001.0,202263.5,229234.0,369905.8,230124.9,0.0
193541.6,199144.5,293221.7,379508.8,201974.5,228916.5,369511.0,229769.8,0.0
194053.2,199529.8,293614.4,379839.5,202391.1,229301.1,369897.1,230180.2,0.0
194607.1,199921.9,294126.3,380393.0,202952.4,229873.4,370549.6,230805.3,0.0
194427.6,199762.6,294014.4,380243.7,202878.1,229841.3,370567.9,230780.5,0.0
193765.0,199269.0,293398.5,379431.7,202263.5,229242.1,369920.8,230133.4,0.0
193520.0,199102.2,293087.8,378900.9,201943.5,228886.6,369481.8,229739.6,0.0
194041.7,199504.3,293492.5,379236.1,202365.5,229273.4,369866.7,230150.4,0.0
194591.1,199900.1,294009.3,379794.1,202927.8,229848.0,370520.8,230778.6,0.0
194413.3,199742.7,293896.5,379640.9,202854.0,229811.4,370532.1,230751.5,0.0
193768.1,199265.3,293296.6,378846.1,202259.2,229230.8,369898.5,230120.0,0.0
193531.1,199109.5,292995.7,378329.5,201948.7,228890.3,369471.8,229737.1,0.0
194046.9,199508.6,293395.5,378660.8,202363.9,229270.3,369845.0,230139.7,0.0
194594.4,199897.6,293907.8,379218.7,202924.6,229836.6,370491.3,230761.5,0.0
194426.7,199750.1,293805.5,379085.9,202862.9,229814.3,370518.3,230748.2,0.0
193768.4,199263.0,293192.8,378286.4,202256.7,229227.3,369877.6,230110.4,0.0
193546.8,199128.0,292904.7,377794.3,201960.0,228905.6,369473.6,229749.4,0.0
194072.9,199539.5,293314.0,378150.4,202392.5,229305.0,369872.7,230173.8,0.0
194626.0,199933.4,293827.8,378718.7,202958.6,229879.7,370529.6,230802.4,0.0
194450.0,199774.7,293712.4,378576.8,202883.6,229844.3,370550.8,230776.5,0.0
193787.5,199281.9,293096.5,377776.0,202272.8,229249.2,369911.3,230131.2,0.0
193547.3,199126.9,292791.0,377269.4,201961.8,228909.2,369494.8,229752.6,0.0
194061.5,199524.5,293185.2,377611.6,202381.2,229297.7,369885.2,230165.1,0.0
194598.2,199903.4,293682.0,378165.7,202934.2,229858.6,370530.2,230780.9,0.0
194414.7,199741.5,293554.3,378017.5,202851.9,229816.1,370538.9,230746.1,0.0
193755.1,199252.2,292934.5,377218.4,202243.5,229223.5,369896.7,230102.5,0.0
193528.2,199114.6,292637.2,376727.3,201947.7,228902.7,369496.3,229739.5,0.0
194051.9,199522.8,293038.6,377079.0,202374.4,229298.3,369892.6,230159.8,0.0
194601.1,199912.3,293551.2,377652.1,202938.3,229872.7,370552.3,230791.0,0.0
194427.5,199754.5,293439.8,377517.4,202865.7,229840.9,370575.8,230769.5,0.0
193782.7,199280.9,292840.8,376734.3,202266.1,229261.0,369949.3,230140.2,0.0
193538.2,199121.5,292533.6,376224.6,201948.3,228919.1,369526.2,229756.5,0.0
194060.7,199527.0,292940.3,376575.8,202371.7,229316.0,369921.0,230174.6,0.0
194619.2,199924.4,293463.3,377150.8,202940.5,229895.8,370578.3,230809.6,0.0
194440.0,199761.8,293348.7,377010.9,202863.5,229856.2,370589.7,230780.3,0.0
193779.3,199275.6,292733.6,376212.8,202248.2,229261.0,369943.9,230130.1,0.0
193544.7,199128.2,292439.3,375715.8,201940.2,228930.1,369529.7,229755.7,0.0
194052.8,199521.8,292835.0,376055.9,202350.0,229309.7,369908.1,230159.1,0.0
194603.1,199912.9,293347.0,376622.3,202906.1,229871.0,370552.8,230778.1,0.0
194439.3,199761.1,293244.7,376497.4,202841.1,229843.1,370577.0,230760.0,0.0
193787.2,199278.3,292641.5,375711.8,202240.9,229259.8,369944.3,230124.3,0.0
193546.4,199127.5,292342.6,375208.3,201929.8,228924.6,369521.2,229742.8,0.0
194050.0,199514.3,292729.7,375540.1,202331.5,229297.7,369887.5,230135.3,0.0
194604.6,199908.1,293240.8,376111.2,202892.2,229865.6,370534.5,230758.4,0.0
194446.0,199766.5,293141.2,375998.0,202837.4,229846.9,370569.2,230751.5,0.0
193791.1,199283.8,292533.9,375215.0,202232.7,229259.0,369936.4,230115.1,0.0
193541.2,199124.1,292223.8,374709.7,201913.2,228912.8,369510.7,229727.0,0.0
194046.5,199517.7,292614.0,375053.3,202326.7,229290.5,369889.3,230125.3,0.0
194604.1,199913.2,293130.7,375633.3,202894.0,229861.9,370544.9,230750.2,0.0
194442.6,199767.5,293029.9,375518.4,202836.6,229838.7,370578.3,230738.0,0.0
193787.0,199280.7,292426.6,374741.0,202237.3,229253.3,369951.4,230105.9,0.0
193547.7,199132.4,292125.9,374244.1,201924.7,228912.6,369534.1,229727.8,0.0
194058.8,199530.0,292522.9,374592.8,202339.6,229296.5,369917.2,230135.1,0.0
194616.1,199925.9,293042.8,375176.7,202908.9,229871.1,370574.9,230769.5,0.0
194439.5,199759.0,292925.9,375040.8,202829.9,229822.5,370583.3,230738.0,0.0
193776.5,199261.0,292310.0,374247.0,202217.3,229222.3,369938.3,230092.0,0.0
193523.0,199096.7,291999.6,373740.8,201900.9,228877.8,369509.9,229707.2,0.0
194033.2,199497.6,292395.5,374088.8,202315.5,229261.3,369887.9,230114.6,0.0
194591.3,199899.1,292917.8,374676.3,202883.6,229837.7,370544.7,230752.1,0.0
194425.1,199744.8,292811.8,374555.3,202816.0,229804.0,370564.7,230736.3,0.0
193772.9,199264.6,292207.4,373780.3,202215.5,229221.7,369933.3,230107.9,0.0
193519.6,199105.7,291898.3,373283.0,201897.1,228881.6,369508.8,229731.8,0.0
194012.7,199485.6,292282.5,373622.1,202300.5,229252.7,369875.3,230131.8,0.0
194570.4,199881.9,292803.6,374209.9,202868.8,229827.4,370529.6,230766.8,0.0
194432.2,199758.3,292720.5,374120.7,202824.7,229820.6,370578.2,230777.6,0.0
193785.6,199280.0,292120.6,373358.6,202228.8,229245.4,369957.0,230159.0,0.0
193531.5,199116.1,291809.9,372860.6,201907.4,228899.7,369530.3,229778.8,0.0
194022.9,199490.8,292189.4,373196.7,202305.6,229260.7,369891.1,230172.4,0.0
194573.6,199880.3,292701.3,373779.1,202866.6,229824.1,370538.3,230801.2,0.0
194424.4,199742.9,292615.3,373691.4,202819.5,229816.9,370586.5,230811.2,0.0
193769.8,199257.3,292010.4,372920.8,202213.1,229228.8,369956.6,230181.4,0.0
193523.6,199103.8,291707.6,372429.2,201899.1,228887.1,369539.4,229802.9,0.0
194030.3,199497.4,292101.6,372782.7,202311.9,229264.4,369918.6,230206.9,0.0
194579.2,199883.8,292610.8,373370.1,202872.2,229828.2,370571.8,230833.1,0.0
194426.8,199741.6,292519.9,373277.8,202820.5,229809.5,370616.0,230832.6,0.0
193775.2,199260.2,291923.6,372516.5,202225.8,229229.0,369996.2,230210.3,0.0
193511.0,199083.3,291608.3,372008.8,201898.0,228872.6,369561.4,229814.6,0.0
194012.2,199473.8,291994.2,372348.2,202299.1,229237.2,369922.0,230200.7,0.0
194577.4,199878.4,292521.8,372943.9,202873.8,229815.1,370579.5,230833.5,0.0
194434.8,199746.3,292441.0,372857.2,202830.7,229808.8,370629.4,230839.4,0.0
193780.3,199259.1,291840.3,372089.5,202229.5,229226.1,370001.9,230208.5,0.0
193526.8,199097.0,291534.2,371590.5,201907.0,228878.8,369573.3,229817.9,0.0
194016.6,199472.4,291915.7,371922.9,202299.9,229236.9,369926.4,230199.2,0.0
194576.2,199866.1,292438.1,372512.6,202865.1,229806.2,370576.3,230825.0,0.0
194434.1,199733.7,292361.3,372428.3,202823.5,229798.3,370624.0,230828.7,0.0
193791.1,199259.5,291775.3,371674.2,202236.9,229226.7,370008.1,230208.1,0.0
193521.9,199087.7,291455.3,371163.1,201903.3,228868.4,369565.6,229804.0,0.0
194008.1,199464.8,291831.9,371495.8,202295.5,229227.5,369920.8,230183.5,0.0
194572.2,199864.8,292357.7,372094.2,202868.7,229805.5,370580.6,230816.4,0.0
194433.5,199737.3,292282.9,372018.7,202834.8,229805.4,370637.2,230826.8,0.0
193772.5,199245.1,291673.9,371245.9,202228.0,229210.0,370000.6,230185.5,0.0
193500.5,199065.9,291346.2,370726.3,201887.8,228837.7,369548.7,229774.3,0.0
193999.0,199455.3,291733.6,371066.1,202290.3,229204.6,369908.9,230162.3,0.0
194572.8,199865.4,292269.4,371672.6,202871.1,229787.4,370571.9,230800.9,0.0
194431.0,199734.1,292192.1,371594.9,202832.8,229781.9,370623.1,230806.6,0.0
193781.5,199257.9,291599.8,370845.1,202240.9,229206.1,370005.6,230182.9,0.0
193516.0,199088.9,291282.5,370344.2,201908.5,228848.3,369567.9,229783.0,0.0
193997.1,199460.4,291654.2,370674.9,202295.2,229199.8,369912.0,230152.0,0.0
194561.6,199862.7,292181.4,371275.5,202868.7,229772.8,370565.9,230777.9,0.0
194433.6,199744.0,292116.7,371217.4,202843.3,229780.8,370635.7,230798.8,0.0
193782.3,199260.8,291520.5,370466.9,202251.3,229205.8,370019.5,230176.0,0.0
193511.0,199083.7,291199.7,369963.2,201918.2,228846.4,369580.0,229772.6,0.0
194008.1,199472.3,291583.5,370307.0,202316.2,229210.3,369937.8,230154.0,0.0
194578.1,199879.7,292111.7,370915.9,202891.4,229789.3,370597.9,230784.9,0.0
194425.7,199737.5,292023.8,370838.4,202847.1,229778.3,370645.8,230785.0,0.0
193778.3,199257.9,291430.8,370089.6,202259.3,229205.4,370031.1,230161.4,0.0
193520.3,199098.5,291121.1,369595.0,201935.2,228856.9,369598.8,229764.9,0.0
193997.7,199470.5,291487.0,369917.7,202316.7,229205.6,369938.0,230129.6,0.0
194555.2,199862.9,292002.8,370509.8,202881.3,229772.6,370585.5,230751.3,0.0
194429.9,199744.6,291938.2,370452.3,202856.8,229782.5,370653.4,230773.8,0.0
193781.4,199262.8,291344.2,369703.4,202265.0,229204.8,370035.5,230149.5,0.0
193510.0,199085.6,291021.6,369197.6,201926.9,228843.3,369594.1,229744.5,0.0
193997.1,199463.0,291400.8,369535.4,202320.0,229201.1,369947.4,230122.6,0.0
194567.4,199867.4,291931.2,370142.0,202896.7,229777.8,370604.2,230755.7,0.0
194444.1,199751.8,291873.0,370094.3,202876.5,229792.9,370678.0,230785.4,0.0
193790.3,199264.3,291275.3,369345.3,202280.3,229212.0,370057.6,230159.1,0.0
193522.1,199093.1,290958.3,368846.3,201947.8,228855.7,369620.2,229760.2,0.0
194007.5,199469.0,291334.3,369182.5,202338.5,229212.3,369971.1,230137.4,0.0
194580.3,199879.2,291868.5,369795.9,202915.8,229792.8,370632.7,230774.9,0.0
194453.6,199756.6,291801.9,369740.8,202886.0,229800.0,370698.8,230796.2,0.0
193794.2,199261.9,291198.1,368988.1,202284.9,229216.7,370074.4,230167.7,0.0
193529.2,199091.8,290880.2,368488.1,201954.1,228860.3,369636.7,229767.6,0.0
194010.0,199468.0,291252.4,368821.5,202340.2,229214.3,369985.2,230139.7,0.0
194583.2,199879.3,291789.6,369438.2,202922.5,229800.6,370653.3,230781.1,0.0
194449.2,199747.7,291718.3,369376.5,202887.5,229802.6,370714.3,230797.3,0.0
193799.4,199262.8,291122.2,368626.3,202291.4,229222.6,370093.6,230170.9,0.0
193528.5,199090.5,290802.3,368126.7,201954.6,228862.1,369655.7,229769.3,0.0
194001.7,199458.3,291167.0,368453.2,202328.9,229204.6,369992.4,230133.0,0.0
194575.2,199867.0,291695.8,369064.1,202900.1,229781.3,370646.8,230763.8,0.0
194462.9,199758.8,291645.0,369031.2,202888.8,229809.7,370732.0,230803.0,0.0
193821.6,199285.0,291062.6,368305.7,202310.8,229249.8,370131.0,230194.5,0.0
193534.0,199097.7,290727.6,367795.8,201963.6,228876.2,369676.3,229777.0,0.0
194000.3,199457.0,291082.4,368117.1,202335.8,229211.6,370003.3,230130.8,0.0
194575.4,199865.2,291617.2,368736.8,202912.8,229792.6,370665.8,230766.8,0.0
194464.3,199754.5,291569.8,368703.1,202897.3,229812.5,370748.8,230802.4,0.0
193824.3,199279.9,290987.4,367976.7,202315.3,229249.4,370147.8,230191.8,0.0
193544.1,199099.2,290660.5,367472.1,201976.0,228885.0,369701.1,229781.6,0.0
194018.0,199469.5,291024.4,367794.3,202350.9,229223.8,370029.6,230139.5,0.0
194585.6,199875.5,291552.9,368404.9,202921.8,229796.7,370685.2,230770.2,0.0
194472.0,199763.5,291500.7,368365.1,202903.5,229815.2,370764.0,230803.1,0.0
193829.3,199287.4,290917.2,367635.3,202319.7,229250.6,370161.4,230191.1,0.0
193548.6,199103.5,290591.3,367131.2,201977.2,228884.5,369717.0,229781.2,0.0
194021.5,199470.0,290958.3,367462.5,202357.4,229230.1,370057.8,230149.1,0.0
194591.1,199875.3,291488.1,368075.2,202930.1,229805.1,370717.2,230782.7,0.0
194488.7,199778.2,291445.8,368052.1,202923.7,229836.8,370810.8,230827.9,0.0
193839.2,199292.9,290856.7,367317.2,202333.6,229264.9,370201.3,230210.3,0.0
193548.4,199099.3,290517.8,366795.8,201979.0,228881.8,369738.8,229785.0,0.0
194009.9,199458.4,290870.6,367108.0,202345.1,229208.9,370057.6,230131.7,0.0
194589.9,199874.7,291410.8,367731.3,202931.0,229795.1,370724.2,230773.1,0.0
194474.3,199760.3,291363.3,367701.4,202920.6,229820.3,370810.8,230811.9,0.0
193842.9,199297.4,290785.1,366978.9,202339.3,229257.9,370209.0,230201.2,0.0
193552.2,199107.7,290446.9,366466.2,201985.1,228881.2,369750.1,229777.7,0.0
194029.5,199483.3,290817.6,366804.5,202368.6,229236.0,370094.9,230145.4,0.0
194600.2,199887.5,291348.2,367417.9,202942.5,229812.4,370749.4,230774.6,0.0
194482.4,199767.7,291292.8,367382.1,202923.1,229829.0,370825.2,230803.3,0.0
193831.9,199283.3,290703.9,366652.0,202334.6,229260.0,370217.4,230187.1,0.0
193549.0,199102.0,290371.8,366144.9,201984.4,228888.2,369761.9,229769.2,0.0
194023.3,199474.8,290739.3,366474.3,202358.9,229229.2,370091.5,230128.0,0.0
194591.5,199880.6,291267.2,367087.5,202927.5,229800.2,370741.3,230755.6,0.0
194481.5,199773.7,291221.6,367065.6,202920.0,229829.3,370831.4,230797.5,0.0
193822.5,199282.5,290626.3,366328.6,202326.0,229251.7,370216.4,230170.9,0.0
193537.2,199100.7,290294.2,365821.6,201976.9,228881.7,369763.5,229751.8,0.0
194011.5,199471.6,290658.3,366150.5,202352.5,229224.2,370093.3,230108.4,0.0
194590.7,199890.5,291198.6,366778.7,202939.4,229813.2,370757.6,230746.0,0.0
194478.0,199777.9,291146.2,366750.5,202926.4,229837.4,370839.9,230779.3,0.0
193829.2,199294.8,290552.4,366022.1,202335.3,229269.8,370231.5,230161.2,0.0
193529.4,199100.5,290208.2,365507.3,201975.4,228889.7,369766.4,229733.8,0.0
193994.7,199465.0,290565.1,365830.6,202341.8,229225.3,370090.5,230081.5,0.0
194561.8,199869.9,291091.0,366444.9,202912.1,229800.4,370742.2,230706.6,0.0
194464.6,199773.0,291052.3,366430.3,202913.3,229837.3,370836.3,230753.5,0.0
193834.0,199311.4,290483.1,365725.8,202345.1,229292.4,370252.1,230155.8,0.0
193535.6,199116.7,290141.1,365214.8,201987.0,228917.5,369792.9,229729.9,0.0
193973.3,199451.0,290470.2,365509.3,202328.6,229225.9,370088.0,230051.8,0.0
194552.5,199863.8,291007.6,366134.3,202909.9,229807.4,370746.0,230688.3,0.0
194457.1,199768.5,290973.9,366122.8,202912.4,229845.5,370841.9,230738.7,0.0
193826.8,199304.1,290398.3,365409.2,202336.2,229289.4,370243.3,230133.8,0.0
193514.6,199093.4,290036.4,364874.0,201957.8,228887.5,369756.9,229684.5,0.0
193991.3,199463.7,290404.3,365209.6,202339.9,229234.9,370092.6,230048.9,0.0
194579.7,199883.3,290953.8,365849.7,202933.5,229832.6,370765.0,230700.5,0.0
194488.4,199790.9,290922.4,365843.8,202942.6,229879.5,370867.4,230757.1,0.0
193848.0,199315.3,290340.8,365123.5,202361.8,229319.0,370263.4,230145.3,0.0
193547.6,199119.5,289994.6,364599.3,201993.7,228927.1,369787.8,229706.6,0.0
194044.5,199515.6,290380.3,364949.9,202384.1,229285.6,370134.9,230080.8,0.0
194641.1,199950.0,290936.9,365597.0,202978.4,229884.9,370812.6,230734.7,0.0
194508.3,199817.5,290871.9,365556.4,202946.1,229886.9,370877.0,230753.4,0.0
193836.8,199322.5,290274.6,364817.9,202333.7,229301.7,370255.2,230122.3,0.0
193494.4,199103.7,289904.3,364260.2,201921.9,228874.4,369744.6,229650.6,0.0
193973.0,199490.4,290286.0,364596.8,202299.1,229217.2,370079.5,230008.9,0.0
194540.9,199893.1,290823.8,365218.5,202870.6,229786.0,370733.2,230636.2,0.0
194457.6,199804.1,290799.2,365225.4,202886.4,229829.6,370843.2,230701.0,0.0
193833.0,199335.0,290234.5,364530.5,202322.4,229283.1,370265.0,230115.0,0.0
193533.8,199115.0,289902.4,364010.1,201956.5,228885.2,369791.3,229684.8,0.0
193978.5,199455.4,290251.4,364313.2,202299.8,229189.3,370086.3,230014.8,0.0
194561.3,199886.3,290800.9,364953.8,202883.8,229780.5,370753.8,230661.9,0.0
194465.1,199791.4,290773.7,364954.3,202891.6,229824.6,370859.1,230723.5,0.0
193830.4,199321.8,290200.7,364251.7,202324.1,229277.2,370274.5,230131.4,0.0
193516.1,199106.8,289839.4,363720.8,201950.3,228878.7,369794.7,229689.8,0.0
193987.9,199479.6,290200.0,364046.4,202317.9,229211.3,370118.2,230040.5,0.0
194559.4,199885.5,290728.2,364664.3,202883.5,229778.3,370764.8,230664.1,0.0
194467.4,199785.4,290698.5,364663.7,202885.3,229819.2,370868.0,230717.3,0.0
193839.2,199322.4,290135.0,363972.3,202318.1,229275.2,370291.4,230126.7,0.0
193521.9,199106.1,289775.4,363447.8,201943.2,228875.9,369815.3,229683.2,0.0
193977.4,199463.0,290117.3,363755.8,202294.4,229193.8,370119.3,230015.5,0.0
194569.4,199894.0,290669.2,364399.9,202886.5,229792.8,370793.9,230668.1,0.0
194474.0,199792.2,290638.3,364399.8,202891.4,229832.8,370896.4,230725.1,0.0
193838.3,199316.0,290067.8,363699.1,202320.4,229282.3,370310.6,230127.8,0.0
193517.2,199100.5,289699.0,363162.2,201935.2,228876.1,369822.1,229676.3,0.0
193957.5,199443.6,290035.3,363465.7,202279.2,229186.0,370123.3,230003.4,0.0
194567.8,199888.9,290606.1,364128.2,202888.5,229798.6,370816.6,230671.8,0.0
194487.3,199799.7,290592.3,364147.4,202910.8,229854.4,370940.3,230747.2,0.0
193837.6,199309.1,290008.2,363432.6,202325.3,229289.0,370341.4,230137.5,0.0
193524.5,199098.1,289655.9,362908.6,201952.8,228894.0,369864.3,229696.7,0.0
193982.8,199459.4,290005.9,363221.9,202307.2,229214.4,370175.8,230032.4,0.0
194569.4,199875.6,290553.6,363861.0,202891.8,229800.3,370845.2,230676.2,0.0
194498.4,199793.8,290551.5,363892.5,202920.2,229864.8,370980.0,230762.1,0.0
193860.4,199319.8,289980.0,363190.5,202344.1,229310.5,370395.6,230165.0,0.0
193529.5,199091.4,289605.8,362644.2,201950.1,228894.0,369900.8,229705.2,0.0
193983.0,199443.9,289951.9,362953.4,202298.0,229206.6,370204.8,230039.8,0.0
194578.2,199870.7,290509.2,363602.9,202893.0,229802.6,370883.8,230697.8,0.0
194493.6,199778.8,290487.2,363610.5,202904.7,229844.7,370992.7,230764.3,0.0
193846.9,199292.9,289901.7,362892.1,202319.0,229275.4,370387.9,230157.4,0.0
193557.6,199108.3,289569.4,362384.5,201966.0,228898.0,369930.9,229742.1,0.0
194008.1,199462.9,289917.0,362695.0,202315.9,229215.7,370239.5,230084.7,0.0
194592.4,199880.8,290460.6,363330.1,202893.9,229800.6,370906.4,230734.9,0.0
194516.5,199798.5,290448.8,363352.3,202914.2,229860.3,371035.2,230824.3,0.0
193872.0,199316.6,289871.1,362646.2,202336.4,229302.8,370446.8,230236.7,0.0
193556.6,199106.8,289511.4,362120.4,201961.3,228905.4,369970.2,229806.6,0.0
193991.6,199444.0,289837.5,362415.0,202298.0,229207.2,370260.6,230135.0,0.0
194586.2,199870.9,290393.5,363066.7,202893.2,229806.3,370942.3,230801.3,0.0
194505.3,199780.0,290377.6,363091.4,202914.7,229862.0,371068.8,230887.1,0.0
193872.6,199306.8,289807.6,362396.2,202345.6,229310.8,370490.8,230305.4,0.0
193560.1,199101.8,289459.4,361880.6,201977.3,228920.0,370025.3,229880.6,0.0
193986.5,199430.9,289782.7,362174.4,202307.9,229213.8,370311.9,230200.5,0.0
194581.1,199856.3,290334.3,362823.8,202898.5,229805.3,370986.7,230856.3,0.0
194528.0,199794.0,290346.1,362875.1,202941.2,229886.3,371138.5,230964.3,0.0
193889.8,199320.0,289780.0,362182.3,202371.5,229334.4,370560.8,230377.8,0.0
193548.1,199083.1,289401.7,361629.7,201974.7,228907.6,370058.7,229914.4,0.0
193985.5,199423.3,289735.2,361922.7,202311.0,229205.0,370347.7,230235.8,0.0
194594.8,199869.0,290305.9,362587.4,202918.0,229812.3,371039.3,230906.2,0.0
194544.0,199812.5,290319.1,362641.6,202965.7,229896.7,371193.6,231014.0,0.0
193911.1,199342.5,289754.7,361953.3,202397.8,229350.2,370618.8,230430.2,0.0
193558.5,199096.8,289364.1,361393.5,201986.3,228913.2,370104.9,229956.7,0.0
193976.4,199420.8,289673.1,361668.2,202305.0,229190.7,370369.8,230255.7,0.0
194585.2,199861.8,290237.6,362330.8,202913.3,229797.2,371056.3,230920.7,0.0
194527.1,199790.7,290242.8,362377.9,202956.4,229872.9,371201.7,231019.2,0.0
193889.9,199313.3,289669.2,361681.1,202382.2,229316.5,370616.0,230422.6,0.0
193567.7,199100.0,289308.9,361159.0,202004.7,228913.8,370135.9,229979.8,0.0
193999.6,199441.0,289636.6,361461.3,202341.3,229212.5,370428.9,230300.0,0.0
194595.0,199871.5,290194.6,362119.1,202936.5,229810.0,371109.0,230957.5,0.0
194531.0,199793.4,290193.7,362160.2,202966.5,229876.2,371244.5,231047.0,0.0
193882.9,199298.0,289611.0,361453.9,202380.7,229309.2,370648.2,230440.5,0.0
193565.4,199088.0,289251.9,360926.6,202000.2,228907.5,370168.5,229995.1,0.0
194005.3,199438.5,289584.7,361231.1,202343.6,229215.9,370465.6,230319.8,0.0
194605.1,199873.3,290141.9,361891.5,202941.9,229816.8,371149.2,230979.5,0.0
194531.7,199787.8,290133.2,361926.5,202967.1,229875.7,371279.3,231061.4,0.0
193876.5,199293.2,289544.2,361212.9,202377.8,229301.3,370674.9,230446.6,0.0
193557.2,199084.2,289190.4,360695.3,202004.3,228904.7,370203.6,230008.3,0.0
193995.8,199425.1,289520.6,360992.2,202337.7,229200.7,370492.6,230325.3,0.0
194616.9,199879.4,290096.9,361663.8,202951.3,229811.6,371188.2,230998.6,0.0
194553.9,199805.4,290098.3,361709.3,202988.5,229882.6,371329.4,231092.5,0.0
193904.2,199319.2,289518.4,361015.0,202407.9,229326.8,370744.8,230495.2,0.0
193538.5,199064.0,289118.1,360451.9,201987.9,228883.7,370224.6,230010.0,0.0
193966.9,199401.9,289438.8,360740.9,202313.3,229171.4,370500.5,230313.5,0.0
194584.8,199854.7,290011.3,361412.1,202924.4,229782.2,371191.9,230980.5,0.0
194543.3,199798.9,290035.0,361481.4,202982.5,229877.4,371357.7,231094.5,0.0
193898.1,199313.7,289458.2,360789.3,202409.0,229324.5,370775.9,230498.1,0.0
193539.1,199069.1,289062.2,360232.7,201996.2,228890.2,370264.2,230016.8,0.0
193971.5,199412.3,289389.0,360529.1,202325.0,229185.7,370549.0,230328.5,0.0
194604.5,199878.2,289978.0,361217.7,202948.1,229813.0,371255.9,231009.2,0.0
194538.3,199798.4,289974.7,361258.8,202979.0,229880.5,371391.6,231091.3,0.0
193906.1,199323.8,289409.9,360570.4,202412.0,229334.0,370812.9,230497.4,0.0
193568.2,199096.0,289036.8,360028.0,202019.4,228918.4,370317.6,230035.3,0.0
193988.0,199426.5,289352.7,360306.6,202341.7,229200.7,370586.8,230332.8,0.0
194576.7,199850.2,289895.3,360949.1,202926.8,229784.6,371251.0,230970.4,0.0
194530.9,199787.2,289906.1,361006.9,202975.8,229864.5,371402.3,231069.1,0.0
193903.6,199320.4,289346.4,360333.8,202416.4,229325.0,370834.9,230485.9,0.0
193575.9,199106.7,288988.5,359810.9,202036.4,228922.8,370354.0,230038.3,0.0
194007.0,199450.3,289320.4,360111.3,202372.0,229224.6,370645.1,230355.0,0.0
194599.1,199872.6,289870.0,360757.3,202957.8,229809.8,371312.1,230998.7,0.0
194561.3,199815.4,289892.2,360823.3,203013.2,229896.1,371468.8,231106.8,0.0
193913.1,199329.3,289312.8,360130.7,202435.9,229337.0,370884.5,230506.4,0.0
193560.3,199090.8,288926.5,359584.5,202032.2,228912.6,370383.1,230034.5,0.0
193965.2,199400.0,289223.6,359844.5,202334.6,229173.1,370630.9,230310.9,0.0
194578.1,199843.7,289789.8,360503.7,202939.6,229771.3,371307.5,230965.2,0.0
194541.5,199796.7,289821.1,360581.6,203004.9,229871.0,371475.6,231086.5,0.0
193915.6,199332.2,289264.3,359912.6,202446.8,229334.5,370912.7,230510.9,0.0
193570.2,199099.0,288880.5,359370.3,202044.8,228907.9,370409.7,230038.4,0.0
193996.4,199437.4,289203.0,359666.5,202375.0,229203.1,370694.0,230348.6,0.0
194590.7,199869.4,289752.0,360320.8,202966.0,229795.7,371369.6,231001.6,0.0
194559.8,199823.6,289783.1,360406.5,203034.1,229898.5,371546.6,231129.0,0.0
193908.2,199322.3,289194.0,359700.0,202443.4,229322.7,370943.5,230516.3,0.0
193554.8,199083.5,288803.4,359145.5,202033.0,228893.0,370433.4,230041.6,0.0
193996.1,199437.1,289141.7,359452.3,202372.5,229203.7,370731.7,230366.3,0.0
194577.0,199850.1,289682.1,360085.4,202946.9,229776.8,371383.3,230995.7,0.0
194532.6,199789.6,289698.4,360140.9,202996.6,229857.0,371530.0,231097.1,0.0
193908.1,199326.3,289144.3,359473.4,202443.8,229324.7,370969.3,230524.5,0.0
193560.0,199089.5,288761.7,358928.5,202039.8,228897.8,370465.4,230057.5,0.0
193994.5,199435.9,289091.8,359229.8,202373.7,229198.5,370752.5,230376.4,0.0
194596.4,199871.8,289646.8,359887.8,202967.8,229794.5,371426.8,231030.4,0.0
194557.0,199816.6,289668.9,359960.8,203025.9,229890.1,371590.5,231144.9,0.0
193914.2,199330.5,289095.2,359276.1,202451.4,229338.8,371010.0,230551.6,0.0
193548.5,199075.5,288698.5,358715.4,202031.3,228896.0,370487.4,230065.1,0.0
193966.4,199406.7,289012.8,358997.3,202347.0,229176.1,370752.0,230360.9,0.0
194583.8,199860.9,289588.0,359676.2,202959.5,229791.0,371443.5,231032.2,0.0
194549.9,199812.2,289616.2,359757.4,203021.7,229888.5,371611.1,231150.6,0.0
193918.0,199333.7,289052.4,359082.9,202455.2,229345.0,371039.3,230562.8,0.0
193561.3,199089.1,288664.2,358534.0,202047.2,228917.7,370531.2,230086.0,0.0
193990.8,199433.9,288988.9,358827.3,202374.6,229211.1,370810.7,230390.4,0.0
194594.8,199869.1,289548.6,359490.5,202974.5,229810.8,371487.5,231042.7,0.0
194538.3,199797.9,289552.8,359545.1,203015.9,229885.7,371630.7,231136.8,0.0
193904.1,199324.2,288989.3,358874.8,202454.1,229347.5,371065.0,230553.9,0.0
193551.5,199085.5,288599.5,358324.1,202044.2,228915.8,370552.7,230073.8,0.0
193954.6,199403.3,288897.6,358588.2,202344.8,229178.8,370798.5,230349.2,0.0
194576.3,199855.5,289476.4,359269.8,202963.1,229795.0,371492.3,231018.5,0.0
194523.6,199784.9,289486.1,359331.4,203008.6,229873.3,371638.1,231115.5,0.0
193891.6,199312.9,288920.4,358654.5,202441.0,229329.5,371064.5,230525.1,0.0
193564.2,199096.2,288559.5,358133.9,202059.2,228927.8,370585.3,230075.3,0.0
193971.6,199415.2,288865.8,358406.8,202369.1,229198.6,370841.7,230357.8,0.0
194564.1,199844.1,289416.3,359055.8,202959.3,229783.0,371503.3,230997.8,0.0
194528.4,199795.4,289446.4,359137.8,203023.9,229885.2,371673.2,231119.9,0.0
193910.1,199333.2,288899.3,358478.5,202475.4,229360.0,371116.7,230551.0,0.0
193559.3,199095.6,288509.2,357923.3,202064.2,228924.7,370597.6,230067.0,0.0
193949.4,199400.7,288796.4,358173.1,202352.6,229175.2,370827.8,230329.5,0.0
194568.7,199851.8,289374.0,358850.7,202964.9,229786.4,371513.2,230995.1,0.0
194536.7,199801.2,289405.5,358937.8,203034.0,229890.5,371683.0,231117.9,0.0
193903.2,199323.6,288843.0,358263.9,202467.5,229348.3,371111.3,230532.7,0.0
193542.5,199078.3,288446.8,357706.1,202052.1,228912.9,370592.8,230049.6,0.0
193954.7,199409.1,288753.6,357976.6,202360.0,229185.7,370844.6,230331.8,0.0
194570.7,199860.0,289327.2,358650.7,202966.6,229792.4,371527.0,230990.4,0.0
194543.5,199814.6,289364.2,358741.1,203036.9,229899.4,371700.1,231112.3,0.0
193912.8,199342.1,288805.4,358070.8,202476.3,229362.8,371133.2,230528.6,0.0
193553.6,199099.1,288415.2,357516.1,202064.1,228929.5,370617.1,230046.5,0.0
193943.0,199404.2,288699.1,357768.7,202351.6,229182.8,370848.8,230310.5,0.0
194551.0,199840.9,289259.0,358428.5,202945.5,229776.7,371514.5,230957.8,0.0
194530.5,199801.5,289299.9,358522.3,203018.1,229884.9,371690.0,231084.6,0.0
193905.3,199332.8,288743.3,357856.2,202458.4,229350.4,371124.8,230505.6,0.0
193557.0,199099.8,288360.7,357316.1,202055.8,228931.0,370620.0,230034.2,0.0
193948.0,199410.6,288651.2,357574.7,202347.6,229190.4,370858.2,230301.3,0.0
194562.3,199855.7,289220.5,358244.8,202953.3,229794.5,371536.8,230959.2,0.0
194547.0,199821.4,289267.7,358349.3,203034.8,229910.8,371723.2,231096.9,0.0
193920.5,199357.4,288713.6,357693.1,202477.1,229380.5,371162.9,230522.3,0.0
193549.5,199104.7,288312.0,357132.3,202051.6,228937.4,370634.3,230029.7,0.0
193935.6,199406.5,288593.5,357379.3,202336.1,229183.4,370855.8,230285.5,0.0
194544.0,199843.5,289157.5,358039.4,202936.8,229779.3,371518.1,230934.8,0.0
194539.7,199818.6,289213.4,358150.2,203025.9,229907.9,371707.4,231081.5,0.0
193910.7,199346.8,288655.6,357488.7,202465.8,229373.3,371141.1,230504.4,0.0
193538.8,199091.0,288251.5,356923.0,202039.9,228924.6,370608.1,230008.0,0.0
193942.3,199412.4,288552.7,357189.9,202340.8,229189.3,370852.0,230283.0,0.0
194554.6,199856.5,289120.4,357858.7,202942.3,229791.4,371525.3,230936.8,0.0
194528.4,199810.1,289156.8,357949.9,203010.5,229896.1,371693.7,231058.9,0.0
193902.6,199341.8,288603.2,357290.2,202453.9,229364.4,371129.5,230482.5,0.0
193545.8,199099.8,288215.8,356739.2,202041.6,228932.3,370612.6,230002.7,0.0
193947.5,199417.2,288514.9,357004.0,202341.4,229196.3,370854.2,230276.4,0.0
194560.1,199858.5,289082.8,357674.1,202946.2,229798.6,371525.6,230931.4,0.0
194541.8,199819.2,289126.3,357774.5,203023.0,229909.1,371699.6,231061.9,0.0
193916.9,199351.2,288571.5,357112.9,202466.0,229375.3,371134.4,230484.3,0.0
193553.9,199105.9,288177.8,356558.9,202048.9,228938.0,370613.2,229998.4,0.0
193943.0,199414.8,288464.0,356814.3,202334.4,229190.0,370843.3,230260.6,0.0
194555.0,199855.8,289027.6,357483.6,202933.5,229787.4,371515.5,230913.2,0.0
194545.4,199821.8,289078.6,357597.5,203022.1,229908.4,371707.4,231057.1,0.0
193916.2,199348.6,288521.8,356939.5,202466.3,229375.3,371149.5,230485.9,0.0
193543.4,199093.1,288117.0,356374.7,202040.6,228927.8,370621.5,229992.8,0.0
193946.2,199417.6,288414.9,356646.2,202344.9,229195.9,370869.0,230270.5,0.0
194553.3,199855.5,288973.1,357312.4,202941.3,229790.9,371535.5,230919.5,0.0
194543.5,199819.2,289022.5,357422.1,203022.5,229910.6,371723.5,231059.9,0.0
193925.6,199360.7,288476.5,356773.0,202469.6,229386.0,371169.7,230492.3,0.0
193555.2,199109.1,288078.1,356214.7,202045.4,228942.4,370642.7,230000.1,0.0
193941.5,199412.7,288363.3,356469.5,202331.8,229193.3,370871.6,230261.0,0.0
194554.0,199854.0,288931.3,357142.5,202935.6,229792.7,371544.0,230916.4,0.0
194546.5,199822.8,288985.8,357262.8,203025.5,229915.8,371737.4,231062.9,0.0
193923.8,199356.3,288435.4,356616.5,202475.2,229388.9,371185.9,230496.8,0.0
193553.0,199102.6,288038.2,356060.7,202052.5,228945.9,370663.8,230007.9,0.0
193944.0,199409.7,288327.0,356311.8,202337.3,229193.8,370890.8,230264.2,0.0
194564.4,199860.5,288905.0,356989.8,202946.2,229800.8,371568.9,230924.8,0.0
194565.3,199836.7,288968.8,357114.7,203041.0,229932.7,371769.3,231078.6,0.0
193941.8,199364.0,288414.8,356458.0,202482.5,229398.0,371207.8,230505.4,0.0
193567.5,199107.1,288010.5,355895.9,202054.5,228951.4,370676.3,230013.1,0.0
193946.4,199407.3,288291.4,356145.9,202335.6,229198.6,370902.0,230275.6,0.0
194554.2,199841.3,288854.2,356812.2,202930.7,229794.3,371571.0,230929.8,0.0
194545.9,199807.5,288906.7,356926.2,203016.4,229915.8,371761.7,231076.4,0.0
193928.7,199349.7,288363.2,356280.8,202471.8,229394.4,371215.5,230518.1,0.0
193557.4,199100.9,287963.1,355721.6,202051.2,228953.4,370695.5,230035.8,0.0
193941.9,199403.8,288244.1,355973.4,202337.0,229200.6,370927.8,230303.2,0.0
194554.1,199846.3,288807.3,356644.5,202936.6,229796.4,371601.2,230962.6,0.0
194550.3,199822.1,288865.2,356769.1,203027.4,229923.8,371801.1,231120.0,0.0
193923.8,199353.5,288314.8,356120.4,202475.0,229395.3,371248.9,230559.4,0.0
193547.1,199097.9,287909.0,355559.8,202048.3,228949.3,370722.8,230071.3,0.0
193937.1,199411.4,288198.2,355821.6,202338.5,229206.3,370959.8,230344.3,0.0
194557.2,199862.5,288769.9,356499.9,202946.3,229813.6,371638.5,231008.9,0.0
194568.7,199845.7,288841.4,356631.3,203050.2,229955.6,371849.3,231175.9,0.0
193942.6,199370.2,288292.2,355978.5,202493.8,229427.0,371295.7,230608.9,0.0
193555.5,199103.8,287880.2,355407.7,202057.8,228972.7,370760.8,230108.9,0.0
193935.7,199409.1,288162.4,355660.3,202343.4,229219.2,370989.9,230370.9,0.0
194553.3,199854.2,288727.3,356335.2,202949.5,229815.5,371664.4,231030.1,0.0
194549.1,199815.8,288784.6,356458.8,203040.7,229938.6,371863.1,231184.9,0.0
193926.4,199346.3,288236.4,355812.0,202488.7,229409.9,371312.2,230621.6,0.0
193548.3,199090.8,287832.7,355248.3,202058.9,228961.6,370781.0,230126.9,0.0
193934.3,199399.1,288119.4,355498.1,202342.0,229211.0,371006.4,230386.1,0.0
194552.4,199847.7,288692.7,356174.7,202945.9,229817.7,371684.3,231044.7,0.0
194556.8,199827.2,288757.2,356303.9,203044.5,229952.8,371889.2,231201.5,0.0
193921.4,199342.8,288188.5,355635.4,202479.7,229405.4,371316.0,230613.3,0.0
193536.0,199075.7,287773.2,355059.5,202045.8,228944.6,370770.8,230104.3,0.0
193913.3,199378.4,288050.6,355300.8,202322.7,229183.4,370984.8,230352.8,0.0
194538.4,199834.3,288627.1,355979.1,202932.7,229791.0,371659.7,231011.9,0.0
194557.5,199827.6,288705.1,356119.8,203043.5,229937.2,371872.1,231177.2,0.0
193908.6,199331.7,288130.4,355447.2,202466.8,229385.1,371292.2,230585.6,0.0
193531.6,199077.8,287724.4,354883.8,202036.8,228934.2,370757.9,230087.9,0.0
193914.9,199384.2,288005.7,355133.1,202316.2,229176.1,370978.0,230340.4,0.0
194542.1,199843.2,288588.8,355821.6,202930.8,229787.7,371661.4,231005.6,0.0
194554.9,199828.3,288663.2,355961.2,203038.5,229928.7,371871.6,231168.7,0.0
193932.1,199359.2,288115.4,355316.2,202490.1,229403.7,371321.8,230600.1,0.0
193539.6,199086.2,287699.5,354740.9,202050.3,228944.4,370780.7,230091.0,0.0
193909.3,199376.7,287968.0,354973.9,202318.4,229175.0,370985.5,230330.7,0.0
194537.0,199836.0,288549.2,355658.9,202931.3,229785.3,371665.9,230995.3,0.0
194556.8,199826.0,288629.3,355807.7,203045.1,229932.9,371884.0,231164.3,0.0
193938.8,199363.2,288088.1,355172.1,202497.9,229413.0,371339.8,230601.3,0.0
193541.9,199089.6,287664.2,354588.3,202047.1,228944.0,370788.1,230082.6,0.0
193912.7,199384.8,287933.0,354819.6,202313.6,229174.1,370993.7,230322.1,0.0
194534.4,199836.3,288506.0,355494.2,202920.6,229777.2,371665.5,230978.1,0.0
194548.3,199823.6,288579.9,355632.3,203025.0,229919.1,371873.2,231139.3,0.0
193929.8,199356.0,288039.3,354995.1,202478.8,229401.6,371328.7,230579.9,0.0
193540.3,199084.6,287623.5,354419.7,202039.1,228942.7,370783.9,230071.1,0.0
193913.4,199386.3,287897.0,354661.8,202314.3,229181.4,370997.4,230317.6,0.0
194539.8,199844.6,288476.4,355349.4,202929.4,229793.3,371678.2,230981.2,0.0
194556.6,199831.8,288555.8,355496.5,203040.9,229941.6,371894.7,231148.8,0.0
193940.2,199369.3,288011.5,354853.0,202491.2,229418.4,371344.7,230581.6,0.0
193554.8,199102.6,287598.2,354279.3,202051.5,228961.5,370801.0,230070.9,0.0
193924.0,199392.9,287864.7,354508.8,202318.7,229188.7,371000.2,230303.9,0.0
194541.6,199838.4,288432.1,355181.1,202920.6,229784.4,371665.4,230950.8,0.0
194566.2,199835.7,288515.5,355334.6,203036.4,229935.1,371887.6,231123.4,0.0
193946.2,199367.7,287972.0,354694.6,202489.6,229412.5,371342.4,230562.0,0.0
193551.2,199097.6,287550.9,354113.4,202045.6,228948.6,370793.0,230046.4,0.0
193925.9,199399.8,287823.9,354349.0,202317.4,229185.6,370999.4,230284.6,0.0
194544.1,199846.8,288394.4,355021.8,202919.3,229784.5,371667.2,230933.4,0.0
194566.5,199839.9,288483.8,355181.1,203040.5,229942.5,371897.1,231114.1,0.0
193945.9,199367.2,287941.3,354545.4,202497.3,229424.0,371353.8,230556.3,0.0
193553.0,199096.8,287519.2,353966.2,202052.4,228959.6,370805.1,230043.1,0.0
193917.8,199386.9,287781.7,354191.1,202313.8,229180.8,371001.1,230274.9,0.0
194547.2,199846.3,288362.1,354877.4,202928.5,229789.2,371677.8,230936.2,0.0
194577.8,199847.1,288447.7,355036.9,203046.7,229944.2,371901.2,231112.7,0.0
193948.1,199367.8,287891.6,354392.8,202488.8,229413.0,371345.9,230542.7,0.0
193536.3,199080.2,287455.5,353799.9,202031.3,228935.4,370783.4,230015.8,0.0
193908.0,199379.2,287727.4,354037.2,202303.2,229169.9,370990.7,230258.2,0.0
194544.6,199843.6,288311.5,354728.7,202919.3,229783.0,371672.3,230925.1,0.0
194566.4,199832.1,288392.9,354880.7,203034.2,229932.9,371893.3,231097.7,0.0
193952.2,199367.8,287855.2,354250.9,202495.6,229418.9,371355.3,230545.1,0.0
193551.0,199092.6,287433.0,353667.8,202049.9,228951.3,370804.3,230028.3,0.0
193913.3,199384.4,287697.2,353892.3,202309.8,229175.5,371001.3,230259.8,0.0
194540.3,199839.9,288273.2,354571.3,202917.9,229779.0,371672.5,230917.2,0.0
194569.1,199835.3,288360.2,354731.0,203040.0,229935.0,371897.6,231098.0,0.0
193956.3,199374.0,287825.9,354104.8,202500.8,229423.4,371360.0,230546.3,0.0
193549.7,199092.0,287400.4,353521.8,202047.8,228951.9,370804.1,230024.0,0.0
193900.1,199368.7,287649.9,353735.0,202296.2,229160.6,370985.9,230241.6,0.0
194518.3,199818.3,288216.7,354409.0,202897.8,229755.3,371650.0,230892.9,0.0
194552.2,199817.3,288307.8,354574.5,203022.2,229913.5,371878.3,231075.4,0.0
193944.6,199358.4,287777.0,353956.3,202489.7,229407.9,371349.8,230530.0,0.0
193538.2,199079.5,287351.0,353370.2,202038.2,228934.7,370795.7,230008.7,0.0
193901.6,199372.0,287614.5,353597.3,202299.7,229157.6,370992.8,230238.5,0.0
194536.7,199834.6,288199.4,354290.2,202916.8,229772.2,371675.9,230904.5,0.0
194566.6,199827.2,288287.0,354449.5,203035.3,229926.7,371899.2,231080.2,0.0
193957.0,199369.2,287751.9,353824.6,202498.4,229417.0,371363.4,230528.0,0.0
193552.1,199095.8,287326.4,353244.8,202049.0,228953.2,370815.8,230012.7,0.0
193909.1,199385.0,287584.2,353468.3,202303.0,229174.5,371007.2,230237.6,0.0
194530.5,199837.6,288156.4,354146.3,202907.3,229775.2,371673.5,230890.8,0.0
194567.7,199842.8,288250.3,354315.2,203033.0,229937.1,371905.6,231076.0,0.0
193960.3,199387.1,287721.1,353698.3,202501.3,229433.5,371377.5,230529.6,0.0
193554.8,199105.0,287292.9,353112.3,202046.0,228961.5,370819.8,230004.5,0.0
193903.1,199381.7,287541.3,353321.1,202289.2,229169.2,370997.0,230218.1,0.0
194534.0,199841.7,288122.5,354005.0,202901.5,229773.8,371670.2,230876.6,0.0
194566.6,199836.9,288216.3,354172.0,203028.9,229932.0,371901.2,231059.9,0.0
193960.0,199381.1,287687.6,353555.5,202498.2,229429.0,371375.4,230514.7,0.0
193563.9,199109.9,287269.0,352977.2,202052.0,228965.0,370826.5,229998.0,0.0
193913.1,199387.9,287517.1,353183.9,202293.0,229169.7,371001.3,230206.7,0.0
194533.9,199835.1,288089.8,353864.0,202895.4,229768.4,371669.1,230858.1,0.0
194573.4,199838.2,288186.8,354035.6,203025.0,229930.7,371903.8,231045.3,0.0
193964.3,199380.1,287652.5,353413.8,202488.3,229418.3,371369.0,230493.3,0.0
193545.2,199088.4,287211.1,352813.2,202021.7,228932.7,370798.9,229957.2,0.0
193887.9,199359.7,287454.1,353017.2,202261.8,229135.3,370972.0,230164.3,0.0
194524.6,199824.1,288041.8,353709.2,202878.9,229748.2,371651.7,230830.6,0.0
194580.5,199845.5,288154.5,353896.8,203023.5,229928.0,371899.4,231033.5,0.0
193969.0,199383.6,287620.4,353275.3,202488.2,229417.8,371364.3,230480.9,0.0
193545.0,199088.3,287179.8,352677.7,202022.3,228935.6,370795.8,229945.8,0.0
193896.7,199373.9,287435.3,352896.5,202272.2,229149.5,370980.6,230165.9,0.0
194545.5,199850.6,288031.4,353600.4,202898.7,229769.5,371668.2,230838.8,0.0
194587.0,199852.8,288129.0,353775.9,203031.5,229934.7,371906.6,231029.5,0.0
193972.3,199386.7,287590.7,353154.2,202493.0,229423.0,371373.2,230477.2,0.0
193562.3,199105.3,287160.4,352568.9,202038.7,228952.8,370816.6,229952.9,0.0
193902.4,199377.5,287401.6,352775.7,202278.3,229155.5,370988.4,230161.4,0.0
194538.4,199846.8,287989.0,353471.7,202898.2,229771.1,371669.7,230830.6,0.0
194584.4,199856.3,288094.0,353652.1,203036.5,229943.5,371913.5,231026.7,0.0
193981.3,199402.2,287570.3,353041.4,202509.2,229444.4,371392.2,230485.5,0.0
193568.0,199116.3,287140.2,352455.6,202052.0,228972.7,370835.0,229961.4,0.0
193910.6,199392.7,287385.4,352661.1,202292.1,229176.3,371007.3,230169.8,0.0
194554.2,199863.0,287977.8,353360.8,202914.1,229793.6,371694.1,230839.9,0.0
194593.3,199860.5,288073.4,353532.0,203042.8,229955.0,371928.1,231026.8,0.0
193977.0,199392.0,287535.0,352904.8,202500.3,229439.1,371389.3,230473.7,0.0
193558.2,199103.2,287096.9,352306.5,202036.1,228958.1,370821.3,229942.1,0.0
193894.3,199374.6,287338.3,352506.6,202271.0,229158.9,370989.2,230147.7,0.0
194535.1,199845.5,287924.5,353197.3,202886.3,229771.7,371665.1,230809.5,0.0
194595.3,199865.4,288038.8,353386.4,203030.7,229952.2,371913.8,231012.5,0.0
193984.4,199399.4,287505.0,352768.1,202495.5,229443.9,371380.6,230465.8,0.0
193566.7,199110.2,287068.6,352174.9,202034.1,228966.5,370815.2,229936.3,0.0
193911.6,199388.4,287314.9,352382.6,202277.9,229172.7,370989.6,230144.7,0.0
194555.9,199861.5,287908.4,353082.8,202903.3,229791.0,371675.0,230815.6,0.0
194592.4,199855.8,288002.6,353254.8,203031.7,229951.5,371908.1,231000.9,0.0
193982.0,199392.9,287468.8,352634.2,202495.1,229441.1,371374.8,230450.0,0.0
193569.2,199110.3,287035.7,352048.8,202036.4,228967.1,370816.3,229923.1,0.0
193920.3,199394.9,287287.3,352263.6,202283.0,229177.5,370995.9,230138.1,0.0
194544.9,199847.3,287861.9,352944.6,202886.5,229776.8,371662.0,230789.7,0.0
194588.8,199851.3,287963.3,353127.3,203021.2,229946.0,371905.1,230985.4,0.0
193990.4,199400.5,287443.7,352529.1,202502.7,229456.2,371394.4,230456.0,0.0
193559.7,199100.4,286992.8,351924.9,202030.3,228968.7,370821.3,229913.8,0.0
193891.4,199368.3,287223.5,352114.8,202259.3,229157.4,370979.6,230108.7,0.0
194529.5,199836.6,287808.5,352804.1,202876.0,229767.1,371653.8,230771.9,0.0
194588.4,199854.0,287922.0,352996.6,203024.6,229945.4,371902.2,230977.5,0.0
193993.0,199410.3,287411.1,352404.5,202513.6,229458.5,371394.0,230453.0,0.0
193560.6,199108.9,286965.4,351801.8,202043.7,228970.9,370820.0,229910.9,0.0
193894.8,199376.4,287199.5,351996.0,202274.9,229166.4,370980.1,230107.5,0.0
194532.9,199842.8,287779.9,352683.8,202890.2,229772.6,371650.9,230767.0,0.0
194599.0,199866.0,287900.6,352885.0,203044.5,229960.6,371911.8,230980.8,0.0
193999.7,199409.7,287380.4,352282.2,202520.6,229465.5,371395.5,230446.9,0.0
193578.6,199118.6,286942.8,351688.0,202054.6,228984.1,370830.5,229916.9,0.0
193918.0,199391.1,287184.5,351886.5,202288.8,229181.0,370995.0,230120.1,0.0
194544.9,199844.7,287760.8,352568.5,202894.1,229782.1,371661.0,230775.0,0.0
194601.1,199859.4,287872.6,352756.0,203036.5,229960.0,371911.2,230979.1,0.0
193989.3,199391.8,287340.9,352139.0,202502.8,229454.7,371383.6,230436.3,0.0
193561.6,199092.0,286894.1,351536.5,202031.1,228967.9,370813.4,229901.4,0.0
193898.5,199365.0,287133.0,351734.9,202265.1,229168.1,370980.8,230108.9,0.0
194531.5,199825.1,287716.8,352422.8,202879.5,229777.9,371654.9,230777.1,0.0
194595.0,199845.8,287837.7,352622.6,203033.6,229964.4,371914.4,230998.5,0.0
193992.9,199390.4,287316.3,352022.2,202513.6,229470.4,371401.0,230474.7,0.0
193568.3,199101.8,286873.5,351426.3,202048.3,228988.2,370836.6,229950.5,0.0
193901.2,199372.7,287108.1,351621.9,202278.0,229184.2,371003.9,230158.4,0.0
194537.5,199836.9,287688.6,352309.9,202891.9,229792.8,371680.5,230826.3,0.0
194597.0,199857.4,287805.3,352507.8,203043.7,229977.4,371939.8,231044.3,0.0
193996.3,199403.8,287288.5,351910.9,202526.8,229486.3,371431.5,230524.0,0.0
193558.8,199097.1,286835.8,351307.3,202050.2,228993.5,370855.4,229989.4,0.0
193882.6,199361.2,287060.3,351495.2,202271.7,229177.5,371010.3,230187.5,0.0
194525.1,199833.5,287649.0,352190.6,202889.2,229790.1,371693.3,230862.5,0.0
194591.3,199859.5,287775.3,352401.1,203048.7,229985.3,371963.3,231089.6,0.0
193991.2,199404.2,287257.4,351803.3,202529.3,229493.9,371451.9,230564.0,0.0
193564.1,199106.0,286813.4,351208.2,202061.4,229010.4,370885.2,230032.8,0.0
193890.2,199370.5,287042.0,351397.2,202284.7,229198.2,371043.1,230227.3,0.0
194529.2,199837.8,287629.3,352089.1,202901.9,229806.7,371717.8,230892.5,0.0
194589.7,199853.9,287746.0,352287.7,203053.5,229987.7,371972.8,231103.4,0.0
193994.7,199405.2,287232.5,351699.6,202538.2,229500.8,371470.2,230584.0,0.0
193564.7,199108.1,286785.3,351099.6,202064.5,229011.6,370901.6,230049.1,0.0
193879.8,199360.3,287004.4,351276.4,202276.9,229186.8,371047.9,230231.9,0.0
194515.6,199824.0,287588.6,351966.6,202890.0,229792.5,371721.3,230891.7,0.0
194582.6,199847.3,287709.3,352170.6,203048.4,229981.8,371985.4,231106.6,0.0
193984.5,199396.5,287193.0,351575.8,202533.5,229492.9,371478.2,230579.1,0.0
193549.0,199094.4,286743.6,350975.2,202058.3,229002.2,370905.6,230038.4,0.0
193871.4,199354.1,286967.6,351160.8,202276.9,229183.5,371055.1,230225.1,0.0
194514.4,199823.8,287553.1,351854.1,202891.4,229791.0,371730.4,230888.5,0.0
194584.0,199845.2,287675.6,352060.9,203048.0,229978.8,371993.2,231107.5,0.0
193977.6,199382.1,287152.2,351461.3,202527.4,229480.5,371479.1,230575.8,0.0
193541.6,199081.3,286699.8,350856.2,202051.5,228985.2,370903.1,230031.6,0.0
193872.8,199353.3,286933.9,351052.4,202282.0,229177.9,371065.0,230229.8,0.0
194509.5,199817.5,287518.2,351743.1,202895.1,229783.2,371738.1,230889.8,0.0
194581.3,199844.3,287644.0,351951.8,203053.2,229972.0,372001.5,231107.8,0.0
193988.1,199397.3,287132.7,351361.5,202542.0,229485.3,371497.3,230586.3,0.0
193541.6,199084.7,286671.9,350747.0,202057.0,228982.4,370910.2,230031.9,0.0
193856.2,199339.5,286885.6,350919.2,202267.0,229150.5,371045.9,230206.3,0.0
194502.8,199813.5,287473.3,351616.8,202889.1,229761.9,371723.3,230872.6,0.0
194580.7,199845.9,287609.1,351838.7,203058.7,229963.1,372000.4,231102.6,0.0
193988.8,199400.2,287102.9,351258.7,202549.9,229485.6,371505.0,230588.8,0.0
193545.9,199093.6,286648.4,350653.8,202067.7,228992.1,370927.8,230044.9,0.0
193859.0,199347.8,286861.8,350826.2,202274.6,229161.5,371063.6,230218.3,0.0
194499.8,199816.7,287445.2,351515.3,202890.2,229766.2,371732.5,230877.4,0.0
194588.7,199860.9,287590.3,351742.9,203069.3,229977.0,372016.9,231115.3,0.0
193990.6,199406.0,287075.4,351151.6,202553.0,229487.0,371512.6,230590.4,0.0
193547.3,199098.0,286618.1,350543.6,202070.4,228987.6,370935.1,230041.7,0.0
193859.2,199352.4,286837.4,350719.3,202283.7,229162.3,371080.6,230217.6,0.0
194507.1,199827.3,287427.2,351412.2,202902.5,229773.5,371758.0,230878.0,0.0
194586.9,199858.0,287556.9,351626.6,203066.1,229969.3,372028.1,231097.2,0.0
193991.4,199404.8,287046.4,351036.8,202553.0,229481.9,371523.2,230572.9,0.0
193546.0,199091.1,286587.2,350421.5,202064.6,228979.0,370935.4,230018.1,0.0
193872.6,199358.7,286815.2,350604.9,202284.5,229161.9,371084.4,230202.5,0.0
194519.3,199832.7,287405.4,351299.1,202903.1,229773.4,371759.5,230863.4,0.0
194593.5,199862.4,287532.2,351513.1,203064.9,229966.7,372028.6,231082.5,0.0
194006.3,199419.3,287025.0,350933.3,202557.4,229485.7,371535.3,230565.5,0.0
193564.7,199112.5,286569.3,350324.1,202078.6,228987.7,370955.7,230015.4,0.0
193876.5,199367.0,286788.0,350499.2,202287.3,229161.4,371093.6,230189.5,0.0
194512.5,199831.3,287371.1,351187.0,202898.7,229767.5,371760.9,230845.6,0.0
194600.8,199870.0,287514.3,351417.4,203075.7,229978.5,372045.8,231083.4,0.0
193995.1,199408.4,286994.2,350824.2,202553.7,229491.1,371540.9,230557.7,0.0
193546.5,199095.8,286534.3,350207.4,202066.0,228988.8,370953.9,230004.7,0.0
193862.8,199355.8,286749.0,350380.3,202274.2,229159.8,371089.8,230179.2,0.0
194505.9,199823.3,287331.8,351069.4,202886.3,229762.8,371757.7,230836.8,0.0
194590.4,199859.1,287470.8,351293.3,203057.4,229966.3,372035.1,231067.8,0.0
194005.0,199420.8,286966.6,350716.0,202551.3,229488.9,371543.7,230555.7,0.0
193552.8,199106.8,286502.7,350101.5,202062.2,228983.7,370958.3,230003.3,0.0
193867.8,199363.8,286722.3,350277.1,202273.8,229157.6,371099.0,230183.0,0.0
194518.7,199841.7,287316.3,350978.9,202896.5,229773.3,371780.9,230853.9,0.0
194593.3,199864.9,287444.4,351193.4,203057.6,229966.0,372051.0,231076.4,0.0
194009.0,199420.6,286944.7,350619.7,202556.3,229493.3,371561.9,230567.5,0.0
193559.2,199105.1,286484.9,350010.5,202071.8,228994.4,370979.3,230017.2,0.0
193860.5,199345.7,286682.4,350163.2,202260.0,229142.8,371094.1,230170.1,0.0
194505.9,199816.8,287270.4,350858.4,202875.7,229751.2,371766.4,230832.9,0.0
194594.6,199854.9,287413.3,351090.4,203051.2,229960.7,372053.2,231073.8,0.0
194008.8,199410.0,286910.4,350513.8,202544.5,229484.4,371562.7,230564.3,0.0
193554.8,199093.0,286446.7,349893.3,202053.3,228979.1,370972.9,230007.5,0.0
193861.4,199345.7,286660.8,350063.9,202260.9,229150.8,371106.4,230180.3,0.0
194513.3,199823.5,287254.2,350761.0,202881.8,229761.5,371782.7,230846.1,0.0
194596.0,199857.7,287394.1,350985.1,203052.9,229963.9,372063.7,231077.8,0.0
194009.9,199414.2,286892.7,350409.1,202548.6,229490.8,371576.9,230567.1,0.0
193559.5,199102.9,286431.3,349795.9,202062.5,228991.9,370995.9,230014.6,0.0
193862.2,199351.4,286636.5,349956.2,202261.9,229153.3,371123.1,230177.4,0.0
194505.7,199824.9,287224.4,350652.5,202882.0,229763.4,371797.5,230841.3,0.0
194611.1,199880.8,287383.4,350902.1,203074.5,229990.6,372099.9,231095.5,0.0
194029.6,199440.3,286885.6,350332.4,202574.2,229522.3,371616.1,230589.9,0.0
193567.4,199117.1,286412.0,349704.9,202076.0,229010.3,371021.8,230026.2,0.0
193856.2,199352.6,286604.7,349854.2,202260.0,229158.0,371135.0,230175.7,0.0
194499.2,199818.4,287187.1,350539.7,202869.2,229758.2,371797.1,230825.7,0.0
194605.9,199873.3,287345.9,350786.2,203062.6,229983.0,372097.2,231078.5,0.0
194030.0,199439.3,286852.1,350223.6,202569.8,229519.9,371619.3,230579.4,0.0
193564.6,199111.9,286378.4,349595.1,202070.0,229005.1,371022.8,230013.2,0.0
193854.5,199348.4,286574.3,349743.0,202257.9,229153.4,371139.5,230162.5,0.0
194498.0,199819.2,287160.1,350429.5,202871.7,229754.8,371805.3,230815.4,0.0
194603.6,199874.4,287319.1,350676.4,203066.1,229977.7,372103.7,231066.3,0.0
194017.4,199428.2,286817.7,350105.8,202567.2,229503.8,371617.6,230559.5,0.0
193559.3,199105.7,286350.7,349488.5,202076.0,228996.0,371031.0,230000.3,0.0
193854.5,199346.7,286548.8,349640.8,202267.1,229146.9,371148.3,230152.9,0.0
194509.7,199829.1,287143.9,350340.9,202892.1,229761.3,371826.0,230819.7,0.0
194618.3,199886.1,287305.0,350591.2,203086.2,229987.3,372128.8,231074.7,0.0
194031.6,199444.2,286803.6,350017.8,202583.3,229514.8,371641.2,230563.3,0.0
193563.2,199115.9,286326.9,349388.0,202078.8,228999.4,371040.7,229992.4,0.0
193853.7,199354.0,286518.5,349532.0,202261.2,229145.9,371151.0,230136.8,0.0
194496.7,199824.7,287104.3,350223.3,202876.5,229750.1,371818.1,230791.8,0.0
194600.6,199872.4,287261.0,350470.7,203070.2,229972.7,372117.1,231043.4,0.0
194019.1,199427.6,286761.9,349903.0,202571.1,229501.7,371634.3,230538.9,0.0
193559.9,199106.5,286293.5,349279.7,202074.2,228993.2,371041.3,229977.4,0.0
193859.7,199356.1,286497.9,349436.1,202270.2,229152.6,371162.4,230136.3,0.0
194508.7,199833.6,287091.6,350132.6,202890.4,229762.4,371835.9,230800.0,0.0
194604.9,199875.4,287242.1,350372.2,203072.0,229975.3,372127.4,231043.2,0.0
194021.3,199429.5,286742.6,349801.9,202572.0,229503.0,371642.8,230536.4,0.0
193556.6,199100.7,286265.2,349171.9,202070.2,228987.1,371042.5,229966.8,0.0
193846.8,199339.5,286459.0,349319.2,202255.4,229135.2,371153.4,230116.4,0.0
194506.1,199826.0,287059.6,350022.8,202881.0,229752.8,371833.2,230788.4,0.0
194618.3,199883.5,287223.9,350277.2,203078.0,229980.8,372138.3,231049.1,0.0
194038.5,199445.7,286730.1,349715.7,202587.5,229516.1,371661.2,230551.0,0.0
193572.5,199122.3,286260.2,349091.5,202094.0,229006.1,371068.8,229990.8,0.0
193857.5,199358.7,286446.4,349230.3,202274.3,229148.6,371171.6,230132.0,0.0
194501.8,199829.2,287029.9,349919.3,202887.1,229752.3,371833.7,230786.5,0.0
194606.2,199877.4,287186.9,350168.5,203079.3,229974.8,372131.8,231038.7,0.0
194030.7,199438.3,286693.3,349607.4,202582.9,229510.4,371650.9,230536.2,0.0
193555.8,199102.3,286212.2,348973.0,202073.1,228989.5,371045.4,229959.8,0.0
193837.4,199334.2,286400.3,349113.1,202252.3,229129.5,371149.2,230100.6,0.0
194489.0,199812.7,286992.4,349811.6,202873.5,229737.8,371821.2,230762.8,0.0
194612.1,199881.7,287164.8,350075.9,203080.6,229975.9,372135.1,231029.3,0.0
194033.2,199444.5,286671.3,349514.9,202587.3,229513.4,371658.8,230529.7,0.0
193563.3,199115.2,286194.1,348883.8,202081.8,228995.8,371061.7,229958.1,0.0
193845.2,199348.0,286378.9,349018.3,202256.8,229133.4,371163.1,230094.5,0.0
194498.0,199832.0,286972.6,349716.4,202880.0,229747.4,371837.0,230758.3,0.0
194618.9,199899.6,287147.5,349985.5,203088.8,229991.8,372156.2,231028.4,0.0
194041.5,199458.4,286653.8,349427.7,202594.9,229530.7,371680.6,230531.3,0.0
193574.5,199128.5,286178.4,348801.8,202097.2,229018.3,371083.4,229963.6,0.0
193854.7,199356.9,286360.1,348932.0,202268.6,229149.9,371179.3,230095.0,0.0
194498.6,199825.9,286945.5,349622.4,202881.3,229753.5,371844.1,230749.8,0.0
194613.3,199883.4,287110.3,349882.6,203080.2,229985.3,372151.3,231010.2,0.0
194043.7,199452.9,286624.3,349332.7,202591.4,229530.5,371684.6,230521.0,0.0
193570.4,199123.4,286146.0,348703.7,202086.0,229014.4,371084.8,229952.8,0.0
193847.8,199351.9,286332.2,348840.8,202263.1,229155.4,371186.8,230093.8,0.0
194506.2,199836.5,286927.4,349540.9,202887.4,229770.9,371860.1,230758.9,0.0
194630.0,199902.9,287100.6,349807.5,203096.1,230012.2,372173.2,231029.3,0.0
194051.5,199460.5,286603.8,349243.7,202601.2,229546.6,371692.8,230527.0,0.0
193572.2,199119.3,286119.0,348605.4,202092.3,229023.4,371088.5,229950.4,0.0
193844.7,199340.8,286299.3,348740.3,202266.1,229158.9,371187.8,230087.8,0.0
194489.6,199809.2,286884.7,349432.8,202877.4,229762.7,371853.8,230745.7,0.0
194620.8,199881.9,287057.6,349703.2,203084.7,230001.6,372171.7,231016.1,0.0
194048.1,199443.5,286569.4,349151.6,202599.4,229545.5,371705.9,230526.8,0.0
193568.3,199102.1,286083.7,348511.0,202087.3,229018.8,371098.3,229949.3,0.0
193837.8,199326.1,286258.9,348633.5,202253.5,229145.8,371186.4,230076.3,0.0
194495.8,199811.0,286856.8,349333.7,202874.9,229758.0,371859.1,230742.9,0.0
194634.6,199890.8,287047.2,349617.7,203096.4,230010.0,372191.1,231030.6,0.0
194054.9,199450.7,286554.2,349061.9,202604.1,229548.6,371720.9,230540.7,0.0
193581.6,199120.9,286070.3,348425.8,202094.0,229026.4,371116.8,229970.8,0.0
193847.3,199342.0,286241.4,348545.6,202254.9,229150.8,371202.0,230098.9,0.0
194493.4,199817.7,286831.9,349239.7,202871.7,229758.7,371871.2,230765.8,0.0
194628.6,199895.3,287017.3,349522.8,203094.6,230014.8,372204.2,231058.6,0.0
194051.8,199456.2,286525.3,348967.2,202607.9,229557.2,371735.7,230575.3,0.0
193566.6,199115.3,286035.0,348324.9,202092.1,229027.4,371128.1,230001.5,0.0
193831.3,199338.5,286208.8,348451.2,202257.2,229156.8,371219.9,230135.4,0.0
194484.8,199822.7,286801.6,349150.2,202877.6,229769.8,371893.3,230805.5,0.0
194619.6,199897.1,286984.9,349430.9,203095.9,230021.2,372223.7,231094.1,0.0
194047.2,199462.8,286499.0,348886.1,202614.4,229569.4,371763.4,230614.8,0.0
193566.7,199123.0,286013.4,348251.7,202104.5,229045.0,371161.7,230045.6,0.0
193836.3,199343.4,286190.4,348381.9,202273.6,229178.4,371259.3,230185.2,0.0
194484.9,199815.0,286779.3,349075.1,202888.9,229785.3,371931.3,230849.8,0.0
194627.3,199894.7,286971.4,349363.3,203110.0,230039.5,372269.2,231142.3,0.0
194049.9,199452.4,286480.1,348814.1,202619.3,229579.1,371800.8,230654.6,0.0
193565.9,199109.4,285989.5,348173.4,202102.7,229050.9,371190.1,230077.3,0.0
193836.6,199332.1,286165.7,348300.5,202268.9,229177.7,371279.2,230208.0,0.0
194484.2,199806.1,286751.6,348995.4,202885.1,229780.0,371945.4,230870.0,0.0
194607.8,199870.1,286926.0,349272.0,203092.3,230018.3,372266.6,231147.7,0.0
194043.2,199442.5,286446.1,348734.9,202608.1,229567.3,371811.5,230671.0,0.0
193565.0,199110.3,285966.6,348106.4,202101.3,229049.0,371213.2,230102.5,0.0
193825.6,199326.7,286134.6,348222.8,202258.2,229166.5,371294.3,230222.1,0.0
194476.1,199802.9,286724.4,348913.5,202873.2,229768.9,371957.5,230879.4,0.0
194612.7,199878.1,286910.7,349194.9,203092.8,230017.6,372285.3,231164.5,0.0
194038.7,199438.5,286423.2,348647.9,202609.5,229562.4,371823.3,230679.0,0.0
193561.6,199105.1,285940.4,348013.0,202099.3,229039.5,371220.3,230107.7,0.0
193826.0,199324.5,286106.7,348128.7,202256.3,229156.6,371299.4,230227.8,0.0
194477.4,199801.9,286696.4,348821.7,202875.6,229760.1,371965.2,230886.5,0.0
194615.0,199880.0,286886.5,349109.6,203100.1,230012.2,372300.2,231174.1,0.0
194042.8,199441.9,286403.1,348563.7,202617.5,229555.6,371837.2,230690.0,0.0
193557.7,199103.0,285911.8,347924.0,202100.1,229025.1,371228.3,230109.1,0.0
193818.1,199322.0,286078.0,348037.8,202255.1,229141.4,371306.8,230225.3,0.0
194482.7,199813.4,286682.5,348743.9,202882.1,229757.7,371985.8,230895.4,0.0
194628.1,199894.1,286878.0,349036.7,203109.3,230014.8,372325.2,231184.9,0.0
194059.8,199458.8,286394.3,348494.3,202628.8,229562.4,371867.1,230702.1,0.0
193562.6,199105.1,285891.3,347839.0,202102.3,229019.8,371244.4,230107.5,0.0
193827.1,199327.7,286061.1,347955.4,202263.7,229140.3,371325.3,230226.7,0.0
194480.8,199808.9,286653.8,348647.1,202881.7,229747.1,371991.3,230883.7,0.0
194622.8,199889.0,286844.8,348933.4,203105.7,230004.6,372324.3,231170.6,0.0
194056.0,199456.8,286363.9,348395.1,202625.9,229557.2,371868.2,230689.3,0.0
193563.0,199106.4,285870.9,347750.1,202103.6,229024.3,371254.3,230101.3,0.0
193822.9,199323.8,286038.4,347865.9,202260.6,229142.8,371331.6,230215.6,0.0
194481.1,199808.8,286636.7,348568.2,202885.6,229754.0,372002.9,230878.2,0.0
194617.9,199882.8,286821.6,348852.3,203102.3,230000.0,372331.0,231158.0,0.0
194054.1,199455.4,286348.3,348321.7,202631.9,229559.0,371881.1,230683.5,0.0
193565.9,199114.8,285856.4,347680.4,202118.4,229031.3,371269.8,230099.9,0.0
193818.8,199328.3,286016.3,347789.2,202267.6,229144.9,371340.6,230207.3,0.0
194472.6,199809.7,286607.6,348485.1,202882.2,229753.7,372005.1,230861.4,0.0
194625.6,199898.7,286810.1,348784.5,203116.8,230020.3,372348.9,231157.0,0.0
194064.5,199468.6,286335.0,348248.5,202642.4,229576.0,371898.5,230679.8,0.0
193568.3,199113.5,285837.6,347597.5,202118.8,229037.3,371280.8,230089.4,0.0
193820.3,199322.2,285996.9,347702.1,202269.8,229145.7,371349.0,230195.4,0.0
194481.6,199811.5,286597.3,348404.3,202897.2,229757.0,372020.6,230859.5,0.0
194628.8,199895.2,286795.0,348699.4,203126.0,230015.4,372360.2,231151.7,0.0
194063.5,199462.0,286314.9,348161.6,202646.6,229565.6,371905.6,230670.9,0.0
193575.9,199121.6,285824.7,347521.2,202129.3,229036.2,371298.2,230091.0,0.0
193809.5,199317.0,285968.4,347611.9,202261.5,229130.7,371353.4,230187.5,0.0
194460.0,199794.2,286553.8,348298.9,202872.6,229730.2,372012.2,230838.1,0.0
194623.9,199891.8,286761.4,348605.7,203115.1,230002.3,372364.3,231141.5,0.0
194068.0,199464.7,286292.7,348077.3,202647.0,229563.9,371920.9,230674.0,0.0
193572.0,199112.3,285792.3,347425.3,202122.4,229024.9,371302.6,230084.2,0.0
193821.2,199322.7,285945.4,347527.3,202268.2,229130.9,371367.5,230187.8,0.0
194473.0,199803.0,286533.0,348218.5,202883.9,229732.8,372028.9,230843.1,0.0
194622.7,199885.0,286731.8,348517.0,203116.7,229994.4,372372.8,231142.2,0.0
194062.2,199454.1,286260.7,347990.2,202647.9,229555.2,371927.8,230674.0,0.0
193571.6,199109.0,285767.8,347347.4,202128.6,229024.2,371315.5,230089.9,0.0
193826.6,199324.9,285929.3,347455.6,202277.4,229135.9,371385.3,230198.3,0.0
194481.3,199806.7,286520.5,348150.1,202894.0,229739.7,372046.9,230852.9,0.0
194629.7,199891.8,286718.9,348453.6,203126.0,230005.1,372391.8,231149.6,0.0
194062.9,199454.4,286238.8,347920.7,202648.0,229559.0,371938.9,230671.4,0.0
193567.9,199103.8,285739.2,347268.3,202120.4,229021.3,371318.2,230079.5,0.0
193819.9,199320.9,285898.6,347372.2,202266.6,229131.0,371384.8,230186.1,0.0
194471.6,199800.5,286488.6,348063.7,202882.2,229734.4,372046.7,230840.1,0.0
194623.7,199885.3,286688.8,348362.3,203115.9,229998.2,372389.3,231134.0,0.0
194069.6,199460.5,286221.1,347838.3,202650.9,229562.1,371947.5,230668.1,0.0
193577.7,199113.6,285726.2,347190.4,202129.0,229026.5,371331.2,230081.8,0.0
193819.9,199318.1,285875.6,347283.2,202266.8,229126.8,371388.9,230179.0,0.0
194472.2,199796.4,286461.1,347968.3,202876.5,229727.0,372044.5,230828.8,0.0
194627.3,199886.2,286666.0,348274.1,203114.0,229996.3,372392.9,231129.8,0.0
194074.5,199465.0,286201.1,347755.6,202650.7,229562.9,371954.9,230666.5,0.0
193583.4,199118.1,285708.3,347111.5,202132.3,229033.1,371345.0,230085.1,0.0
193830.7,199329.1,285863.1,347209.7,202275.2,229137.0,371404.8,230185.8,0.0
194478.9,199806.4,286450.9,347898.5,202889.6,229737.3,372061.3,230838.2,0.0
194644.9,199907.3,286663.0,348210.9,203138.7,230016.5,372415.3,231146.0,0.0
194090.8,199484.0,286194.1,347685.5,202673.0,229582.7,371973.4,230677.0,0.0
193583.7,199122.9,285687.8,347026.0,202140.1,229040.8,371347.3,230077.9,0.0
193824.0,199327.1,285835.9,347116.3,202276.7,229140.3,371403.2,230170.5,0.0
194475.9,199809.3,286426.8,347807.2,202894.0,229744.7,372066.3,230825.2,0.0
194646.5,199914.8,286643.3,348125.6,203144.2,230021.9,372425.8,231136.1,0.0
194102.1,199499.3,286189.1,347619.3,202692.6,229599.2,371998.6,230682.8,0.0
193585.7,199127.8,285674.4,346956.5,202153.1,229047.3,371366.3,230076.7,0.0
193814.8,199319.7,285806.9,347028.7,202272.1,229128.5,371403.6,230151.9,0.0
194474.4,199804.5,286397.3,347718.9,202887.3,229732.9,372064.0,230804.0,0.0
194644.2,199904.5,286614.0,348041.1,203140.9,230016.6,372429.8,231119.4,0.0
194086.7,199473.3,286146.0,347520.8,202675.8,229582.2,371992.7,230653.6,0.0
193584.3,199117.8,285643.1,346866.9,202145.9,229042.0,371371.1,230059.3,0.0
193822.2,199321.5,285790.0,346956.1,202277.8,229137.8,371424.2,230150.4,0.0
194477.5,199806.5,286383.5,347651.3,202893.0,229744.5,372088.9,230807.1,0.0
194641.1,199901.6,286591.8,347964.5,203134.4,230019.0,372444.5,231117.3,0.0
194092.1,199482.4,286127.6,347446.5,202672.2,229589.0,372008.8,230656.9,0.0
193587.3,199125.5,285625.2,346793.2,202142.3,229050.9,371386.2,230062.3,0.0
193821.2,199323.6,285765.8,346877.1,202270.9,229142.9,371431.1,230147.7,0.0
194472.1,199802.3,286352.0,347563.0,202882.1,229740.3,372084.6,230796.3,0.0
194641.9,199900.9,286569.4,347881.5,203133.6,230019.4,372446.1,231111.1,0.0
194092.0,199477.7,286108.3,347368.7,202673.6,229591.2,372011.9,230652.8,0.0
193595.3,199133.9,285611.3,346724.2,202147.4,229056.2,371396.7,230064.9,0.0
193819.8,199327.4,285745.8,346803.8,202268.4,229139.6,371440.8,230144.9,0.0
194466.2,199802.2,286325.3,347481.3,202872.0,229731.2,372090.9,230784.9,0.0
194641.6,199906.5,286545.6,347798.8,203124.6,230013.2,372454.2,231099.4,0.0
194094.5,199488.7,286087.8,347289.0,202669.4,229590.7,372027.2,230645.5,0.0
193576.0,199116.4,285573.8,346625.2,202130.0,229039.3,371395.4,230042.9,0.0
193806.8,199312.1,285710.7,346702.5,202254.4,229125.0,371435.1,230122.8,0.0
194464.8,199794.9,286300.6,347390.7,202867.0,229723.5,372090.2,230771.6,0.0
194651.8,199909.6,286530.1,347722.5,203133.1,230017.3,372463.6,231097.9,0.0
194106.2,199494.8,286074.1,347215.6,202680.9,229595.1,372039.3,230646.7,0.0
193597.1,199134.9,285569.7,346561.2,202148.8,229053.6,371419.9,230051.1,0.0
193822.1,199326.9,285706.4,346643.4,202273.3,229144.8,371465.7,230134.4,0.0
194474.0,199808.2,286290.9,347329.7,202882.7,229743.5,372120.6,230783.5,0.0
194649.1,199912.9,286511.5,347655.5,203137.6,230027.7,372487.2,231101.0,0.0
194099.1,199488.1,286049.1,347141.0,202677.1,229597.8,372054.8,230641.2,0.0
193583.7,199117.0,285533.7,346475.0,202135.7,229045.0,371422.4,230036.7,0.0
193803.1,199300.7,285661.1,346543.2,202250.8,229120.4,371452.5,230108.1,0.0
194452.0,199778.5,286243.3,347224.9,202855.8,229713.0,372099.2,230751.3,0.0
194630.9,199885.3,286464.8,347550.3,203110.2,229997.3,372463.4,231068.6,0.0
194101.1,199483.3,286021.8,347057.9,202670.5,229588.1,372052.5,230627.8,0.0
193584.3,199116.3,285507.7,346397.4,202130.5,229041.6,371426.0,230023.3,0.0
193805.6,199299.9,285637.1,346470.4,202246.1,229120.8,371463.1,230096.6,0.0
194460.5,199782.2,286227.7,347161.2,202862.0,229720.3,372120.9,230748.3,0.0
194639.3,199890.4,286451.6,347489.6,203121.0,230010.4,372489.1,231071.5,0.0
194097.7,199475.7,285998.1,346984.8,202668.5,229592.2,372063.9,230622.2,0.0
193591.4,199119.5,285494.6,346329.2,202132.3,229050.9,371442.1,230027.5,0.0
193813.1,199309.4,285625.6,346401.7,202248.1,229133.8,371478.5,230106.2,0.0
194459.0,199785.2,286206.5,347083.0,202853.4,229728.5,372126.2,230750.5,0.0
194644.3,199900.5,286435.8,347416.3,203116.1,230021.2,372497.6,231076.9,0.0
194102.0,199484.0,285980.6,346912.3,202663.1,229601.2,372073.5,230625.5,0.0
193587.4,199118.1,285469.8,346250.8,202125.0,229053.2,371446.0,230024.0,0.0
193807.3,199304.8,285597.3,346316.5,202236.0,229128.8,371474.6,230094.5,0.0
194462.7,199791.3,286188.3,347004.8,202848.7,229728.7,372128.8,230745.0,0.0
194647.4,199906.7,286420.0,347342.7,203115.0,230024.0,372503.6,231073.3,0.0
194098.6,199483.1,285958.4,346830.3,202657.3,229595.0,372068.2,230614.9,0.0
193586.9,199122.2,285451.6,346173.5,202125.1,229053.0,371446.0,230020.0,0.0
193794.4,199300.1,285569.3,346232.7,202231.0,229120.0,371469.9,230083.7,0.0
194448.2,199782.4,286158.2,346921.3,202842.0,229718.5,372123.4,230734.7,0.0
194646.8,199907.8,286399.3,347268.3,203116.2,230023.9,372507.8,231075.3,0.0
194108.6,199495.8,285945.4,346769.1,202665.2,229605.8,372087.8,230630.0,0.0
193590.1,199125.3,285430.2,346106.3,202125.0,229052.8,371455.0,230024.2,0.0
193801.6,199305.7,285555.7,346170.7,202233.9,229122.9,371481.0,230088.5,0.0
194459.1,199793.0,286148.8,346862.8,202849.1,229724.4,372137.7,230739.3,0.0
194649.8,199909.9,286383.1,347200.8,203118.7,230020.6,372515.5,231071.7,0.0
194113.6,199496.3,285936.4,346704.2,202671.9,229605.7,372101.5,230634.1,0.0
193597.7,199128.2,285425.3,346040.2,202130.3,229056.0,371471.2,230036.8,0.0
193805.4,199304.8,285541.8,346092.0,202232.8,229121.4,371489.1,230101.3,0.0
194453.7,199781.5,286121.9,346769.4,202836.8,229711.9,372134.7,230744.9,0.0
194647.0,199898.7,286357.3,347112.1,203105.9,230011.7,372519.0,231087.4,0.0
194125.4,199501.9,285922.0,346626.1,202671.3,229608.0,372116.3,230664.5,0.0
193607.8,199137.6,285407.9,345961.8,202129.9,229055.7,371483.8,230066.7,0.0
193811.2,199314.5,285523.0,346021.7,202235.1,229123.9,371505.1,230135.5,0.0
194464.0,199797.4,286109.2,346711.6,202849.5,229724.8,372157.8,230790.4,0.0
194648.8,199910.0,286340.0,347051.8,203114.3,230023.5,372538.1,231128.6,0.0
194111.2,199501.5,285892.1,346560.6,202673.5,229616.1,372130.3,230698.8,0.0
193598.1,199140.1,285381.1,345905.3,202136.9,229073.5,371507.5,230111.3,0.0
193805.5,199316.4,285498.5,345963.2,202238.0,229142.5,371529.5,230181.1,0.0
194461.4,199798.5,286083.7,346646.4,202845.9,229739.6,372179.0,230833.1,0.0
194656.3,199916.4,286324.4,346996.1,203122.7,230044.2,372568.5,231181.5,0.0
194121.4,199508.2,285879.1,346509.4,202682.6,229636.1,372163.1,230753.7,0.0
193596.5,199134.9,285364.2,345852.0,202143.5,229090.3,371540.4,230161.2,0.0
193801.7,199310.0,285478.3,345904.3,202242.3,229151.7,371556.8,230222.2,0.0
194462.3,199799.2,286071.8,346593.2,202854.1,229750.9,372210.1,230876.4,0.0
194658.6,199921.4,286316.3,346942.5,203129.4,230054.5,372597.6,231222.2,0.0
194119.7,199507.8,285869.5,346453.0,202687.5,229643.0,372188.4,230789.2,0.0
193585.4,199123.5,285344.0,345782.7,202136.6,229082.2,371550.6,230181.6,0.0
193772.6,199279.5,285442.4,345816.8,202221.7,229126.0,371546.3,230223.9,0.0
194443.3,199783.6,286042.4,346513.7,202846.4,229736.3,372207.0,230883.7,0.0
194646.3,199911.4,286285.9,346861.5,203124.9,230042.2,372594.0,231226.8,0.0
194118.5,199508.7,285852.5,346382.9,202694.7,229644.6,372195.1,230800.4,0.0
193592.4,199134.5,285337.7,345721.5,202153.7,229095.5,371566.4,230198.3,0.0
193771.8,199286.5,285426.3,345750.8,202228.6,229133.9,371557.9,230231.6,0.0
194425.9,199771.3,286006.8,346427.1,202833.2,229722.6,372199.3,230871.9,0.0
194639.3,199911.2,286264.6,346791.5,203125.4,230040.3,372600.8,231227.2,0.0
194120.7,199517.3,285834.8,346320.5,202699.0,229643.4,372209.7,230804.4,0.0
193594.5,199142.5,285312.6,345654.9,202152.7,229085.6,371576.6,230194.5,0.0
193786.0,199305.2,285412.1,345694.9,202236.7,229134.5,371578.9,230236.9,0.0
194440.3,199786.3,286000.9,346382.3,202846.8,229730.2,372230.2,230884.4,0.0
194638.7,199905.6,286240.1,346732.2,203123.1,230031.7,372616.7,231222.8,0.0
194117.8,199503.0,285806.4,346255.7,202690.7,229632.3,372219.1,230793.9,0.0
193603.3,199137.2,285300.1,345602.2,202155.7,229089.6,371597.2,230195.7,0.0
193797.8,199303.2,285403.9,345644.4,202246.4,229142.0,371601.6,230240.8,0.0
194438.8,199771.6,285974.7,346313.1,202840.2,229720.4,372232.9,230869.8,0.0
194641.5,199893.9,286218.0,346666.0,203117.0,230025.5,372620.0,231212.5,0.0
194122.8,199497.2,285785.9,346192.3,202690.5,229630.8,372224.6,230790.3,0.0
193600.2,199129.1,285267.5,345528.8,202147.6,229081.2,371597.0,230185.8,0.0
193792.6,199295.6,285368.8,345568.8,202236.0,229135.0,371601.8,230229.4,0.0
194442.5,199773.0,285950.7,346247.5,202839.8,229724.5,372243.9,230865.7,0.0
194659.8,199913.5,286213.1,346618.6,203135.0,230047.7,372649.1,231223.3,0.0
194129.6,199506.4,285774.0,346137.9,202700.5,229644.0,372247.4,230790.8,0.0
193589.6,199119.5,285243.8,345460.8,202146.9,229078.9,371605.1,230171.6,0.0
193776.8,199285.3,285343.4,345496.0,202233.0,229128.1,371607.3,230212.4,0.0
194432.9,199771.9,285927.6,346173.0,202839.3,229721.9,372250.8,230850.9,0.0
194649.6,199908.5,286183.4,346538.2,203131.0,230043.6,372652.3,231202.9,0.0
194135.0,199514.9,285758.3,346073.9,202711.6,229656.1,372266.4,230788.8,0.0
193600.5,199131.1,285231.3,345400.5,202158.0,229093.3,371626.9,230173.4,0.0
193780.4,199288.7,285323.5,345428.3,202233.6,229130.2,371619.6,230205.7,0.0
194434.9,199773.5,285910.1,346108.1,202841.2,229720.4,372264.7,230845.6,0.0
194650.5,199911.3,286165.7,346473.6,203128.6,230037.7,372665.2,231198.5,0.0
194134.8,199520.6,285741.7,346010.7,202708.8,229651.8,372282.4,230783.8,0.0
193606.6,199146.1,285221.8,345343.2,202162.2,229098.7,371651.1,230175.7,0.0
193792.8,199307.0,285317.9,345373.4,202243.1,229141.7,371645.3,230211.2,0.0
194443.2,199785.2,285900.4,346049.8,202846.6,229730.2,372283.6,230847.7,0.0
194655.4,199913.9,286150.0,346409.2,203132.0,230042.6,372678.3,231195.5,0.0
194132.2,199510.4,285711.5,345930.3,202700.7,229641.9,372279.7,230768.4,0.0
193599.5,199133.8,285186.1,345254.5,202151.1,229082.9,371639.5,230153.0,0.0
193785.8,199299.6,285282.3,345286.7,202235.2,229130.7,371636.0,230189.4,0.0
194438.1,199782.4,285863.4,345965.0,202841.3,229721.7,372278.7,230829.1,0.0
194653.6,199915.7,286120.2,346333.4,203133.4,230042.1,372683.2,231187.0,0.0
194135.1,199513.6,285693.1,345865.9,202711.0,229653.0,372297.7,230771.4,0.0
193596.8,199127.6,285160.3,345184.3,202150.3,229084.0,371652.5,230152.0,0.0
193771.8,199279.8,285247.3,345204.2,202219.8,229115.2,371636.8,230178.7,0.0
194425.9,199763.1,285830.9,345881.3,202824.0,229701.8,372276.6,230817.5,0.0
194648.8,199908.1,286094.1,346255.8,203123.5,230027.0,372684.9,231181.2,0.0
194134.4,199516.5,285671.5,345795.6,202706.6,229643.2,372301.9,230771.4,0.0
193594.7,199125.4,285142.0,345117.9,202151.3,229076.1,371657.8,230153.6,0.0
193774.5,199280.0,285230.9,345137.4,202227.4,229109.4,371641.3,230178.8,0.0
194439.0,199776.9,285825.1,345827.2,202843.3,229709.7,372293.9,230825.5,0.0
194663.9,199920.2,286089.2,346204.2,203143.9,230036.2,372706.1,231191.1,0.0
194143.8,199521.3,285657.0,345735.6,202718.6,229644.8,372318.5,230773.6,0.0
193606.3,199139.7,285131.8,345063.7,202167.3,229087.2,371683.1,230160.8,0.0
193781.4,199293.0,285219.5,345084.2,202238.3,229121.8,371668.2,230188.4,0.0
194426.0,199766.6,285791.9,345750.8,202832.6,229700.1,372298.5,230815.2,0.0
194652.5,199910.8,286058.3,346126.7,203133.9,230028.5,372710.8,231181.5,0.0
194139.2,199516.2,285637.8,345665.7,202715.8,229642.8,372328.8,230769.1,0.0
193598.2,199128.8,285104.8,344983.3,202155.4,229074.7,371681.3,230147.3,0.0
193774.1,199287.5,285193.8,345004.5,202229.5,229111.0,371666.5,230176.3,0.0
194428.1,199772.8,285775.9,345683.6,202836.7,229702.0,372308.3,230814.7,0.0
194647.9,199908.5,286031.2,346048.9,203128.5,230022.8,372708.8,231171.1,0.0
194141.4,199521.3,285612.5,345592.9,202712.5,229642.7,372330.2,230764.7,0.0
193604.1,199140.7,285085.6,344923.1,202158.7,229083.3,371692.0,230151.8,0.0
193781.9,199298.7,285173.2,344946.3,202232.6,229119.3,371677.6,230180.8,0.0
194436.3,199783.6,285755.3,345622.8,202837.1,229709.6,372316.8,230819.6,0.0
194660.6,199927.0,286018.7,345996.1,203134.7,230034.9,372723.6,231182.4,0.0
194142.6,199527.2,285591.3,345529.4,202710.2,229643.3,372336.7,230764.8,0.0
193598.0,199137.3,285058.2,344845.0,202148.1,229075.5,371689.3,230141.1,0.0
193769.6,199285.3,285144.0,344862.8,202216.9,229107.9,371671.6,230165.4,0.0
194425.1,199765.7,285726.5,345541.3,202818.9,229694.9,372310.2,230801.7,0.0
194658.7,199915.5,286000.8,345928.9,203125.3,230029.1,372730.3,231175.3,0.0
194150.5,199524.3,285581.4,345474.9,202711.4,229647.8,372355.1,230770.5,0.0
193595.7,199125.1,285039.3,344785.9,202146.0,229073.7,371705.3,230142.6,0.0
193767.0,199278.9,285123.1,344801.6,202215.3,229103.3,371688.4,230164.0,0.0
194429.8,199771.0,285711.9,345485.0,202824.5,229696.3,372335.8,230804.5,0.0
194657.8,199915.7,285977.6,345862.1,203125.4,230025.3,372746.8,231167.7,0.0
194150.2,199525.0,285559.3,345406.0,202711.8,229646.6,372367.2,230759.4,0.0
193608.4,199142.5,285027.0,344724.1,202148.1,229078.4,371719.5,230134.2,0.0
193773.5,199294.9,285112.3,344740.6,202216.1,229108.5,371701.5,230154.8,0.0
194424.5,199775.7,285699.4,345418.9,202825.2,229699.0,372344.8,230792.7,0.0
194657.0,199923.8,285968.5,345800.2,203129.0,230029.8,372758.8,231157.6,0.0
194153.0,199538.4,285551.2,345349.1,202716.9,229654.9,372383.8,230752.5,0.0
193607.6,199148.5,285018.3,344672.1,202159.7,229092.3,371739.9,230130.4,0.0
193776.7,199299.1,285099.1,344683.1,202223.9,229117.5,371716.0,230145.1,0.0
194428.7,199784.5,285681.3,345356.7,202826.4,229701.6,372349.5,230775.9,0.0
194661.4,199931.5,285952.3,345741.0,203134.1,230034.2,372766.5,231147.5,0.0
194157.3,199540.4,285535.8,345290.0,202724.9,229656.2,372395.3,230745.7,0.0
193617.4,199158.1,285006.9,344615.5,202169.2,229094.5,371754.2,230129.0,0.0
193773.5,199297.1,285078.7,344619.5,202226.8,229114.7,371722.6,230138.8,0.0
194425.4,199778.9,285659.6,345291.0,202830.8,229699.6,372355.1,230770.8,0.0
194656.5,199924.5,285929.3,345671.5,203135.5,230031.1,372767.0,231139.3,0.0
194153.8,199537.1,285517.4,345222.5,202729.3,229660.3,372396.6,230739.1,0.0
193612.1,199151.5,284988.6,344546.2,202172.1,229100.3,371754.8,230120.6,0.0
193771.8,199295.5,285061.3,344550.8,202226.6,229120.2,371721.4,230127.6,0.0
194425.7,199782.5,285647.2,345231.7,202829.4,229711.4,372359.3,230764.6,0.0
194665.4,199934.0,285927.5,345626.8,203138.0,230054.2,372783.6,231144.1,0.0
194162.3,199541.8,285510.8,345178.3,202725.9,229677.6,372411.3,230741.8,0.0
193609.8,199144.4,284972.6,344495.5,202163.2,229109.5,371763.5,230116.7,0.0
193765.8,199285.2,285046.8,344500.5,202221.9,229131.1,371731.3,230127.1,0.0
194424.1,199776.4,285631.4,345177.7,202827.4,229720.0,372367.5,230762.5,0.0
194670.7,199937.0,285914.2,345576.4,203145.0,230067.2,372795.4,231147.6,0.0
194154.1,199535.3,285489.4,345115.3,202724.8,229679.8,372412.9,230736.4,0.0
193593.8,199131.3,284945.7,344419.8,202153.3,229100.7,371754.3,230100.7,0.0
193746.8,199270.4,285017.7,344420.2,202209.8,229119.1,371719.9,230106.2,0.0
194406.2,199761.5,285602.9,345095.9,202817.1,229707.3,372356.2,230740.6,0.0
194649.4,199915.9,285879.1,345484.1,203128.3,230043.8,372775.0,231115.6,0.0
194145.8,199528.8,285463.9,345033.9,202719.6,229667.8,372403.0,230715.1,0.0
193594.1,199137.6,284925.3,344349.1,202154.2,229096.5,371753.0,230088.5,0.0
193754.0,199283.5,284998.9,344354.3,202211.5,229115.6,371721.7,230096.0,0.0
194419.1,199781.8,285589.4,345040.8,202825.1,229711.4,372367.9,230739.4,0.0
194662.9,199935.6,285871.9,345438.3,203143.3,230053.7,372795.7,231123.2,0.0
194160.3,199546.2,285463.6,344996.2,202737.8,229679.7,372429.2,230727.6,0.0
193619.2,199162.6,284937.9,344323.0,202186.3,229121.4,371791.2,230113.3,0.0
193764.7,199293.5,284999.7,344311.8,202234.3,229129.7,371746.2,230110.4,0.0
194410.4,199769.4,285576.0,344976.7,202832.8,229709.0,372373.2,230737.8,0.0
194666.1,199937.0,285866.4,345379.3,203155.4,230058.5,372806.3,231126.3,0.0
194164.7,199549.0,285456.3,344935.6,202747.2,229686.6,372439.2,230728.7,0.0
193607.0,199148.3,284912.9,344246.6,202177.1,229111.4,371785.8,230096.1,0.0
193753.9,199283.1,284974.6,344239.5,202222.4,229118.8,371741.1,230091.7,0.0
194410.7,199773.5,285560.6,344917.5,202827.3,229709.0,372377.7,230728.3,0.0
194660.4,199933.6,285847.4,345317.3,203151.7,230059.7,372806.8,231116.1,0.0
194164.9,199553.4,285441.8,344877.7,202751.1,229693.6,372441.9,230725.8,0.0
193603.9,199151.3,284895.7,344186.8,202179.1,229115.9,371784.3,230094.2,0.0
193752.3,199284.6,284958.9,344180.0,202229.9,229125.9,371742.0,230095.9,0.0
194406.8,199770.5,285539.3,344853.1,202834.8,229712.8,372375.9,230730.7,0.0
194663.0,199937.9,285830.1,345263.3,203162.7,230067.3,372813.3,231124.0,0.0
194160.6,199545.3,285421.2,344826.3,202759.5,229695.6,372449.3,230730.9,0.0
193600.7,199141.8,284874.9,344137.7,202190.3,229115.4,371792.6,230099.0,0.0
193752.0,199278.1,284936.1,344125.3,202235.6,229120.0,371743.9,230092.7,0.0
194410.7,199767.2,285518.7,344797.7,202838.8,229703.6,372374.4,230724.8,0.0
194670.0,199935.8,285811.4,345204.2,203167.6,230056.1,372810.7,231118.1,0.0
194171.3,199550.2,285404.4,344763.7,202766.9,229688.2,372451.2,230729.3,0.0
193610.0,199147.4,284859.3,344068.9,202193.3,229110.7,371796.5,230099.4,0.0
193747.4,199272.5,284914.8,344048.8,202229.3,229111.1,371742.9,230091.4,0.0
194408.8,199764.7,285498.9,344722.8,202829.8,229697.4,372376.7,230729.2,0.0
194661.6,199928.2,285790.2,345133.0,203156.3,230050.1,372815.5,231128.8,0.0
194171.0,199548.4,285390.8,344707.1,202764.4,229691.5,372465.1,230754.0,0.0
193612.9,199148.3,284846.1,344019.8,202193.9,229115.9,371813.1,230129.4,0.0
193759.6,199283.0,284903.5,344009.1,202235.8,229122.3,371765.5,230132.3,0.0
194411.5,199768.5,285482.7,344680.8,202836.7,229707.0,372400.0,230771.4,0.0
194664.4,199932.4,285772.5,345089.1,203162.5,230060.1,372837.9,231170.8,0.0
194166.0,199544.1,285366.1,344656.4,202762.9,229695.0,372479.0,230790.6,0.0
193602.1,199138.9,284816.7,343963.2,202188.4,229118.0,371823.0,230165.7,0.0
193740.4,199266.3,284869.8,343944.1,202225.1,229118.2,371770.0,230159.6,0.0
194398.8,199757.8,285457.1,344619.9,202830.2,229705.7,372406.1,230800.3,0.0
194658.3,199925.9,285756.3,345033.4,203161.8,230062.0,372850.7,231205.1,0.0
194166.2,199543.6,285356.6,344604.8,202766.4,229698.6,372499.0,230828.2,0.0
193609.6,199147.1,284816.2,343922.8,202200.7,229127.4,371853.8,230210.0,0.0
193746.1,199275.1,284870.6,343908.3,202240.7,229128.5,371803.2,230205.6,0.0
194398.0,199756.6,285449.1,344580.5,202840.1,229707.9,372432.8,230839.5,0.0
194660.1,199924.9,285745.8,344992.2,203169.7,230065.5,372874.3,231239.9,0.0
194165.5,199538.4,285342.2,344557.3,202772.6,229701.7,372518.2,230856.5,0.0
193610.1,199140.1,284802.6,343870.6,202208.4,229129.8,371870.1,230233.7,0.0
193746.5,199264.1,284851.8,343844.2,202239.8,229125.6,371811.3,230218.7,0.0
194401.9,199751.4,285427.7,344511.5,202837.4,229706.8,372435.5,230847.3,0.0
194665.9,199924.5,285724.4,344927.7,203171.9,230067.3,372879.7,231248.9,0.0
194180.2,199549.5,285328.2,344502.3,202782.5,229712.1,372531.0,230870.8,0.0
193607.3,199139.6,284771.5,343801.9,202200.8,229124.6,371866.3,230229.1,0.0
193736.8,199262.9,284819.9,343778.0,202231.2,229118.0,371810.1,230212.2,0.0
194392.1,199749.6,285400.6,344446.2,202829.8,229698.5,372438.4,230841.3,0.0
194664.8,199928.3,285705.9,344869.9,203168.5,230062.9,372888.7,231247.0,0.0
194181.0,199553.3,285312.4,344449.0,202780.6,229707.9,372544.0,230869.4,0.0
193621.2,199152.1,284769.1,343765.3,202212.0,229135.5,371895.1,230241.8,0.0
193741.1,199262.1,284807.1,343730.9,202234.2,229119.1,371823.5,230214.1,0.0
194398.3,199753.8,285391.3,344402.8,202838.4,229701.2,372452.3,230846.0,0.0
194658.8,199922.6,285687.3,344819.5,203170.9,230057.5,372895.9,231245.3,0.0
194172.8,199545.0,285290.9,344396.2,202779.6,229698.1,372549.8,230864.5,0.0
193608.8,199138.4,284741.7,343703.1,202203.5,229117.5,371894.4,230228.8,0.0
193728.7,199252.0,284779.6,343669.3,202226.9,229103.0,371824.7,230200.1,0.0
194389.6,199746.6,285363.1,344344.7,202832.0,229687.7,372456.0,230831.9,0.0
194667.7,199929.8,285670.6,344770.0,203174.1,230053.8,372909.9,231239.9,0.0
194196.6,199565.1,285288.8,344358.7,202796.8,229710.3,372577.6,230875.0,0.0
193625.0,199151.2,284737.0,343660.6,202217.9,229128.0,371918.5,230238.1,0.0
193739.5,199259.4,284765.9,343614.6,202228.0,229101.9,371836.1,230199.1,0.0
194399.2,199755.0,285346.2,344282.9,202829.7,229683.3,372460.0,230827.6,0.0
194669.3,199933.2,285652.2,344709.1,203171.1,230048.5,372910.5,231234.7,0.0
194182.4,199553.0,285257.5,344290.3,202781.7,229694.2,372565.5,230856.5,0.0
193615.6,199145.6,284709.7,343600.8,202206.7,229118.0,371912.3,230221.9,0.0
193741.6,199264.9,284752.1,343570.1,202229.7,229107.7,371847.6,230196.4,0.0
194384.3,199739.9,285318.3,344224.8,202816.0,229675.8,372458.1,230806.7,0.0
194659.8,199918.1,285626.7,344649.7,203158.9,230044.1,372907.8,231211.0,0.0
194186.1,199548.4,285242.5,344238.5,202781.3,229701.5,372573.8,230842.8,0.0
193612.3,199133.2,284687.1,343537.7,202200.1,229116.5,371912.6,230200.4,0.0
193734.5,199251.7,284721.7,343495.6,202215.9,229095.6,371836.7,230165.6,0.0
194388.7,199737.7,285297.1,344155.3,202807.9,229670.1,372453.5,230784.6,0.0
194673.9,199926.3,285616.3,344594.0,203160.1,230050.3,372917.8,231203.9,0.0
194195.3,199557.2,285236.1,344187.4,202784.8,229711.4,372588.7,230840.7,0.0
193614.8,199139.0,284675.5,343478.9,202198.5,229118.6,371918.4,230190.2,0.0
193733.7,199252.0,284711.2,343437.1,202214.9,229099.7,371841.0,230154.2,0.0
194387.4,199737.7,285287.0,344100.0,202807.9,229676.3,372460.5,230774.9,0.0
194666.9,199922.8,285599.1,344531.3,203156.3,230047.8,372918.8,231187.0,0.0
194189.6,199550.9,285214.2,344124.2,202778.6,229704.9,372588.9,230822.0,0.0
193620.6,199141.9,284660.9,343427.9,202201.3,229122.5,371930.7,230185.7,0.0
193737.9,199254.8,284692.0,343384.2,202216.8,229098.5,371851.4,230150.8,0.0
194390.1,199740.8,285269.3,344048.2,202815.1,229675.5,372470.8,230774.0,0.0
194675.3,199927.9,285585.4,344485.6,203165.8,230052.5,372931.0,231191.2,0.0
194193.3,199554.2,285197.4,344077.8,202782.9,229706.1,372594.5,230824.2,0.0
193614.3,199138.5,284643.1,343383.8,202205.9,229123.0,371936.3,230189.4,0.0
193730.9,199254.7,284675.3,343338.4,202219.4,229097.9,371856.5,230154.5,0.0
194382.5,199741.2,285250.7,343999.5,202812.4,229672.1,372473.9,230777.8,0.0
194665.5,199926.3,285563.1,344430.0,203162.2,230042.5,372929.8,231190.7,0.0
194196.3,199563.4,285185.8,344028.5,202791.5,229704.2,372601.9,230833.0,0.0
193632.6,199159.7,284642.3,343339.6,202221.6,229130.5,371950.8,230205.3,0.0
193746.9,199268.1,284676.1,343294.8,202234.9,229107.9,371872.0,230168.6,0.0
194400.6,199754.8,285252.3,343957.3,202829.0,229684.8,372492.2,230792.0,0.0
194676.5,199935.4,285560.3,344385.7,203172.4,230054.5,372945.8,231203.5,0.0
194198.7,199563.6,285175.7,343978.3,202795.4,229712.4,372612.8,230840.3,0.0
193619.1,199145.1,284620.1,343278.0,202214.6,229127.2,371950.4,230199.6,0.0
193736.8,199260.5,284653.7,343234.4,202228.3,229104.3,371870.5,230163.8,0.0
194386.2,199744.5,285225.1,343896.6,202820.5,229678.0,372485.0,230785.7,0.0
194671.1,199928.5,285536.7,344328.7,203168.8,230050.8,372942.1,231201.2,0.0
194204.1,199566.5,285160.7,343930.6,202802.1,229717.4,372620.2,230846.4,0.0
193619.6,199145.1,284597.3,343226.2,202215.2,229126.1,371951.9,230199.5,0.0
193717.3,199243.8,284616.3,343171.2,202216.2,229091.4,371861.3,230150.7,0.0
194370.4,199734.0,285191.1,343835.7,202807.9,229666.0,372480.5,230769.9,0.0
194653.0,199919.0,285505.2,344271.8,203156.7,230039.5,372940.9,231183.1,0.0
194186.2,199554.2,285130.0,343875.6,202787.8,229704.6,372619.8,230826.8,0.0
193617.3,199143.8,284581.3,343183.6,202208.1,229125.2,371965.6,230191.3,0.0
193723.4,199248.6,284606.2,343129.0,202208.7,229092.1,371877.7,230144.6,0.0
194375.1,199735.8,285179.6,343790.3,202799.3,229665.6,372496.1,230764.0,0.0
194669.6,199929.0,285501.8,344235.4,203157.8,230048.5,372965.0,231187.8,0.0
194200.4,199560.8,285124.8,343836.2,202788.1,229712.9,372641.8,230828.4,0.0
193619.6,199146.4,284568.2,343137.5,202206.8,229129.8,371984.4,230188.6,0.0
193725.4,199254.5,284597.0,343088.1,202216.3,229103.5,371901.4,230145.5,0.0
194383.1,199744.8,285174.8,343751.2,202811.6,229679.0,372517.9,230763.7,0.0
194672.5,199933.1,285491.1,344188.0,203163.2,230055.3,372980.5,231180.4,0.0
194203.3,199565.9,285110.7,343788.9,202792.7,229719.4,372657.3,230823.0,0.0
193627.1,199149.3,284552.2,343086.3,202207.1,229130.3,371993.0,230178.1,0.0
193733.0,199251.8,284573.8,343027.0,202205.8,229094.8,371898.5,230126.7,0.0
194380.3,199732.9,285143.5,343682.5,202793.2,229663.7,372509.7,230741.3,0.0
194664.8,199917.5,285462.2,344120.2,203146.2,230041.4,372975.8,231162.8,0.0
194197.5,199552.5,285087.8,343725.1,202779.5,229706.8,372656.4,230809.4,0.0
193626.6,199144.0,284535.8,343030.1,202202.3,229124.3,372001.7,230173.6,0.0
193724.6,199243.3,284550.1,342964.6,202199.1,229083.6,371904.5,230117.3,0.0
194374.3,199730.1,285123.9,343620.3,202790.0,229653.7,372517.8,230734.0,0.0
194668.1,199924.2,285448.0,344061.4,203146.4,230035.1,372981.8,231154.5,0.0
194204.9,199561.4,285079.0,343669.3,202784.2,229709.0,372663.4,230805.6,0.0
193622.5,199141.6,284521.6,342969.0,202197.8,229121.8,372002.0,230165.1,0.0
193724.3,199245.5,284543.6,342912.2,202197.6,229087.8,371910.6,230114.8,0.0
194367.0,199724.8,285104.5,343557.8,202778.7,229647.1,372511.1,230719.7,0.0
194674.9,199933.8,285441.2,344015.5,203151.8,230040.6,372989.5,231156.0,0.0
194211.5,199572.8,285069.5,343625.5,202790.4,229710.9,372673.2,230805.8,0.0
193629.9,199152.2,284509.8,342923.0,202205.3,229124.9,372011.4,230162.5,0.0
193732.1,199249.4,284529.6,342863.1,202204.3,229090.1,371917.1,230110.7,0.0
194381.7,199734.6,285100.2,343516.9,202789.3,229658.3,372525.3,230723.2,0.0
194675.6,199929.5,285425.8,343960.3,203147.1,230042.0,372992.7,231147.3,0.0
194217.5,199571.5,285059.5,343571.6,202787.8,229717.4,372679.8,230801.5,0.0
193639.3,199157.9,284500.1,342870.9,202205.5,229131.9,372016.7,230158.2,0.0
193737.0,199258.3,284515.0,342805.8,202200.2,229093.9,371917.4,230100.4,0.0
194389.6,199744.4,285091.4,343463.7,202790.5,229665.2,372528.8,230717.0,0.0
194689.0,199937.8,285426.1,343918.3,203158.3,230057.0,373005.8,231151.9,0.0
194240.7,199588.8,285067.4,343542.8,202805.7,229743.1,372703.0,230816.6,0.0
193654.9,199166.2,284505.1,342840.7,202215.6,229152.4,372037.3,230172.4,0.0
193741.3,199255.4,284511.9,342767.4,202200.5,229099.9,371928.5,230106.1,0.0
194399.5,199749.2,285091.1,343433.1,202798.1,229678.4,372547.5,230729.1,0.0
194702.1,199948.6,285423.2,343888.4,203166.3,230069.6,373025.7,231164.1,0.0
194246.3,199590.2,285054.8,343503.5,202803.9,229741.0,372715.6,230818.3,0.0
193651.6,199154.4,284484.0,342791.4,202207.8,229141.9,372043.7,230165.7,0.0
193726.1,199232.1,284477.7,342704.4,202184.9,229081.5,371923.8,230089.0,0.0
194378.1,199720.1,285046.8,343356.1,202769.0,229648.1,372528.4,230699.0,0.0
194685.7,199923.5,285385.6,343816.2,203139.9,230044.6,373009.3,231137.9,0.0
194235.5,199571.8,285027.1,343442.5,202791.3,229731.8,372710.1,230804.4,0.0
193652.9,199156.2,284467.4,342741.8,202207.8,229145.5,372048.9,230162.1,0.0
193733.7,199239.7,284471.1,342663.3,202189.9,229089.3,371936.6,230093.5,0.0
194373.3,199710.5,285035.0,343308.8,202770.9,229648.1,372536.0,230697.8,0.0
194695.1,199930.4,285379.8,343778.0,203153.6,230053.5,373023.8,231142.8,0.0
194250.9,199586.3,285023.8,343409.0,202807.3,229743.6,372729.7,230812.1,0.0
193662.2,199160.0,284458.3,342701.7,202216.1,229152.4,372064.4,230164.9,0.0
193736.4,199235.3,284454.0,342614.0,202192.8,229091.4,371943.8,230087.5,0.0
194388.3,199726.4,285024.4,343265.7,202780.0,229655.6,372547.7,230697.2,0.0
194700.6,199937.1,285365.0,343729.5,203154.5,230052.9,373029.3,231137.1,0.0
194250.3,199586.3,285005.5,343354.4,202802.4,229736.9,372726.3,230801.1,0.0
193665.9,199165.9,284445.4,342651.6,202215.0,229150.2,372065.5,230157.5,0.0
193743.7,199247.4,284446.6,342569.4,202194.6,229095.6,371950.8,230087.5,0.0
194393.4,199740.0,285017.9,343219.6,202780.0,229661.9,372555.1,230698.7,0.0
194707.5,199953.3,285362.7,343683.9,203158.9,230064.2,373041.1,231144.0,0.0
194246.6,199588.1,284997.4,343304.8,202801.7,229743.9,372734.0,230807.2,0.0
193655.0,199158.9,284432.2,342598.1,202208.6,229151.3,372067.8,230161.2,0.0
193739.3,199252.1,284434.5,342515.8,202191.5,229098.0,371951.9,230088.3,0.0
194374.3,199723.7,284989.9,343151.6,202769.2,229650.1,372541.5,230684.1,0.0
194679.0,199925.8,285324.9,343610.8,203143.0,230046.0,373021.0,231123.8,0.0
194237.6,199584.1,284971.2,343243.3,202801.1,229738.5,372727.4,230798.7,0.0
193650.7,199161.7,284405.2,342536.3,202212.6,229146.2,372060.5,230152.6,0.0
193723.6,199239.8,284402.0,342449.4,202189.3,229085.6,371940.6,230076.4,0.0
194367.3,199719.4,284970.8,343098.9,202774.4,229650.8,372542.4,230685.1,0.0
194686.7,199934.8,285319.9,343569.4,203155.6,230056.3,373031.8,231133.1,0.0
194249.1,199594.7,284972.1,343206.2,202815.1,229750.7,372740.4,230808.9,0.0
193659.8,199170.9,284409.7,342500.6,202227.5,229159.2,372077.5,230166.8,0.0
193727.6,199247.8,284399.8,342404.7,202198.4,229091.4,371952.8,230086.6,0.0
194365.8,199723.0,284959.9,343047.7,202775.4,229647.7,372548.4,230693.1,0.0
194686.3,199940.5,285304.9,343517.0,203154.8,230049.4,373036.0,231144.8,0.0
194248.0,199600.1,284956.5,343155.0,202817.3,229744.0,372747.6,230829.4,0.0
193652.7,199171.0,284388.1,342446.7,202225.1,229151.3,372081.1,230189.3,0.0
193719.8,199246.2,284374.9,342352.1,202190.7,229082.7,371952.3,230111.5,0.0
194363.0,199729.2,284938.7,342998.0,202772.2,229642.6,372550.5,230726.6,0.0
194686.9,199948.3,285288.6,343474.7,203159.0,230053.6,373046.6,231190.6,0.0
194241.8,199597.2,284934.0,343110.6,202814.3,229746.9,372756.4,230872.6,0.0
193655.4,199175.5,284373.6,342414.9,202231.5,229164.0,372102.0,230243.6,0.0
193716.0,199242.8,284356.6,342319.3,202196.8,229095.1,371973.1,230165.2,0.0
194359.9,199724.7,284916.6,342963.0,202772.2,229649.7,372569.3,230770.9,0.0
194687.5,199943.7,285269.2,343442.0,203157.2,230057.0,373067.2,231230.1,0.0
194246.1,199594.8,284922.1,343085.6,202814.4,229749.9,372783.0,230915.8,0.0
193651.9,199163.7,284356.3,342382.5,202223.0,229157.3,372120.3,230275.6,0.0
193716.8,199232.5,284343.5,342287.0,202188.2,229086.8,371990.8,230194.1,0.0
194363.6,199715.9,284913.3,342936.5,202774.0,229649.9,372595.4,230808.2,0.0
194695.9,199940.2,285270.7,343416.3,203164.7,230061.0,373095.3,231270.2,0.0
194255.6,199593.5,284921.0,343055.6,202825.9,229755.1,372808.6,230951.3,0.0
193657.8,199160.0,284349.1,342346.0,202231.8,229159.1,372140.6,230302.4,0.0
193718.6,199230.8,284332.1,342245.4,202193.4,229086.3,372006.3,230213.0,0.0
194358.8,199710.3,284892.1,342882.2,202765.7,229639.2,372596.7,230812.9,0.0
194688.0,199931.0,285245.0,343356.2,203152.7,230049.4,373091.2,231267.3,0.0
194261.1,199598.9,284906.9,343003.5,202822.7,229754.8,372812.7,230955.6,0.0
193664.1,199169.1,284337.3,342293.1,202228.8,229160.3,372144.7,230308.4,0.0
193721.0,199237.0,284318.5,342190.6,202190.1,229085.5,372008.4,230217.3,0.0
194362.6,199719.3,284882.3,342836.8,202770.3,229645.0,372605.2,230820.2,0.0
194692.9,199943.9,285237.7,343318.3,203160.4,230059.5,373107.4,231279.8,0.0
194253.6,199601.2,284895.0,342966.9,202825.9,229761.1,372829.5,230966.7,0.0
193655.4,199170.8,284326.5,342260.8,202232.1,229166.0,372164.1,230319.0,0.0
193715.7,199240.2,284304.4,342151.5,202190.8,229085.2,372025.0,230223.5,0.0
194356.2,199717.9,284864.1,342787.1,202766.7,229637.2,372615.5,230822.5,0.0
194691.4,199940.7,285223.0,343270.0,203159.6,230053.4,373116.2,231284.2,0.0
194263.3,199599.8,284887.4,342923.9,202832.2,229763.9,372843.8,230978.6,0.0
193662.8,199163.8,284313.5,342213.2,202235.1,229165.6,372175.3,230327.4,0.0
193712.6,199223.7,284285.9,342100.1,202186.2,229078.5,372029.5,230224.2,0.0
194349.9,199697.0,284840.7,342734.4,202756.4,229625.4,372615.4,230817.5,0.0
194684.2,199921.4,285196.8,343218.3,203147.2,230040.1,373118.3,231277.8,0.0
194263.2,199594.1,284867.2,342879.4,202825.5,229755.1,372851.3,230975.2,0.0
193664.1,199165.5,284296.5,342169.4,202228.3,229158.9,372180.6,230324.2,0.0
193709.7,199225.0,284267.3,342052.4,202176.7,229072.2,372031.0,230220.5,0.0
194336.8,199694.5,284818.3,342681.2,202743.2,229617.5,372612.4,230809.2,0.0
194674.8,199925.7,285182.3,343171.9,203140.5,230038.4,373120.2,231273.4,0.0
194258.0,199601.4,284854.4,342834.1,202820.5,229755.3,372856.5,230975.3,0.0
193664.0,199174.3,284287.5,342125.8,202225.8,229164.5,372192.3,230327.9,0.0
193713.8,199237.6,284261.6,342014.0,202180.8,229083.1,372048.6,230225.2,0.0
194354.4,199720.3,284819.9,342653.1,202759.7,229639.2,372638.1,230821.5,0.0
194684.2,199940.8,285171.6,343132.8,203148.0,230049.8,373134.6,231276.7,0.0
194257.3,199608.8,284835.4,342788.0,202824.2,229759.9,372864.9,230971.0,0.0
193658.5,199179.8,284263.5,342074.0,202230.6,229164.0,372197.2,230317.0,0.0
193709.9,199244.3,284238.5,341960.4,202184.9,229082.4,372052.8,230215.0,0.0
194344.8,199716.5,284793.5,342591.6,202756.0,229629.9,372635.3,230805.6,0.0
194689.8,199948.9,285161.2,343083.9,203157.3,230054.5,373144.9,231271.2,0.0
194267.0,199614.1,284827.9,342741.2,202831.8,229764.2,372875.5,230962.3,0.0
193665.5,199177.8,284256.6,342029.9,202233.4,229166.9,372205.2,230306.9,0.0
193709.7,199234.2,284223.9,341911.1,202178.6,229077.8,372052.8,230196.7,0.0
194347.4,199712.5,284778.5,342542.4,202746.7,229623.9,372634.9,230785.6,0.0
194683.7,199936.9,285140.6,343029.9,203140.6,230040.0,373137.0,231249.1,0.0
194257.0,199599.9,284807.4,342691.1,202815.8,229751.9,372871.4,230949.0,0.0
193650.5,199161.1,284229.8,341978.0,202216.3,229152.6,372201.3,230294.1,0.0
193692.5,199217.0,284193.0,341855.0,202158.0,229056.8,372044.3,230179.9,0.0
194324.6,199688.5,284743.3,342484.3,202725.3,229601.2,372623.9,230766.7,0.0
194674.8,199924.7,285110.7,342979.6,203129.8,230028.0,373134.5,231235.5,0.0
194261.5,199599.6,284787.9,342650.2,202816.4,229751.6,372877.9,230942.6,0.0
193658.5,199164.4,284215.3,341937.4,202219.5,229156.9,372210.3,230289.9,0.0
193696.9,199218.7,284178.4,341810.3,202159.9,229063.3,372052.5,230176.0,0.0
194337.6,199701.4,284733.0,342438.4,202727.7,229609.8,372631.4,230765.8,0.0
194686.3,199939.4,285103.8,342933.6,203134.5,230036.8,373144.2,231239.5,0.0
194270.7,199616.8,284782.8,342606.9,202825.5,229763.3,372892.0,230951.0,0.0
193669.7,199185.0,284215.3,341899.2,202232.6,229172.2,372228.5,230303.9,0.0
193706.0,199238.0,284178.3,341771.0,202173.1,229076.5,372069.5,230188.0,0.0
194346.8,199718.6,284740.0,342409.6,202750.2,229630.5,372658.7,230785.4,0.0
194697.0,199953.1,285110.3,342909.4,203157.3,230057.5,373174.1,231259.9,0.0
194273.7,199615.7,284775.6,342571.0,202836.6,229769.6,372907.4,230959.8,0.0
193668.3,199178.9,284197.4,341854.8,202233.3,229166.8,372232.8,230303.4,0.0
193702.0,199230.3,284154.0,341722.5,202169.2,229065.9,372070.6,230184.8,0.0
194340.0,199707.9,284709.0,342353.9,202741.3,229613.1,372652.3,230775.2,0.0
194694.9,199948.8,285082.8,342853.8,203149.1,230040.9,373166.1,231250.2,0.0
194274.8,199615.2,284756.7,342523.3,202831.8,229760.8,372907.5,230956.1,0.0
193665.3,199173.5,284181.1,341811.3,202233.1,229163.2,372236.0,230301.8,0.0
193696.7,199221.9,284135.7,341677.6,202166.9,229062.1,372067.4,230179.8,0.0
194322.6,199690.1,284676.9,342296.4,202727.0,229596.0,372634.4,230755.6,0.0
194679.7,199933.9,285055.7,342800.3,203141.6,230030.0,373152.4,231232.3,0.0
194285.0,199627.5,284751.0,342490.9,202843.9,229769.4,372914.2,230955.5,0.0
193674.1,199184.5,284174.2,341776.5,202240.4,229167.0,372242.3,230297.6,0.0
193694.9,199223.7,284125.9,341637.3,202169.4,229059.4,372071.5,230169.9,0.0
194318.8,199690.7,284669.8,342258.7,202729.3,229593.7,372642.5,230749.9,0.0
194682.5,199940.1,285051.3,342768.4,203146.4,230032.9,373168.7,231234.7,0.0
194277.5,199621.7,284738.9,342451.4,202848.2,229769.4,372926.5,230953.8,0.0
193667.9,199179.4,284162.8,341740.7,202250.8,229171.9,372259.0,230300.0,0.0
193708.9,199242.3,284125.4,341615.0,202192.8,229076.2,372100.1,230185.3,0.0
194350.9,199723.4,284685.6,342248.4,202764.7,229625.2,372682.0,230775.8,0.0
194691.0,199944.0,285044.0,342734.6,203157.8,230038.2,373181.2,231234.3,0.0
194265.2,199602.3,284709.9,342399.5,202834.3,229751.7,372915.4,230932.7,0.0
193664.1,199168.8,284137.2,341688.3,202236.4,229154.0,372246.6,230279.6,0.0
193695.2,199219.9,284094.3,341555.2,202174.1,229056.3,372085.1,230159.9,0.0
194333.9,199703.9,284651.8,342185.2,202747.0,229603.3,372668.8,230750.6,0.0
194695.0,199951.5,285035.4,342693.9,203163.2,230039.1,373192.0,231232.2,0.0
194287.4,199628.1,284721.5,342377.0,202858.1,229770.6,372946.5,230948.1,0.0
193674.4,199180.9,284140.4,341658.3,202252.4,229166.0,372274.0,230288.2,0.0
193693.5,199217.8,284083.2,341509.3,202173.1,229050.7,372094.9,230151.5,0.0
194323.8,199690.0,284631.1,342129.8,202737.3,229588.9,372664.7,230731.6,0.0
194692.6,199946.1,285020.9,342646.3,203162.3,230031.2,373193.2,231220.2,0.0
194292.4,199634.3,284710.8,342334.3,202864.5,229767.5,372952.9,230941.5,0.0
193681.4,199193.5,284133.5,341620.2,202263.3,229166.5,372281.4,230284.0,0.0
193705.7,199236.7,284084.3,341478.9,202192.4,229059.9,372108.6,230154.8,0.0
194339.8,199711.5,284634.6,342103.1,202757.8,229603.7,372682.4,230739.1,0.0
194692.5,199946.2,285007.4,342605.8,203165.8,230033.6,373198.0,231213.1,0.0
194293.9,199631.2,284702.4,342299.7,202870.5,229777.6,372964.3,230940.1,0.0
193682.9,199190.9,284121.3,341580.6,202264.0,229174.1,372291.3,230279.8,0.0
193700.9,199233.2,284066.2,341432.6,202188.8,229062.0,372114.1,230145.0,0.0
194334.9,199711.1,284617.2,342056.7,202754.6,229605.8,372689.5,230728.8,0.0
194697.1,199956.8,284997.5,342564.2,203169.7,230040.0,373211.2,231209.8,0.0
194296.3,199640.2,284690.1,342254.8,202869.3,229776.8,372973.8,230933.4,0.0
193680.8,199189.1,284110.4,341539.7,202263.7,229174.4,372301.8,230276.2,0.0
193703.7,199234.9,284057.7,341392.2,202187.0,229063.5,372124.5,230142.2,0.0
194336.4,199711.9,284605.0,342008.9,202750.3,229602.1,372692.8,230718.4,0.0
194691.4,199949.4,284977.4,342510.2,203159.8,230032.6,373208.2,231191.8,0.0
194289.8,199631.4,284666.8,342198.8,202863.5,229770.6,372969.7,230914.6,0.0
193679.9,199189.0,284088.4,341484.6,202264.4,229169.3,372299.8,230259.5,0.0
193694.1,199222.4,284031.4,341337.3,202188.7,229053.4,372120.6,230124.5,0.0
194333.0,199705.6,284587.3,341963.8,202758.3,229596.6,372693.3,230710.6,0.0
194711.1,199965.8,284986.4,342488.9,203190.7,230050.3,373231.5,231209.4,0.0
194316.6,199654.5,284685.8,342185.7,202898.9,229797.8,373001.5,230941.5,0.0
193690.3,199198.0,284096.8,341461.6,202287.0,229189.7,372321.2,230275.5,0.0
193693.3,199224.1,284029.9,341303.4,202200.0,229066.3,372130.5,230129.4,0.0
194325.0,199698.0,284574.3,341918.2,202759.2,229598.4,372694.4,230703.8,0.0
194695.5,199947.4,284959.7,342430.2,203180.3,230037.1,373218.3,231189.0,0.0
194295.7,199631.3,284650.7,342119.8,202880.4,229772.7,372978.3,230910.4,0.0
193683.0,199188.5,284070.8,341404.8,202276.2,229173.0,372308.2,230253.6,0.0
193696.6,199225.3,284007.2,341248.3,202192.7,229056.1,372121.7,230111.9,0.0
194331.7,199704.4,284556.4,341868.2,202755.4,229595.6,372690.8,230691.6,0.0
194703.0,199958.4,284948.1,342388.0,203179.9,230040.6,373221.5,231182.5,0.0
194304.6,199642.8,284644.0,342085.3,202884.6,229783.8,372990.1,230912.0,0.0
193684.9,199194.9,284062.3,341363.8,202275.8,229179.4,372315.1,230249.4,0.0
193699.5,199235.9,284006.0,341210.0,202193.7,229065.3,372131.0,230109.4,0.0
194332.3,199714.7,284556.6,341832.0,202756.0,229605.1,372698.9,230690.2,0.0
194701.9,199966.4,284945.1,342348.8,203179.5,230047.4,373226.2,231180.4,0.0
194308.3,199653.5,284641.3,342046.2,202888.8,229791.5,372994.5,230912.0,0.0
193692.2,199205.7,284060.8,341328.8,202285.9,229190.2,372323.2,230254.8,0.0
193697.9,199236.1,283994.7,341168.1,202198.7,229068.5,372134.9,230110.6,0.0
194325.5,199708.5,284536.8,341781.1,202757.2,229601.6,372698.6,230686.9,0.0
194701.7,199965.0,284929.4,342300.1,203182.4,230047.0,373230.0,231181.4,0.0
194311.7,199656.0,284631.3,342003.7,202894.8,229797.8,373004.1,230919.1,0.0
193700.0,199213.2,284054.4,341291.3,202292.6,229201.4,372337.0,230266.0,0.0
193693.3,199230.7,283977.4,341119.7,202190.6,229066.6,372133.1,230107.5,0.0
194317.4,199699.3,284516.2,341726.4,202741.2,229592.8,372686.8,230673.0,0.0
194700.8,199962.2,284913.1,342252.1,203170.4,230043.7,373222.7,231170.4,0.0
194314.2,199657.2,284619.2,341961.2,202886.2,229799.5,373001.1,230910.6,0.0
193694.8,199204.8,284038.1,341246.3,202280.6,229198.9,372333.5,230254.5,0.0
193680.6,199213.8,283952.2,341066.7,202173.1,229056.8,372127.3,230091.2,0.0
194311.5,199689.9,284497.1,341681.3,202731.6,229591.3,372693.7,230666.1,0.0
194701.4,199959.3,284902.2,342214.5,203168.6,230049.9,373240.4,231170.5,0.0
194318.9,199654.4,284610.5,341925.5,202886.9,229805.8,373023.0,230914.5,0.0
193698.8,199202.8,284025.4,341205.4,202280.4,229201.0,372349.7,230255.3,0.0
193685.1,199218.1,283944.2,341030.9,202178.8,229064.4,372145.8,230096.7,0.0
194309.9,199689.5,284481.5,341639.4,202731.3,229593.9,372704.7,230669.4,0.0
194695.1,199956.8,284884.9,342169.7,203168.7,230052.1,373248.8,231177.2,0.0
194312.8,199654.8,284595.1,341881.8,202892.5,229810.5,373033.3,230927.6,0.0
193697.6,199210.2,284015.8,341167.3,202290.1,229209.8,372365.9,230278.0,0.0
193688.2,199227.7,283932.0,340987.9,202185.2,229068.8,372159.8,230121.9,0.0
194307.8,199692.8,284464.1,341589.6,202736.4,229592.2,372711.9,230692.8,0.0
194688.3,199953.1,284865.3,342121.4,203176.9,230050.2,373256.2,231206.9,0.0
194310.7,199658.8,284579.2,341838.6,202903.6,229813.0,373045.7,230965.3,0.0
193685.4,199202.9,283988.7,341115.0,202293.1,229206.4,372370.1,230307.9,0.0
193668.4,199209.0,283899.4,340930.4,202182.7,229063.4,372161.0,230146.9,0.0
