EEG 1,EEG 2,EEG 3,EEG 4,EEG 5,EEG 6,EEG 7,EEG 8,TRIG
200801.5,207411.1,217163.5,269442.1,212721.3,190972.9,190380.8,197749.0,0.0
200470.4,207107.0,216556.5,269128.3,212402.0,190707.0,190112.1,197427.3,0.0
200257.3,206804.3,215936.7,268880.3,211977.2,190459.2,189805.6,197117.0,0.0
200455.0,206922.8,215801.5,268960.3,212032.6,190569.1,189882.5,197240.3,0.0
200786.9,207294.6,215983.8,269179.9,212489.8,190883.5,190235.5,197630.4,0.0
200796.3,207415.3,215884.0,269162.3,212717.5,190964.7,190377.3,197745.7,0.0
200463.3,207109.0,215292.9,268850.7,212400.0,190699.6,190107.0,197423.5,0.0
200245.8,206796.7,214680.7,268592.9,211970.4,190451.1,189792.1,197104.7,0.0
200448.6,206919.4,214563.2,268681.4,212029.6,190570.3,189875.9,197237.4,0.0
200790.3,207308.7,214766.7,268914.6,212497.4,190891.3,190239.6,197635.1,0.0
200801.5,207425.7,214681.2,268910.4,212729.6,190972.8,190382.0,197751.6,0.0
200468.0,207115.2,214099.1,268600.8,212410.2,190702.7,190108.1,197426.1,0.0
200250.5,206807.6,213502.4,268342.1,211982.7,190454.2,189794.0,197109.4,0.0
200443.9,206925.2,213394.0,268421.6,212039.2,190568.6,189871.2,197239.8,0.0
200780.7,207306.5,213608.8,268656.3,212507.1,190887.4,190231.7,197637.6,0.0
200785.0,207414.7,213529.2,268645.3,212731.0,190962.0,190368.8,197745.9,0.0
200458.3,207110.3,212965.3,268345.8,212411.0,190698.3,190102.6,197425.6,0.0
200249.5,206809.5,212388.4,268108.8,211989.3,190456.8,189798.5,197118.1,0.0
200435.5,206917.8,212280.6,268172.0,212036.0,190561.7,189869.0,197235.0,0.0
200774.5,207296.2,212506.9,268407.4,212501.8,190882.8,190236.7,197633.9,0.0
200789.6,207419.2,212446.5,268403.8,212733.5,190968.0,190387.1,197751.2,0.0
200463.6,207116.3,211893.8,268097.1,212412.3,190700.3,190119.3,197424.6,0.0
200256.6,206820.5,211329.4,267858.8,211990.8,190457.1,189810.8,197110.9,0.0
200440.2,206924.9,211234.3,267941.6,212034.1,190557.0,189874.1,197229.9,0.0
200774.7,207305.7,211473.9,268180.6,212497.4,190874.5,190232.5,197634.9,0.0
200784.9,207424.7,211425.3,268165.8,212727.1,190956.3,190377.8,197748.8,0.0
200458.8,207122.2,210880.1,267868.3,212408.7,190691.6,190110.3,197424.3,0.0
200252.2,206825.5,210325.3,267634.1,211996.4,190457.3,189812.6,197120.1,0.0
200455.8,206953.2,210252.5,267727.9,212059.6,190575.9,189897.9,197253.8,0.0
200783.9,207324.2,210494.3,267960.6,212516.4,190887.1,190254.1,197645.7,0.0
200790.9,207441.8,210448.6,267957.6,212741.8,190965.5,190394.5,197759.7,0.0
200446.3,207128.2,209905.3,267641.7,212416.1,190691.8,190117.5,197427.4,0.0
200229.5,206819.2,209351.7,267393.6,211990.0,190446.0,189805.2,197110.1,0.0
200433.0,206943.0,209290.1,267494.3,212052.9,190566.9,189886.6,197243.0,0.0
200768.5,207318.0,209547.0,267739.8,212518.1,190886.2,190246.8,197641.2,0.0
200793.5,207450.6,209526.7,267755.0,212757.5,190979.7,190400.7,197766.5,0.0
200467.4,207149.2,209001.8,267452.0,212439.8,190717.3,190130.9,197441.2,0.0
200255.6,206847.1,208460.3,267203.7,212016.1,190472.5,189822.1,197126.6,0.0
200445.4,206955.2,208394.9,267288.3,212068.1,190579.0,189893.5,197246.4,0.0
200777.3,207331.0,208655.6,267529.9,212534.0,190895.1,190249.2,197641.5,0.0
200794.2,207459.8,208640.0,267550.1,212771.5,190983.4,190397.2,197767.3,0.0
200448.3,207135.2,208105.3,267223.9,212437.3,190703.0,190107.3,197423.2,0.0
200240.3,206833.4,207572.3,266983.9,212014.3,190458.7,189797.0,197105.8,0.0
200442.3,206954.0,207519.4,267077.5,212067.2,190571.5,189872.8,197230.8,0.0
200778.7,207335.6,207789.5,267314.9,212528.8,190886.1,190229.8,197622.6,0.0
200786.7,207452.5,207775.0,267319.8,212759.9,190968.5,190374.7,197739.2,0.0
200458.8,207148.9,207270.4,267030.6,212444.8,190704.8,190109.9,197419.3,0.0
200246.1,206844.7,206747.3,266797.8,212022.1,190461.1,189801.5,197108.2,0.0
200431.6,206948.0,206694.7,266873.6,212069.3,190565.3,189866.0,197225.2,0.0
200766.3,207323.5,206968.9,267115.1,212528.1,190877.8,190221.9,197619.5,0.0
200780.6,207447.5,206967.4,267124.7,212764.3,190965.2,190373.4,197739.5,0.0
200450.6,207139.8,206466.9,266829.7,212446.1,190699.6,190103.7,197415.6,0.0
200236.6,206830.5,205945.3,266594.1,212015.2,190449.5,189786.4,197098.6,0.0
200428.6,206945.0,205906.4,266684.8,212066.6,190561.9,189860.8,197225.2,0.0
200761.8,207325.0,206193.8,266929.6,212532.6,190881.3,190223.1,197625.5,0.0
200771.7,207440.5,206196.1,266934.9,212764.2,190966.5,190370.6,197747.5,0.0
200449.6,207141.8,205707.9,266646.8,212449.0,190704.0,190103.8,197427.6,0.0
200229.3,206829.3,205189.1,266409.7,212014.6,190452.0,189788.3,197105.4,0.0
200421.7,206942.4,205155.5,266503.7,212063.4,190562.1,189862.3,197230.8,0.0
200766.4,207333.0,205459.4,266759.5,212539.1,190889.8,190231.0,197638.7,0.0
200779.1,207451.3,205468.5,266766.8,212773.8,190977.2,190373.9,197760.3,0.0
200439.7,207131.4,204970.7,266455.0,212446.1,190704.8,190093.4,197420.8,0.0
200225.4,206823.2,204459.1,266214.8,212012.1,190455.3,189774.0,197096.3,0.0
200418.8,206933.0,204429.8,266315.2,212059.4,190562.6,189844.6,197217.9,0.0
200756.8,207314.4,204735.4,266562.8,212524.4,190882.9,190208.8,197617.7,0.0
200762.8,207427.2,204747.6,266563.3,212750.5,190959.8,190349.7,197729.9,0.0
200436.2,207125.2,204269.8,266276.2,212436.0,190697.1,190084.7,197408.9,0.0
200226.6,206822.6,203776.6,266062.9,212013.8,190453.4,189778.0,197099.3,0.0
200415.5,206936.3,203755.5,266150.8,212063.0,190559.6,189851.2,197221.8,0.0
200752.1,207316.2,204060.3,266386.5,212526.6,190874.4,190211.5,197615.9,0.0
200770.8,207441.5,204088.0,266401.6,212763.2,190962.0,190364.3,197737.2,0.0
200440.4,207137.0,203611.2,266110.4,212444.5,190698.3,190097.5,197413.6,0.0
200225.0,206831.1,203111.7,265878.1,212015.5,190450.5,189786.1,197096.3,0.0
200416.6,206941.9,203094.9,265976.7,212064.2,190558.6,189858.5,197220.7,0.0
200749.2,207317.6,203409.5,266228.9,212527.7,190874.0,190217.9,197618.8,0.0
200753.1,207424.4,203428.7,266229.3,212753.4,190949.6,190356.9,197731.2,0.0
200429.0,207124.5,202961.7,265948.3,212438.2,190687.8,190091.4,197412.2,0.0
200215.6,206822.6,202471.5,265715.6,212011.6,190443.0,189779.8,197094.5,0.0
200411.3,206940.1,202464.9,265817.6,212063.0,190555.3,189854.8,197221.9,0.0
200738.3,207313.7,202775.3,266054.4,212519.1,190865.0,190206.7,197609.3,0.0
200751.4,207433.8,202808.6,266067.0,212752.0,190948.9,190355.3,197731.5,0.0
200419.1,207123.7,202340.3,265782.6,212426.6,190680.1,190081.7,197405.2,0.0
200208.7,206822.8,201861.1,265553.1,212002.5,190437.6,189773.7,197092.6,0.0
200401.5,206938.2,201859.2,265644.3,212054.2,190547.9,189846.9,197213.6,0.0
200737.0,207318.6,202184.0,265893.9,212516.7,190866.4,190206.1,197606.3,0.0
200750.2,207440.8,202226.2,265909.6,212753.2,190955.9,190355.8,197725.5,0.0
200423.6,207138.5,201768.0,265624.9,212439.0,190694.5,190091.4,197405.0,0.0
200209.9,206831.4,201286.0,265393.5,212010.2,190443.7,189780.8,197086.0,0.0
200397.8,206938.1,201281.5,265489.7,212054.5,190545.1,189848.7,197206.6,0.0
200733.3,207313.6,201604.3,265736.3,212513.4,190855.5,190201.4,197598.5,0.0
200752.3,207436.3,201649.2,265753.8,212748.7,190944.5,190352.5,197718.4,0.0
200432.9,207138.6,201202.1,265474.9,212436.6,190690.2,190092.2,197403.4,0.0
200224.1,206836.6,200732.0,265256.1,212014.0,190453.4,189787.2,197094.0,0.0
200411.4,206945.8,200732.4,265357.5,212059.1,190559.3,189854.8,197216.1,0.0
200730.1,207309.4,201052.0,265592.8,212511.0,190863.0,190205.8,197604.0,0.0
200739.3,207429.5,201092.9,265594.4,212743.8,190940.5,190349.7,197714.5,0.0
200420.0,207131.6,200647.2,265318.0,212433.3,190680.6,190086.7,197399.0,0.0
200213.6,206833.5,200187.2,265098.1,212014.9,190441.5,189783.4,197093.1,0.0
200404.8,206944.5,200197.3,265203.6,212065.1,190546.9,189852.4,197215.1,0.0
200736.6,207314.6,200526.8,265454.3,212520.2,190856.0,190202.8,197602.6,0.0
200746.3,207432.0,200575.1,265460.8,212750.6,190939.3,190349.2,197718.1,0.0
200414.3,207125.2,200127.2,265172.1,212429.3,190670.8,190079.6,197394.9,0.0
200208.3,206825.9,199664.6,264956.7,212004.2,190426.9,189771.1,197081.1,0.0
200407.0,206940.6,199681.7,265063.3,212056.5,190538.2,189848.7,197204.8,0.0
200749.0,207322.5,200029.2,265323.8,212525.2,190862.0,190215.6,197606.7,0.0
200758.9,207435.2,200078.9,265334.7,212754.2,190942.0,190357.3,197722.6,0.0
200430.4,207125.9,199637.5,265054.3,212437.1,190678.6,190089.6,197400.3,0.0
200220.8,206826.5,199177.9,264829.6,212012.6,190433.3,189782.1,197086.4,0.0
200414.4,206941.8,199194.6,264925.3,212065.1,190542.7,189853.6,197207.7,0.0
200753.5,207327.7,199540.2,265185.2,212533.5,190863.3,190215.7,197607.0,0.0
200758.0,207444.0,199592.7,265194.2,212763.6,190947.1,190358.3,197723.0,0.0
200433.6,207139.4,199161.6,264921.8,212455.9,190695.2,190099.5,197410.8,0.0
200226.0,206840.2,198709.3,264699.1,212034.1,190454.0,189794.1,197098.9,0.0
200409.5,206949.8,198725.7,264796.3,212081.6,190558.7,189863.6,197216.7,0.0
200746.2,207333.5,199073.2,265054.5,212545.3,190877.9,190224.0,197611.8,0.0
200755.2,207451.8,199131.1,265075.0,212776.7,190964.5,190368.8,197731.7,0.0
200419.3,207138.2,198689.0,264788.0,212453.8,190693.7,190094.1,197407.8,0.0
200209.5,206832.3,198232.3,264561.4,212023.8,190443.2,189778.3,197085.6,0.0
200409.3,206947.8,198261.4,264682.1,212077.8,190559.0,189853.7,197215.6,0.0
200745.0,207323.9,198604.0,264933.8,212529.3,190869.4,190202.3,197605.0,0.0
200753.5,207440.4,198662.8,264941.8,212756.5,190951.5,190343.3,197718.5,0.0
200424.0,207136.3,198235.0,264664.0,212442.3,190688.8,190079.2,197400.8,0.0
200211.4,206833.6,197785.1,264441.5,212015.9,190442.8,189771.3,197087.0,0.0
200398.2,206938.8,197807.3,264537.9,212057.2,190547.9,189836.5,197200.6,0.0
200739.3,207324.7,198166.9,264800.1,212520.1,190868.3,190201.2,197598.9,0.0
200758.1,207453.1,198244.8,264818.0,212759.2,190958.4,190357.8,197723.5,0.0
200427.1,207141.8,197815.2,264537.6,212437.0,190689.1,190090.2,197396.8,0.0
200212.5,206833.6,197362.3,264319.0,212006.4,190438.2,189777.8,197077.7,0.0
200407.6,206945.7,197393.3,264422.9,212060.4,190549.5,189853.1,197204.4,0.0
200746.5,207330.1,197752.5,264678.3,212529.0,190872.1,190213.6,197605.3,0.0
200767.2,207460.4,197836.1,264707.5,212772.4,190968.9,190370.4,197738.8,0.0
200439.5,207155.8,197406.9,264422.3,212452.7,190702.7,190102.0,197412.3,0.0
200207.8,206828.7,196941.3,264185.8,212007.4,190438.9,189775.3,197078.8,0.0
200405.7,206944.3,196977.9,264300.3,212059.4,190549.7,189848.6,197205.1,0.0
200735.6,207316.5,197332.9,264551.2,212519.7,190863.2,190205.5,197599.3,0.0
200755.3,207442.8,197410.5,264575.9,212758.1,190952.8,190358.9,197725.6,0.0
200420.6,207132.9,196982.2,264293.1,212434.7,190681.2,190083.8,197395.8,0.0
200207.5,206828.8,196539.3,264073.3,212007.9,190435.5,189770.9,197079.6,0.0
200407.2,206953.2,196584.1,264189.1,212064.6,190553.9,189849.4,197209.5,0.0
200736.3,207328.1,196942.2,264445.9,212521.7,190867.5,190207.3,197602.7,0.0
200742.0,207444.1,197015.5,264453.3,212753.8,190948.5,190354.0,197718.8,0.0
200407.2,207134.4,196593.6,264169.3,212437.2,190680.8,190085.1,197393.2,0.0
200194.2,206830.4,196154.9,263946.7,212014.2,190434.9,189774.6,197077.0,0.0
200394.0,206950.4,196195.5,264057.8,212064.5,190544.8,189848.7,197204.4,0.0
200729.4,207328.4,196560.6,264318.5,212526.9,190860.2,190206.1,197600.0,0.0
200739.6,207444.7,196638.5,264337.7,212759.2,190943.5,190348.5,197716.7,0.0
200417.3,207141.7,196222.0,264067.9,212446.2,190682.2,190083.1,197398.1,0.0
200201.7,206833.5,195782.8,263846.5,212019.5,190437.0,189775.6,197081.1,0.0
200387.1,206936.9,195818.7,263946.7,212064.7,190541.8,189846.3,197198.8,0.0
200734.2,207325.7,196194.1,264218.7,212531.8,190861.6,190210.3,197601.6,0.0
200749.6,207449.0,196281.4,264248.9,212769.5,190948.6,190363.4,197729.8,0.0
200415.9,207139.1,195861.3,263955.3,212447.3,190681.0,190091.7,197404.1,0.0
200199.0,206826.9,195420.7,263726.3,212014.5,190431.0,189776.3,197081.7,0.0
200392.2,206933.2,195461.4,263834.4,212059.7,190537.5,189845.8,197200.4,0.0
200735.0,207313.2,195838.1,264108.5,212530.6,190860.5,190210.9,197604.1,0.0
200752.6,207437.9,195928.1,264131.7,212768.8,190945.8,190360.3,197725.8,0.0
200421.9,207129.8,195512.6,263845.5,212447.6,190677.6,190090.7,197398.2,0.0
200207.2,206820.6,195076.2,263624.3,212016.0,190429.6,189778.3,197079.0,0.0
200400.3,206929.0,195119.2,263733.5,212063.0,190539.7,189849.4,197200.8,0.0
200737.7,207306.8,195491.9,263995.3,212527.9,190856.0,190206.2,197598.3,0.0
200752.7,207426.7,195583.8,264019.6,212767.4,190946.1,190352.7,197719.4,0.0
200434.5,207130.2,195182.1,263748.0,212459.2,190689.1,190088.7,197402.9,0.0
200218.0,206817.8,194748.6,263531.8,212030.8,190441.8,189774.3,197084.4,0.0
200410.9,206929.7,194798.7,263644.0,212081.8,190555.1,189848.8,197212.4,0.0
200742.2,207304.5,195168.1,263886.4,212539.1,190869.7,190203.8,197603.4,0.0
200754.8,207423.4,195254.8,263909.2,212771.0,190954.8,190347.5,197723.9,0.0
200421.7,207116.5,194841.4,263625.3,212450.5,190686.0,190073.7,197399.3,0.0
200208.2,206810.8,194410.2,263405.2,212020.8,190438.6,189761.1,197081.5,0.0
200399.9,206923.1,194457.7,263515.5,212068.6,190551.5,189832.3,197205.6,0.0
200737.0,207303.2,194833.5,263770.4,212528.6,190869.5,190192.0,197603.6,0.0
200760.4,207439.7,194937.1,263803.6,212772.9,190963.1,190352.7,197736.1,0.0
200428.0,207133.4,194527.2,263524.2,212453.9,190696.9,190082.7,197410.9,0.0
200204.7,206818.2,194091.4,263298.3,212019.8,190443.0,189764.3,197084.8,0.0
200400.2,206934.5,194147.6,263415.4,212071.0,190554.6,189841.5,197213.1,0.0
200730.2,207310.5,194519.0,263675.1,212526.0,190863.5,190194.9,197604.6,0.0
200733.3,207424.6,194602.5,263683.8,212753.7,190941.2,190337.2,197718.2,0.0
200409.3,207128.2,194203.5,263414.3,212443.9,190681.2,190074.1,197400.2,0.0
200199.2,206826.3,193782.3,263206.2,212017.6,190434.7,189765.6,197089.1,0.0
200384.9,206928.0,193824.8,263304.1,212057.8,190536.2,189830.2,197200.9,0.0
200723.1,207304.5,194203.4,263569.6,212522.0,190858.4,190190.6,197597.8,0.0
200735.0,207418.4,194295.1,263590.9,212751.3,190942.9,190333.9,197714.7,0.0
200409.2,207117.7,193896.4,263314.4,212437.8,190681.0,190066.9,197393.3,0.0
200197.1,206815.3,193473.7,263095.4,212011.1,190435.0,189756.2,197075.9,0.0
200389.6,206926.5,193524.6,263201.5,212055.6,190542.6,189825.3,197196.8,0.0
200726.2,207305.6,193908.3,263464.8,212519.7,190860.1,190185.5,197594.7,0.0
200744.3,207433.4,194015.0,263496.2,212759.2,190949.7,190337.7,197720.2,0.0
200419.7,207133.5,193618.0,263222.7,212441.6,190683.2,190071.5,197398.9,0.0
200206.7,206826.4,193192.4,263010.4,212013.4,190432.2,189761.3,197083.2,0.0
200394.0,206935.0,193242.3,263121.0,212056.9,190537.7,189829.3,197202.8,0.0
200729.0,207312.3,193621.9,263372.3,212515.8,190853.2,190183.9,197593.7,0.0
200747.5,207437.5,193726.4,263395.1,212755.0,190939.8,190334.0,197713.1,0.0
200416.6,207133.0,193327.5,263120.3,212439.8,190673.4,190064.1,197390.8,0.0
200198.1,206821.0,192901.9,262906.2,212006.4,190422.4,189748.5,197073.5,0.0
200390.8,206931.0,192954.0,263013.3,212047.1,190525.4,189814.9,197190.0,0.0
200737.8,207320.0,193348.0,263282.4,212520.0,190852.3,190183.5,197597.3,0.0
200750.7,207442.3,193450.8,263309.2,212759.0,190939.3,190331.5,197719.6,0.0
200415.0,207133.1,193049.7,263031.8,212438.2,190672.1,190059.8,197395.1,0.0
200201.4,206832.8,192632.1,262817.0,212010.0,190427.8,189749.2,197077.2,0.0
200397.8,206955.0,192696.1,262936.0,212060.1,190542.1,189824.5,197204.2,0.0
200729.7,207327.3,193082.3,263193.9,212518.2,190857.3,190183.6,197599.3,0.0
200741.1,207443.3,193185.0,263224.7,212749.1,190940.6,190332.4,197718.9,0.0
200410.3,207139.4,192783.6,262940.7,212425.7,190669.6,190059.0,197389.3,0.0
200195.9,206834.2,192366.3,262723.4,211998.5,190421.5,189745.4,197073.6,0.0
200378.8,206935.4,192422.3,262831.0,212042.9,190525.1,189809.1,197193.2,0.0
200720.3,207318.2,192816.5,263101.5,212512.2,190846.3,190172.8,197597.4,0.0
200740.8,207442.9,192927.8,263142.9,212753.2,190936.8,190329.0,197723.6,0.0
200410.8,207135.1,192532.7,262863.8,212435.2,190671.5,190061.0,197396.6,0.0
200197.2,206829.7,192116.1,262643.4,212006.9,190426.8,189750.5,197076.4,0.0
200378.6,206928.8,192166.0,262751.1,212045.5,190527.5,189814.6,197190.1,0.0
200710.8,207300.9,192550.7,263016.5,212504.9,190840.4,190172.0,197586.4,0.0
200723.1,207418.9,192654.7,263043.0,212737.6,190920.9,190317.9,197705.0,0.0
200398.3,207118.5,192267.6,262770.6,212422.9,190659.2,190055.8,197385.2,0.0
200200.8,206830.5,191870.7,262574.5,212009.4,190427.5,189762.1,197085.9,0.0
200389.2,206939.2,191931.9,262685.6,212052.4,190533.8,189830.5,197203.9,0.0
200717.0,207312.1,192317.2,262940.6,212505.1,190841.3,190181.3,197590.4,0.0
200734.1,207437.8,192429.6,262970.8,212741.2,190926.0,190331.7,197714.4,0.0
200397.2,207124.5,192033.3,262697.0,212421.9,190658.0,190057.3,197390.3,0.0
200173.0,206801.5,191609.6,262470.7,211983.8,190404.0,189732.7,197061.3,0.0
200370.4,206917.3,191676.4,262589.2,212028.9,190511.9,189801.1,197183.3,0.0
200711.6,207303.2,192077.3,262856.6,212496.6,190832.9,190165.2,197586.4,0.0
200720.9,207418.6,192183.5,262881.9,212731.6,190919.0,190311.1,197704.8,0.0
200388.6,207113.6,191791.7,262609.9,212414.7,190654.0,190042.4,197380.0,0.0
200177.9,206812.9,191380.2,262392.9,211987.7,190407.2,189730.6,197062.1,0.0
200373.7,206927.6,191449.2,262508.2,212039.3,190518.0,189804.6,197187.5,0.0
200713.9,207308.2,191845.1,262784.0,212503.0,190834.9,190163.6,197587.0,0.0
200722.4,207421.6,191950.5,262810.8,212734.8,190918.2,190303.1,197705.8,0.0
200391.8,207115.1,191557.9,262526.6,212417.2,190654.0,190029.9,197381.1,0.0
200188.9,206820.3,191155.0,262325.8,211995.1,190415.3,189725.0,197075.3,0.0
200377.9,206930.2,191218.0,262432.2,212041.1,190519.5,189791.9,197191.8,0.0
200712.2,207311.5,191616.7,262700.9,212506.5,190833.3,190151.9,197586.3,0.0
200724.8,207433.9,191734.2,262731.0,212747.9,190921.0,190304.9,197710.8,0.0
200388.4,207120.0,191339.7,262447.6,212425.2,190648.0,190029.0,197379.6,0.0
200170.9,206804.3,190924.9,262235.2,211991.4,190397.6,189712.3,197059.9,0.0
200362.8,206914.2,190991.8,262346.4,212035.5,190505.2,189780.3,197181.8,0.0
200700.2,207297.2,191388.1,262613.9,212498.3,190824.2,190138.8,197581.1,0.0
200705.5,207406.5,191491.3,262634.1,212722.1,190902.1,190275.5,197694.8,0.0
200384.8,207110.1,191116.0,262373.6,212415.7,190649.3,190017.2,197381.7,0.0
200175.3,206808.9,190712.8,262170.9,211992.3,190409.0,189709.9,197069.1,0.0
200356.7,206909.6,190770.0,262273.0,212028.6,190507.3,189770.2,197178.9,0.0
200688.5,207284.2,191163.2,262533.2,212484.3,190817.8,190124.5,197571.6,0.0
200707.0,207409.3,191280.7,262563.7,212721.9,190904.7,190275.7,197695.2,0.0
200381.5,207109.4,190900.0,262299.6,212411.7,190643.8,190012.5,197376.5,0.0
200161.6,206801.8,190489.1,262075.4,211981.8,190396.8,189696.1,197055.1,0.0
200347.8,206907.5,190552.5,262185.9,212022.3,190500.9,189762.3,197172.2,0.0
200684.8,207283.7,190951.8,262454.0,212483.1,190818.6,190123.4,197569.3,0.0
200691.9,207394.2,191059.4,262474.0,212710.6,190899.0,190264.7,197683.0,0.0
200370.3,207094.2,190679.3,262206.2,212396.5,190635.0,189999.8,197362.9,0.0
200157.7,206789.9,190272.5,261992.9,211968.8,190387.1,189688.9,197044.1,0.0
200352.4,206904.5,190345.7,262113.5,212018.4,190497.3,189761.8,197170.2,0.0
200684.2,207280.9,190741.8,262381.6,212478.4,190810.5,190118.5,197568.3,0.0
200707.7,207413.5,190868.3,262424.6,212725.9,190906.5,190278.9,197701.3,0.0
200388.0,207118.5,190495.0,262165.1,212420.6,190651.7,190022.0,197388.5,0.0
200167.5,206801.8,190085.6,261947.0,211984.9,190400.0,189705.4,197066.6,0.0
200364.1,206914.2,190160.5,262065.5,212031.4,190510.4,189776.3,197187.6,0.0
200697.8,207288.0,190555.3,262328.2,212488.6,190825.3,190129.0,197580.4,0.0
200703.4,207398.5,190664.8,262344.1,212717.8,190906.4,190269.0,197689.1,0.0
200381.3,207104.2,190291.8,262085.3,212410.1,190649.7,190006.3,197375.5,0.0
200173.2,206804.0,189896.2,261886.9,211987.8,190410.4,189701.0,197065.1,0.0
200354.4,206909.2,189962.8,261996.7,212028.0,190512.1,189765.3,197180.2,0.0
200695.5,207298.6,190372.1,262267.2,212498.5,190834.9,190131.1,197584.2,0.0
200716.0,207425.2,190495.7,262299.3,212740.6,190924.2,190283.3,197708.2,0.0
200380.1,207112.9,190108.1,262025.0,212417.8,190651.8,190006.9,197379.9,0.0
200163.5,206803.0,189702.1,261811.3,211984.8,190402.4,189691.0,197059.1,0.0
200358.2,206913.1,189776.4,261926.9,212029.2,190507.3,189761.0,197180.4,0.0
200696.4,207294.2,190180.5,262195.9,212488.0,190821.4,190120.5,197577.7,0.0
200706.7,207410.9,190298.0,262221.7,212722.5,190903.5,190267.5,197695.0,0.0
200381.4,207106.5,189920.8,261951.7,212410.4,190641.7,190005.0,197374.9,0.0
200172.5,206807.1,189523.6,261744.2,211991.0,190399.9,189700.7,197062.7,0.0
200361.7,206918.5,189596.0,261861.7,212038.1,190505.3,189770.9,197183.9,0.0
200697.5,207294.5,189996.9,262133.6,212496.5,190819.2,190126.5,197579.0,0.0
200707.4,207406.0,190112.5,262155.4,212724.3,190897.7,190268.6,197695.5,0.0
200378.7,207101.6,189737.1,261884.6,212411.0,190638.0,190005.8,197376.4,0.0
200160.2,206791.5,189327.9,261665.0,211976.6,190389.3,189687.9,197052.5,0.0
200358.0,206905.4,189404.5,261787.9,212026.5,190502.2,189758.4,197176.6,0.0
200703.7,207293.3,189815.7,262060.9,212498.0,190826.2,190122.1,197580.0,0.0
200716.8,207413.3,189937.5,262094.6,212734.3,190913.5,190269.1,197702.9,0.0
200383.7,207109.0,189557.6,261813.9,212416.5,190646.1,189997.6,197371.2,0.0
200168.9,206808.7,189159.8,261601.2,211992.7,190401.2,189687.3,197052.2,0.0
200361.3,206919.5,189239.6,261723.1,212043.7,190512.8,189761.2,197176.4,0.0
200701.6,207296.9,189642.2,261999.4,212502.4,190825.7,190117.5,197571.0,0.0
200718.8,207418.5,189765.5,262031.9,212737.6,190911.3,190267.7,197693.9,0.0
200395.4,207122.3,189394.5,261757.7,212427.1,190651.2,190006.0,197374.5,0.0
200184.7,206821.4,188996.0,261547.0,212000.0,190406.0,189698.0,197057.1,0.0
200368.1,206921.5,189064.5,261660.2,212039.8,190506.1,189762.8,197172.2,0.0
200708.9,207303.3,189473.4,261927.4,212505.7,190823.8,190123.0,197569.3,0.0
200718.0,207417.6,189592.7,261955.6,212734.2,190903.5,190264.8,197686.3,0.0
200385.0,207103.1,189205.8,261680.6,212407.8,190631.3,189986.4,197356.0,0.0
200178.9,206802.3,188804.4,261473.3,211980.2,190385.6,189673.0,197039.0,0.0
200372.9,206913.3,188877.1,261585.9,212023.7,190493.0,189740.8,197158.1,0.0
200712.8,207290.5,189280.8,261866.3,212482.3,190810.6,190096.8,197554.8,0.0
200728.6,207409.8,189403.5,261893.3,212716.0,190896.2,190246.7,197677.1,0.0
200398.1,207098.8,189024.7,261620.1,212398.6,190630.7,189978.0,197351.4,0.0
200188.6,206796.1,188625.1,261409.6,211971.0,190382.0,189665.4,197032.1,0.0
200388.0,206913.6,188712.6,261533.0,212025.2,190497.8,189743.5,197163.1,0.0
200721.6,207288.9,189114.5,261799.2,212476.9,190809.2,190093.2,197549.7,0.0
200725.3,207401.0,189229.7,261823.1,212704.5,190887.8,190233.4,197658.6,0.0
200399.8,207100.2,188857.9,261555.5,212392.9,190625.3,189969.3,197339.6,0.0
200194.6,206806.1,188471.3,261353.2,211976.1,190386.7,189669.0,197030.4,0.0
200382.1,206913.7,188550.0,261471.6,212019.4,190491.5,189736.1,197149.5,0.0
200718.3,207290.1,188957.5,261745.7,212482.4,190807.5,190094.0,197544.8,0.0
200730.0,207411.1,189080.8,261774.7,212716.6,190891.6,190242.7,197664.1,0.0
200400.0,207109.4,188708.9,261504.3,212405.5,190632.0,189979.6,197346.6,0.0
200185.5,206805.2,188312.2,261294.2,211980.0,190386.0,189670.8,197033.2,0.0
200369.1,206908.9,188384.4,261410.5,212019.8,190487.9,189735.9,197152.2,0.0
200712.3,207292.1,188797.1,261690.5,212484.5,190808.8,190098.4,197553.1,0.0
200723.3,207408.6,188924.2,261719.4,212719.7,190893.6,190247.2,197671.3,0.0
200383.0,207088.6,188539.3,261441.8,212391.6,190616.9,189969.6,197335.8,0.0
200171.3,206785.2,188143.2,261230.0,211963.2,190370.5,189661.4,197016.3,0.0
200360.5,206896.3,188222.6,261341.6,212005.9,190476.3,189731.5,197135.6,0.0
200700.0,207277.8,188635.9,261614.1,212472.5,190799.4,190097.0,197536.0,0.0
200714.6,207395.0,188761.0,261655.7,212706.0,190887.3,190247.7,197656.8,0.0
200389.7,207099.7,188393.3,261390.3,212393.3,190627.4,189987.8,197339.2,0.0
200170.3,206789.0,187997.3,261182.5,211964.8,190382.6,189679.5,197026.3,0.0
200357.7,206895.7,188077.8,261295.9,212011.1,190491.5,189749.6,197150.4,0.0
200703.8,207282.1,188490.6,261571.1,212476.7,190812.3,190109.0,197551.0,0.0
200712.7,207395.9,188611.7,261603.2,212705.6,190893.4,190251.3,197669.9,0.0
200389.5,207100.0,188244.9,261339.9,212395.3,190633.9,189988.9,197354.8,0.0
200157.7,206774.3,187834.1,261105.8,211952.9,190372.1,189663.1,197019.3,0.0
200358.6,206893.9,187927.8,261231.5,212008.7,190490.0,189742.1,197149.2,0.0
200702.7,207279.2,188346.8,261514.0,212479.4,190815.9,190106.3,197552.7,0.0
200716.2,207398.6,188470.5,261547.5,212713.1,190897.6,190253.2,197672.0,0.0
200377.2,207084.3,188086.3,261265.4,212385.2,190620.4,189975.8,197338.0,0.0
200159.2,206773.4,187688.7,261052.2,211953.6,190371.7,189662.3,197014.8,0.0
200348.1,206882.4,187769.8,261167.7,212000.4,190479.0,189730.5,197132.4,0.0
200698.2,207268.5,188188.8,261448.2,212471.6,190803.8,190095.2,197536.5,0.0
200727.1,207397.6,188329.8,261496.5,212718.5,190900.8,190254.5,197670.9,0.0
200398.2,207086.2,187959.5,261235.8,212401.4,190636.1,189986.3,197352.6,0.0
200186.7,206781.4,187564.0,261022.1,211969.9,190386.0,189671.3,197032.0,0.0
200382.6,206893.9,187649.4,261138.5,212018.5,190495.3,189740.9,197154.3,0.0
200727.3,207273.0,188064.5,261415.2,212484.5,190816.0,190099.0,197554.4,0.0
200738.3,207383.3,188185.3,261436.5,212709.3,190894.1,190236.3,197665.3,0.0
200417.1,207083.3,187818.7,261175.1,212394.9,190632.8,189971.2,197349.1,0.0
200201.1,206773.8,187424.1,260959.6,211965.3,190385.8,189658.2,197029.1,0.0
200391.5,206887.6,187510.6,261074.9,212015.1,190497.5,189729.5,197151.7,0.0
200730.2,207271.4,187926.1,261350.5,212478.7,190817.1,190088.1,197551.5,0.0
200741.6,207385.8,188053.8,261389.5,212708.2,190898.9,190232.2,197671.0,0.0
200405.4,207074.1,187677.4,261108.1,212384.1,190627.2,189957.6,197341.0,0.0
200207.6,206788.8,187300.5,260906.7,211971.3,190394.8,189661.3,197038.7,0.0
200411.0,206916.3,187400.6,261041.3,212035.2,190515.3,189742.0,197176.2,0.0
200741.8,207295.0,187813.5,261314.6,212498.8,190830.3,190095.0,197574.6,0.0
200747.5,207409.1,187937.0,261343.1,212729.5,190911.8,190236.3,197693.4,0.0
200407.8,207095.4,187556.5,261055.3,212404.7,190638.6,189962.0,197360.5,0.0
200193.0,206787.2,187164.7,260847.3,211977.6,190393.9,189653.8,197044.0,0.0
200388.2,206900.8,187250.0,260967.2,212022.8,190504.9,189726.4,197167.1,0.0
200727.7,207284.5,187667.2,261246.8,212489.5,190828.2,190092.1,197570.0,0.0
200736.0,207402.8,187794.1,261273.2,212723.9,190912.4,190239.2,197686.7,0.0
200403.6,207095.9,187418.3,261001.4,212402.6,190644.7,189966.7,197357.8,0.0
200187.0,206786.8,187022.2,260793.5,211972.2,190395.2,189654.1,197038.6,0.0
200368.7,206888.9,187103.0,260904.2,212012.8,190495.5,189719.0,197157.9,0.0
200703.8,207270.5,187517.9,261170.8,212473.8,190811.2,190078.3,197555.1,0.0
200720.3,207395.7,187652.1,261207.8,212712.6,190899.2,190230.4,197678.9,0.0
200395.1,207094.2,187287.6,260944.6,212400.9,190639.6,189965.6,197360.5,0.0
200184.7,206795.0,186902.6,260742.7,211979.6,190400.3,189659.4,197049.6,0.0
200369.5,206898.6,186983.8,260858.8,212019.1,190502.0,189723.8,197165.7,0.0
200699.8,207274.4,187394.4,261122.5,212475.0,190813.4,190079.4,197559.8,0.0
200702.8,207386.6,187516.7,261143.9,212703.6,190891.8,190224.0,197671.8,0.0
200379.9,207088.9,187155.5,260883.4,212393.0,190635.4,189965.3,197355.5,0.0
200166.4,206782.8,186764.8,260673.7,211963.4,190389.8,189653.0,197039.5,0.0
200359.6,206894.5,186854.7,260797.8,212015.5,190500.4,189724.5,197162.4,0.0
200704.7,207280.6,187278.1,261088.5,212487.6,190825.3,190090.6,197570.2,0.0
200709.6,207395.3,187404.9,261108.7,212717.3,190907.0,190234.5,197686.3,0.0
200372.1,207081.1,187030.4,260825.8,212393.3,190636.6,189962.4,197353.1,0.0
200163.6,206782.4,186646.4,260625.5,211972.4,190397.9,189659.3,197044.2,0.0
200351.5,206894.5,186734.7,260747.5,212020.9,190505.5,189734.7,197169.6,0.0
200682.1,207270.2,187147.0,261014.6,212479.0,190816.4,190089.3,197559.8,0.0
200693.5,207390.8,187276.9,261038.3,212712.1,190900.0,190233.4,197675.9,0.0
200363.6,207086.5,186908.8,260769.4,212392.4,190630.7,189964.3,197350.7,0.0
200144.8,206781.9,186519.9,260559.2,211965.5,190380.1,189654.8,197030.1,0.0
200342.8,206902.6,186618.4,260683.3,212024.7,190496.6,189732.5,197155.0,0.0
200681.4,207284.5,187038.4,260960.1,212492.1,190815.5,190091.7,197552.9,0.0
200687.3,207394.3,187163.5,260993.5,212718.3,190892.2,190233.3,197665.7,0.0
200360.5,207083.0,186794.3,260734.9,212395.3,190625.3,189963.5,197341.1,0.0
200148.3,206781.1,186407.3,260523.5,211968.8,190381.8,189654.5,197026.0,0.0
200341.3,206894.1,186501.4,260645.0,212019.2,190493.3,189729.0,197151.4,0.0
200669.3,207262.9,186913.8,260913.5,212475.1,190804.7,190083.6,197544.2,0.0
200675.4,207377.3,187042.2,260938.7,212704.7,190886.8,190226.1,197663.5,0.0
200348.2,207076.8,186676.1,260670.4,212385.4,190623.8,189958.5,197341.9,0.0
200137.4,206774.5,186289.1,260468.6,211959.9,190379.8,189647.2,197028.3,0.0
200330.5,206884.0,186377.0,260590.0,212006.2,190484.7,189718.1,197151.1,0.0
200666.9,207264.9,186790.2,260861.1,212465.8,190797.0,190073.9,197542.0,0.0
200667.3,207371.8,186910.8,260884.1,212688.5,190870.9,190209.2,197649.7,0.0
200337.9,207065.2,186545.5,260618.1,212371.2,190605.2,189941.5,197328.3,0.0
200136.5,206773.8,186175.5,260428.9,211959.6,190372.7,189648.2,197030.7,0.0
200326.5,206886.3,186266.1,260558.2,212009.0,190481.5,189720.6,197157.3,0.0
200642.4,207250.8,186664.9,260807.1,212455.0,190780.5,190058.8,197535.7,0.0
200647.2,207359.3,186793.7,260832.3,212683.7,190860.9,190199.6,197649.2,0.0
200323.1,207058.9,186428.8,260572.5,212368.8,190595.9,189934.4,197325.8,0.0
200108.7,206748.2,186030.4,260359.0,211931.1,190340.7,189612.5,196999.7,0.0
200303.0,206858.4,186122.5,260483.8,211979.1,190451.9,189686.6,197127.0,0.0
200642.4,207239.2,186546.4,260760.5,212444.3,190771.9,190050.5,197528.9,0.0
200660.2,207365.8,186682.7,260797.1,212679.5,190861.3,190201.3,197653.3,0.0
200326.5,207051.5,186311.2,260535.4,212356.8,190593.6,189928.7,197327.4,0.0
200106.6,206735.2,185917.9,260323.3,211925.6,190343.9,189615.0,197007.1,0.0
200306.3,206857.3,186015.6,260445.9,211977.5,190457.1,189692.6,197132.2,0.0
200638.7,207237.3,186434.9,260719.4,212435.5,190771.1,190049.8,197527.7,0.0
200649.0,207357.9,186568.0,260751.9,212668.1,190857.9,190199.0,197648.1,0.0
200319.9,207051.7,186203.4,260489.6,212350.3,190596.1,189936.5,197325.1,0.0
200102.0,206738.8,185808.0,260276.2,211913.9,190343.4,189621.6,197004.6,0.0
200304.2,206863.1,185905.5,260406.9,211970.0,190459.5,189698.6,197135.3,0.0
200639.9,207242.1,186326.9,260683.4,212437.6,190781.2,190061.5,197535.9,0.0
200652.7,207358.8,186456.5,260710.0,212667.7,190864.8,190206.9,197652.9,0.0
200326.1,207057.0,186088.8,260452.0,212347.6,190598.7,189936.7,197327.7,0.0
200112.0,206755.5,185705.5,260238.3,211925.8,190355.7,189628.4,197012.8,0.0
200309.3,206871.2,185803.9,260364.7,211981.8,190469.8,189705.1,197140.1,0.0
200650.1,207254.7,186225.2,260641.4,212445.6,190787.3,190063.1,197534.4,0.0
200654.6,207365.9,186353.1,260667.8,212671.9,190865.4,190200.8,197647.0,0.0
200316.7,207047.4,185979.9,260397.1,212344.4,190593.1,189923.8,197318.6,0.0
200105.0,206737.2,185593.3,260195.2,211916.5,190349.8,189615.6,197005.8,0.0
200304.0,206859.7,185689.3,260320.9,211968.2,190463.1,189693.4,197134.9,0.0
200637.0,207246.2,186109.5,260590.2,212430.3,190779.7,190053.1,197531.1,0.0
200643.8,207363.2,186242.6,260618.6,212662.0,190865.5,190198.1,197646.3,0.0
200313.8,207050.8,185877.2,260358.8,212342.0,190602.4,189929.7,197324.9,0.0
200116.1,206759.7,185503.7,260173.3,211924.4,190366.6,189631.4,197023.8,0.0
200310.4,206871.4,185594.0,260286.3,211971.8,190473.3,189701.1,197146.3,0.0
200639.6,207246.9,186007.4,260543.9,212429.5,190782.7,190050.9,197530.0,0.0
200647.4,207364.4,186136.3,260573.3,212658.8,190862.3,190192.5,197642.3,0.0
200315.7,207059.5,185773.2,260309.9,212342.3,190597.6,189924.9,197318.8,0.0
200100.3,206752.4,185389.4,260106.7,211919.5,190353.9,189615.6,197004.8,0.0
200295.6,206867.0,185485.4,260234.1,211973.5,190467.5,189688.0,197130.1,0.0
200630.8,207249.7,185903.0,260501.1,212436.1,190783.2,190044.2,197523.2,0.0
200649.5,207379.8,186047.5,260544.7,212680.3,190875.6,190201.2,197653.6,0.0
200323.4,207074.8,185684.9,260282.1,212363.6,190607.6,189932.5,197329.3,0.0
200108.4,206762.0,185294.5,260084.3,211930.2,190354.7,189616.8,197010.0,0.0
200282.5,206852.3,185369.3,260185.3,211959.0,190447.2,189672.4,197117.5,0.0
200614.5,207223.7,185785.1,260448.4,212416.5,190763.1,190026.9,197510.2,0.0
200631.1,207347.2,185921.3,260481.5,212651.6,190848.4,190172.9,197629.5,0.0
200303.3,207045.2,185560.5,260222.6,212335.9,190585.1,189905.3,197310.0,0.0
200093.4,206741.7,185181.6,260020.0,211912.9,190342.9,189599.1,196999.7,0.0
200289.2,206855.4,185279.3,260147.2,211964.9,190455.7,189673.6,197125.5,0.0
200629.2,207238.6,185706.4,260434.3,212431.9,190778.2,190036.8,197530.6,0.0
200626.6,207340.0,185827.9,260453.1,212654.0,190846.8,190170.3,197633.6,0.0
200299.9,207036.9,185460.7,260183.7,212331.9,190576.3,189897.0,197303.9,0.0
200082.5,206731.6,185074.2,259972.1,211904.3,190329.7,189583.8,196984.1,0.0
200272.7,206841.4,185167.0,260093.3,211953.9,190439.2,189654.8,197101.8,0.0
200615.0,207226.3,185592.4,260372.8,212421.1,190764.2,190020.8,197501.5,0.0
200633.0,207353.7,185735.5,260413.9,212662.4,190858.4,190176.6,197626.8,0.0
200300.9,207041.2,185370.3,260154.6,212339.2,190589.5,189907.8,197304.8,0.0
200081.4,206730.5,184980.9,259941.0,211901.5,190335.4,189589.8,196981.8,0.0
200281.1,206850.7,185082.5,260068.3,211956.1,190449.4,189668.6,197110.9,0.0
200622.9,207238.0,185511.7,260354.0,212426.6,190771.1,190037.9,197518.4,0.0
200629.6,207353.7,185645.4,260378.8,212659.8,190852.2,190187.1,197634.0,0.0
200303.0,207049.0,185287.6,260119.0,212345.4,190589.8,189925.1,197314.3,0.0
200101.2,206753.0,184915.2,259923.9,211928.0,190352.9,189626.0,197008.8,0.0
200290.5,206863.9,185009.2,260041.8,211976.2,190458.8,189696.4,197129.1,0.0
200621.3,207239.0,185428.2,260314.4,212434.9,190770.5,190049.0,197521.9,0.0
200623.7,207346.5,185553.9,260338.2,212657.0,190847.2,190184.5,197629.9,0.0
200295.1,207040.3,185190.8,260076.3,212339.6,190584.7,189914.8,197306.7,0.0
200086.8,206740.6,184816.5,259880.5,211919.0,190342.8,189612.6,196996.8,0.0
200289.9,206860.5,184921.9,260015.8,211975.5,190456.8,189692.5,197126.8,0.0
200622.6,207238.4,185340.9,260282.5,212435.1,190769.8,190048.0,197519.4,0.0
200626.8,207350.5,185471.3,260306.9,212662.8,190849.5,190189.4,197629.7,0.0
200297.6,207042.6,185107.2,260044.0,212343.5,190587.0,189921.3,197304.8,0.0
200088.9,206739.9,184727.3,259845.3,211918.6,190346.9,189618.0,196994.7,0.0
200283.1,206847.8,184823.0,259969.0,211964.1,190454.7,189689.5,197117.5,0.0
200623.5,207232.2,185251.1,260245.6,212430.2,190776.1,190052.3,197516.7,0.0
200631.0,207350.2,185385.3,260273.2,212660.9,190857.4,190198.0,197630.9,0.0
200299.5,207042.3,185023.1,260012.8,212338.1,190588.5,189928.0,197306.4,0.0
200096.2,206746.0,184649.8,259811.9,211918.3,190353.2,189623.3,196996.9,0.0
200292.9,206865.4,184753.6,259944.1,211975.4,190468.0,189701.0,197127.4,0.0
200622.4,207236.9,185171.6,260208.0,212432.9,190778.9,190054.9,197515.7,0.0
200629.8,207349.0,185302.9,260239.1,212656.4,190856.5,190195.9,197628.1,0.0
200297.8,207034.7,184935.4,259966.7,212329.6,190586.1,189921.3,197297.9,0.0
200086.7,206723.9,184551.1,259762.3,211898.8,190335.7,189608.3,196978.7,0.0
200278.0,206838.0,184648.1,259887.1,211948.3,190443.8,189680.0,197102.1,0.0
200614.8,207223.8,185074.8,260167.7,212414.5,190764.3,190043.1,197502.0,0.0
200624.6,207341.3,185210.2,260207.3,212642.6,190847.3,190189.0,197622.0,0.0
200297.9,207035.5,184846.8,259938.8,212322.2,190583.8,189921.3,197295.5,0.0
200082.4,206727.1,184462.5,259728.8,211894.2,190335.7,189607.0,196977.8,0.0
200284.5,206852.8,184567.0,259863.2,211952.9,190452.5,189685.8,197112.4,0.0
200623.7,207239.7,184995.3,260135.5,212421.0,190773.1,190047.7,197511.6,0.0
200636.7,207360.2,185131.0,260170.4,212650.4,190856.6,190190.8,197627.3,0.0
200297.0,207040.9,184759.4,259899.6,212319.0,190582.5,189912.9,197295.4,0.0
200081.3,206726.7,184374.2,259694.0,211886.9,190333.1,189601.5,196977.1,0.0
200277.3,206845.1,184473.0,259811.3,211938.0,190442.5,189675.1,197098.9,0.0
200616.1,207229.5,184899.0,260088.8,212402.8,190759.6,190033.6,197495.2,0.0
200627.0,207345.8,185033.7,260121.8,212634.4,190844.2,190179.7,197612.9,0.0
200305.1,207045.3,184679.3,259869.7,212324.1,190588.3,189920.3,197299.7,0.0
200091.0,206737.2,184302.0,259671.0,211902.2,190346.9,189612.2,196991.0,0.0
200285.7,206856.1,184402.9,259791.9,211955.3,190455.9,189683.4,197116.1,0.0
200614.6,207231.6,184821.8,260051.9,212415.0,190764.4,190038.2,197502.5,0.0
200621.1,207342.1,184955.7,260087.0,212642.3,190843.3,190180.8,197615.4,0.0
200287.2,207028.3,184587.1,259820.4,212315.2,190572.9,189905.6,197286.9,0.0
200080.5,206722.8,184204.5,259625.5,211882.1,190326.5,189593.9,196971.5,0.0
200273.3,206833.3,184304.1,259812.0,211930.1,190437.2,189666.6,197097.3,0.0
200599.7,207204.2,184722.7,260135.5,212389.5,190749.6,190023.7,197487.8,0.0
200610.3,207320.8,184855.7,260147.1,212614.8,190829.9,190167.8,197599.5,0.0
200282.2,207014.7,184494.3,259865.3,212292.3,190564.8,189898.6,197276.1,0.0
200074.6,206708.4,184119.8,259655.8,211869.6,190325.1,189596.4,196969.1,0.0
200281.2,206836.6,184229.0,259772.3,211927.5,190442.2,189676.6,197100.8,0.0
200613.7,207216.5,184653.4,260034.9,212386.5,190754.4,190028.9,197491.2,0.0
200622.2,207331.8,184789.4,260060.7,212615.4,190836.1,190172.4,197606.9,0.0
200303.6,207031.2,184434.8,259804.7,212300.5,190578.5,189908.8,197290.7,0.0
200089.5,206727.2,184056.5,259591.8,211877.5,190335.5,189599.5,196976.9,0.0
200277.1,206837.0,184151.7,259703.4,211924.0,190441.9,189670.9,197098.9,0.0
200614.3,207216.9,184576.9,259981.2,212387.2,190758.2,190032.0,197496.5,0.0
200626.0,207338.2,184712.7,260009.8,212616.0,190842.3,190176.4,197612.6,0.0
200306.6,207037.8,184358.9,259757.8,212300.7,190585.8,189915.9,197300.6,0.0
200090.5,206728.0,183979.8,259547.8,211873.8,190339.8,189605.0,196983.6,0.0
200275.8,206831.0,184077.3,259660.8,211925.0,190447.7,189676.4,197101.8,0.0
200608.2,207204.3,184496.5,259932.7,212385.5,190762.1,190031.6,197496.7,0.0
200618.0,207320.8,184628.0,259960.9,212611.6,190843.0,190172.7,197611.6,0.0
200294.9,207025.5,184275.2,259704.0,212299.6,190588.6,189913.6,197294.2,0.0
200084.0,206723.7,183899.1,259505.4,211876.3,190345.9,189607.8,196980.0,0.0
200285.0,206843.3,184003.5,259631.7,211931.0,190457.4,189680.9,197107.4,0.0
200627.6,207228.3,184433.6,259909.1,212399.1,190777.0,190039.3,197508.8,0.0
200631.8,207337.8,184563.5,259942.5,212623.0,190852.9,190175.4,197621.3,0.0
200293.4,207023.3,184195.1,259675.3,212296.1,190581.7,189898.1,197291.3,0.0
200080.8,206719.7,183818.3,259463.9,211871.8,190339.5,189590.9,196979.3,0.0
200277.3,206834.7,183922.0,259586.4,211924.8,190453.5,189667.0,197109.5,0.0
200615.5,207214.9,184349.4,259865.3,212389.7,190775.2,190030.4,197508.1,0.0
200628.8,207337.1,184487.6,259900.5,212621.6,190859.2,190178.1,197625.0,0.0
200288.1,207016.3,184113.8,259623.5,212286.0,190579.0,189895.6,197289.8,0.0
200072.9,206705.0,183728.0,259420.9,211849.7,190327.0,189579.1,196974.7,0.0
200275.1,206829.7,183838.3,259551.0,211908.6,190448.4,189662.3,197112.4,0.0
200617.6,207216.1,184273.3,259843.3,212379.8,190772.7,190031.5,197520.8,0.0
200610.3,207315.3,184393.4,259854.6,212594.8,190838.6,190163.0,197618.1,0.0
200281.8,207009.8,184029.3,259585.0,212271.9,190572.0,189893.5,197290.6,0.0
200076.6,206711.8,183654.3,259379.6,211850.2,190333.9,189589.1,196979.1,0.0
200276.1,206832.0,183762.8,259507.6,211908.7,190448.1,189669.7,197112.3,0.0
200616.2,207217.5,184195.7,259785.5,212379.2,190768.5,190034.9,197513.3,0.0
200618.9,207331.0,184328.1,259811.1,212605.7,190847.6,190175.5,197623.4,0.0
200290.0,207023.8,183969.1,259555.6,212285.9,190584.8,189909.6,197301.7,0.0
200087.5,206728.7,183598.3,259355.3,211866.9,190347.3,189607.7,196993.4,0.0
200276.9,206840.4,183693.4,259473.9,211914.0,190454.7,189677.3,197115.0,0.0
200604.8,207214.5,184110.3,259738.5,212373.4,190767.6,190032.2,197506.3,0.0
200613.8,207329.0,184244.0,259770.1,212601.6,190850.0,190171.3,197620.5,0.0
200286.6,207024.4,183887.7,259511.9,212281.4,190587.5,189902.6,197300.7,0.0
200081.4,206723.0,183516.7,259323.7,211860.0,190348.0,189598.6,196995.0,0.0
200278.8,206840.9,183618.8,259443.2,211914.0,190460.0,189673.5,197122.6,0.0
200613.8,207225.2,184047.4,259714.4,212381.5,190780.4,190036.9,197522.5,0.0
200617.3,207332.8,184177.8,259741.9,212606.3,190855.4,190175.0,197630.7,0.0
200282.5,207019.7,183812.9,259469.9,212282.8,190582.0,189898.0,197301.4,0.0
200073.5,206715.6,183439.3,259269.8,211858.4,190335.8,189591.6,196988.0,0.0
200275.5,206838.0,183551.5,259404.3,211919.5,190449.8,189674.4,197121.7,0.0
200613.9,207222.1,183984.0,259685.8,212390.8,190771.0,190040.4,197524.3,0.0
200618.6,207333.3,184116.3,259719.1,212614.7,190847.2,190182.0,197636.9,0.0
200283.6,207017.9,183747.4,259455.3,212285.7,190573.0,189904.6,197306.6,0.0
200068.8,206710.5,183364.8,259239.2,211855.6,190323.9,189590.0,196985.0,0.0
200270.5,206834.1,183474.9,259375.0,211915.5,190443.0,189673.2,197122.2,0.0
200601.2,207209.2,183900.4,259648.9,212380.0,190761.8,190036.4,197521.8,0.0
200607.6,207320.6,184035.9,259677.1,212606.8,190842.1,190177.4,197633.8,0.0
200278.3,207014.2,183674.8,259419.8,212284.2,190576.2,189905.0,197310.1,0.0
200071.9,206716.6,183302.5,259216.6,211863.5,190335.4,189599.8,196999.6,0.0
200275.0,206839.7,183414.7,259349.4,211925.0,190453.9,189683.2,197136.4,0.0
200607.3,207219.4,183842.8,259621.5,212391.1,190770.2,190041.5,197532.0,0.0
200607.7,207329.1,183979.1,259650.0,212620.0,190847.5,190181.4,197639.2,0.0
200278.8,207021.7,183619.4,259387.9,212299.7,190581.3,189909.2,197309.6,0.0
200063.9,206715.4,183235.9,259177.7,211868.4,190330.0,189593.8,196988.4,0.0
200256.3,206828.6,183336.8,259302.1,211914.5,190438.8,189668.0,197113.2,0.0
200591.5,207212.0,183767.4,259576.8,212381.1,190756.8,190029.8,197510.0,0.0
200605.2,207332.5,183910.3,259613.4,212615.6,190841.5,190177.1,197628.2,0.0
200270.8,207019.3,183544.3,259348.3,212287.3,190569.4,189899.1,197294.7,0.0
200057.9,206717.6,183172.2,259145.9,211863.3,190323.6,189590.7,196982.2,0.0
200260.5,206843.6,183285.6,259271.5,211925.3,190442.5,189672.4,197113.8,0.0
200584.8,207214.1,183705.2,259540.4,212384.8,190753.9,190025.2,197503.4,0.0
200578.8,207318.5,183826.8,259566.5,212601.7,190823.0,190155.3,197608.9,0.0
200245.2,207006.6,183460.5,259292.4,212272.5,190551.2,189879.2,197277.5,0.0
200044.0,206709.3,183094.4,259098.2,211852.9,190312.6,189578.8,196971.1,0.0
200245.7,206829.1,183205.2,259230.3,211911.8,190427.1,189658.9,197103.2,0.0
200578.7,207205.3,183633.5,259508.1,212376.3,190744.7,190017.5,197497.4,0.0
200591.5,207323.1,183771.7,259545.8,212606.2,190828.6,190164.1,197612.6,0.0
200270.1,207020.2,183415.4,259295.1,212285.3,190564.7,189896.5,197294.0,0.0
200051.6,206702.0,183034.3,259077.1,211852.9,190313.1,189581.3,196974.9,0.0
200254.5,206827.2,183146.0,259207.5,211910.5,190427.5,189658.2,197104.8,0.0
200587.9,207209.1,183575.9,259488.2,212377.9,190745.1,190017.2,197502.3,0.0
200593.9,207322.5,183709.5,259512.6,212603.5,190823.2,190153.9,197609.5,0.0
200263.8,207014.5,183348.1,259247.0,212280.9,190553.3,189878.1,197279.7,0.0
200057.4,206717.7,182978.9,259053.7,211860.0,190313.5,189571.9,196971.5,0.0
200254.1,206834.9,183085.6,259179.5,211917.3,190428.6,189647.0,197101.6,0.0
200578.2,207202.5,183501.8,259449.1,212370.7,190735.4,189995.6,197489.7,0.0
200578.1,207309.4,183628.3,259476.6,212590.1,190810.1,190132.4,197596.4,0.0
200252.5,207005.3,183270.8,259221.3,212270.9,190547.6,189864.9,197272.5,0.0
200052.4,206713.0,182905.9,259026.9,211855.8,190317.6,189568.5,196969.3,0.0
200244.7,206825.9,183014.4,259153.6,211913.6,190433.9,189650.1,197101.7,0.0
200581.3,207209.7,183444.2,259431.2,212376.5,190749.7,190009.8,197498.5,0.0
200586.9,207320.8,183578.6,259463.2,212600.3,190829.0,190145.8,197607.9,0.0
200250.6,207001.8,183215.0,259199.3,212274.7,190560.2,189870.3,197279.2,0.0
200040.4,206697.6,182840.7,258995.8,211851.8,190314.7,189562.0,196966.1,0.0
200245.3,206829.1,182953.6,259123.6,211914.6,190432.8,189643.7,197097.4,0.0
200586.0,207217.8,183387.2,259411.0,212384.0,190757.0,190008.3,197501.5,0.0
200586.2,207323.1,183515.1,259430.1,212598.5,190830.1,190141.9,197608.8,0.0
200248.9,206999.9,183146.5,259154.5,212263.4,190555.0,189863.9,197272.0,0.0
200042.8,206695.4,182773.9,258956.1,211839.7,190311.8,189558.9,196958.8,0.0
200243.5,206815.4,182881.0,259090.5,211897.1,190425.9,189640.4,197088.7,0.0
200582.7,207202.6,183314.1,259367.8,212364.2,190746.8,190004.8,197487.3,0.0
200585.5,207314.0,183450.9,259395.0,212587.6,190823.5,190144.9,197599.1,0.0
200253.6,206999.0,183088.1,259131.9,212256.6,190552.1,189868.5,197269.9,0.0
200046.0,206696.8,182716.6,258936.1,211831.4,190311.5,189564.3,196961.0,0.0
200248.4,206823.6,182831.3,259073.1,211892.7,190432.0,189649.5,197097.8,0.0
200576.3,207198.1,183254.5,259343.4,212348.1,190743.0,190003.0,197490.2,0.0
200580.5,207306.2,183387.4,259366.3,212569.8,190819.6,190142.2,197601.5,0.0
200253.1,206998.5,183027.2,259101.1,212243.8,190551.9,189870.8,197273.6,0.0
200043.8,206688.9,182652.1,258903.2,211814.4,190306.6,189559.2,196958.6,0.0
200248.8,206818.3,182767.0,259033.0,211876.1,190424.6,189640.5,197091.0,0.0
200582.7,207198.5,183196.7,259307.7,212340.8,190743.5,190002.5,197486.5,0.0
200594.3,207319.0,183338.6,259347.7,212573.9,190830.3,190152.8,197605.0,0.0
200263.1,207006.0,182972.8,259085.7,212247.1,190559.1,189878.8,197275.1,0.0
200051.6,206697.0,182594.0,258876.4,211818.0,190309.7,189566.2,196958.6,0.0
200251.1,206817.7,182705.8,259008.3,211878.8,190423.1,189647.1,197091.5,0.0
200589.6,207203.9,183141.5,259291.3,212350.3,190745.0,190013.2,197495.0,0.0
200594.2,207316.3,183278.3,259322.6,212579.3,190823.6,190153.1,197606.1,0.0
200261.5,207002.2,182914.0,259061.6,212252.6,190554.3,189876.4,197279.5,0.0
200061.4,206708.8,182551.5,258872.7,211836.7,190319.6,189577.5,196976.5,0.0
200254.9,206824.1,182658.3,258994.3,211888.6,190431.8,189651.3,197100.6,0.0
200589.8,207206.3,183086.5,259274.3,212351.6,190748.2,190009.6,197498.2,0.0
200587.5,207311.9,183213.6,259292.2,212568.6,190819.9,190141.7,197598.3,0.0
200259.3,207002.0,182855.7,259032.2,212245.3,190553.7,189870.1,197271.4,0.0
200051.6,206694.8,182484.1,258840.8,211819.3,190310.2,189563.7,196963.2,0.0
200246.7,206810.2,182592.4,258956.7,211872.6,190421.5,189637.9,197088.9,0.0
200581.7,207198.8,183024.4,259226.0,212339.6,190738.0,189995.8,197483.1,0.0
200584.6,207311.8,183158.2,259256.4,212564.9,190815.0,190133.0,197595.3,0.0
200257.0,207004.3,182801.8,258999.8,212242.4,190548.8,189860.9,197271.7,0.0
200051.2,206703.8,182434.0,258807.6,211821.6,190310.9,189559.2,196962.2,0.0
200239.8,206813.4,182537.7,258930.3,211871.9,190419.5,189631.4,197084.5,0.0
200568.5,207183.3,182962.4,259194.5,212333.7,190729.8,189985.1,197476.2,0.0
200584.3,207309.0,183104.1,259236.9,212562.6,190812.6,190127.1,197593.8,0.0
200252.8,207001.7,182744.2,258972.7,212235.2,190546.8,189854.2,197268.5,0.0
200043.6,206697.2,182370.5,258769.6,211809.3,190303.4,189546.2,196954.9,0.0
200241.5,206816.5,182483.5,258905.5,211869.8,190419.7,189628.5,197086.4,0.0
200571.2,207193.6,182911.1,259179.8,212333.7,190734.5,189987.9,197481.4,0.0
200574.0,207302.4,183045.5,259211.2,212559.1,190811.3,190129.6,197593.7,0.0
200248.7,206997.7,182687.2,258946.2,212235.3,190542.3,189861.3,197268.5,0.0
200042.7,206695.8,182316.2,258742.7,211811.5,190298.3,189554.5,196956.8,0.0
200243.5,206817.5,182428.1,258874.8,211873.1,190415.2,189636.4,197088.7,0.0
200578.0,207196.8,182858.2,259154.3,212338.9,190732.8,189996.5,197484.6,0.0
200579.4,207301.4,182991.0,259196.1,212560.1,190809.5,190133.2,197597.1,0.0
200237.5,206976.6,182622.3,258914.8,212225.7,190533.2,189848.7,197258.5,0.0
200049.0,206691.8,182267.8,258731.5,211818.7,190307.0,189556.8,196963.5,0.0
200250.9,206816.1,182380.7,258863.7,211883.1,190427.3,189639.5,197097.8,0.0
200578.8,207192.0,182804.6,259130.6,212343.5,190739.8,189993.7,197487.3,0.0
200578.0,207298.0,182934.5,259161.7,212560.5,190812.5,190127.6,197594.4,0.0
200247.1,206984.7,182571.4,258903.8,212229.6,190542.4,189851.0,197266.3,0.0
200037.8,206680.1,182196.5,258703.5,211802.1,190297.5,189539.5,196951.8,0.0
200241.5,206807.4,182314.6,258843.4,211871.9,190419.3,189626.7,197089.6,0.0
200562.2,207178.2,182733.3,259098.1,212330.5,190726.9,189978.9,197474.2,0.0
200559.0,207282.8,182862.0,259120.8,212548.5,190797.1,190112.7,197579.5,0.0
200235.3,206980.4,182511.7,258869.7,212231.0,190536.9,189849.7,197263.2,0.0
200037.9,206689.6,182154.0,258682.2,211820.3,190305.8,189556.1,196961.5,0.0
200244.5,206816.5,182276.2,258824.8,211888.9,190426.0,189644.1,197101.8,0.0
200575.0,207192.5,182701.3,259090.9,212349.4,190734.0,189997.8,197492.1,0.0
200576.6,207300.5,182835.9,259127.0,212572.8,190810.1,190136.5,197602.7,0.0
200242.0,206985.0,182474.1,258858.6,212245.6,190541.1,189864.1,197274.1,0.0
200022.5,206673.0,182094.4,258646.9,211809.9,190289.7,189550.5,196953.6,0.0
200216.3,206784.9,182198.8,258770.0,211859.8,190399.1,189621.8,197074.1,0.0
200560.3,207173.7,182635.0,259052.5,212329.8,190726.4,189988.5,197477.5,0.0
200566.1,207283.7,182764.8,259081.6,212547.9,190800.4,190122.2,197584.2,0.0
200237.0,206973.7,182402.7,258823.5,212220.7,190531.3,189847.5,197257.3,0.0
200033.1,206673.5,182034.9,258628.8,211798.5,190291.4,189541.4,196946.3,0.0
200237.4,206801.1,182153.4,258762.7,211863.9,190408.5,189625.9,197079.6,0.0
200569.5,207181.6,182583.0,259039.5,212328.0,190723.8,189986.1,197476.2,0.0
200571.3,207293.8,182715.2,259071.8,212545.8,190799.8,190121.5,197583.0,0.0
200238.5,206982.2,182355.2,258805.7,212215.1,190531.0,189846.4,197256.8,0.0
200031.9,206682.6,181988.7,258602.5,211792.8,190290.8,189542.4,196947.3,0.0
200231.9,206806.8,182102.9,258735.1,211854.5,190410.9,189625.0,197081.2,0.0
200557.0,207176.3,182523.2,259005.0,212311.2,190719.9,189974.8,197469.7,0.0
200564.1,207288.1,182658.6,259043.9,212538.5,190800.4,190116.6,197582.9,0.0
200232.2,206972.2,182294.0,258779.8,212212.0,190528.3,189842.0,197256.0,0.0
200035.2,206681.3,181932.7,258584.9,211798.2,190291.9,189542.0,196954.7,0.0
200234.9,206806.9,182054.2,258714.6,211866.7,190417.5,189631.0,197094.8,0.0
200557.8,207175.5,182473.6,258984.6,212324.5,190728.5,189985.1,197484.7,0.0
200555.2,207276.3,182596.8,259005.8,212537.7,190797.9,190115.8,197584.9,0.0
200219.6,206961.3,182233.5,258735.4,212206.8,190525.8,189840.8,197254.0,0.0
200019.9,206666.9,181872.8,258554.1,211791.4,190292.8,189544.8,196954.1,0.0
200227.8,206800.0,181996.9,258699.0,211861.8,190418.5,189635.3,197097.3,0.0
200554.6,207177.6,182420.1,258957.7,212318.9,190724.0,189985.6,197481.6,0.0
200554.8,207289.5,182552.3,258988.2,212537.5,190798.3,190122.6,197586.6,0.0
200216.9,206968.6,182186.0,258722.3,212207.2,190527.5,189845.4,197254.9,0.0
200013.5,206667.2,181817.8,258528.1,211786.1,190286.3,189536.7,196944.5,0.0
200223.3,206798.9,181940.4,258665.0,211852.8,190405.4,189617.4,197079.2,0.0
200554.0,207176.6,182366.8,258933.9,212314.8,190717.7,189971.9,197472.6,0.0
200554.2,207282.2,182498.9,258960.4,212535.2,190793.0,190108.2,197581.3,0.0
200225.7,206971.2,182141.6,258702.1,212209.3,190525.5,189835.0,197256.0,0.0
200010.5,206661.4,181766.4,258500.3,211777.8,190276.6,189520.3,196941.6,0.0
200209.0,206781.5,181878.5,258638.4,211838.5,190392.8,189601.1,197073.1,0.0
200545.8,207167.8,182309.3,258920.4,212303.9,190709.5,189961.1,197468.0,0.0
200545.5,207276.1,182442.5,258935.4,212523.6,190783.7,190099.5,197572.4,0.0
200205.6,206952.8,182075.4,258663.6,212188.5,190507.7,189820.2,197235.5,0.0
199997.5,206648.8,181704.9,258468.1,211766.1,190267.7,189516.1,196926.0,0.0
200208.4,206776.4,181827.8,258610.6,211835.8,190394.8,189606.8,197068.0,0.0
200546.7,207163.7,182260.2,258888.2,212301.6,190713.7,189968.0,197464.3,0.0
200540.8,207267.3,182383.8,258906.8,212513.9,190780.8,190096.9,197567.0,0.0
200210.8,206952.9,182024.8,258648.9,212187.4,190516.6,189826.4,197243.5,0.0
200006.6,206648.9,181659.3,258457.0,211765.8,190278.4,189523.2,196936.1,0.0
200209.1,206774.0,181777.5,258597.5,211830.9,190398.9,189609.3,197072.9,0.0
200538.5,207155.4,182207.1,258863.1,212295.7,190712.8,189967.8,197460.9,0.0
200540.9,207263.8,182341.8,258893.0,212517.4,190787.0,190106.0,197567.3,0.0
200210.1,206948.2,181976.6,258622.1,212183.5,190516.0,189826.8,197231.1,0.0
200000.6,206639.3,181599.1,258415.0,211752.2,190270.8,189513.6,196912.3,0.0
200202.3,206762.0,181712.8,258545.0,211809.0,190388.1,189591.9,197044.1,0.0
200535.3,207145.2,182145.3,258815.2,212273.9,190708.8,189953.6,197442.3,0.0
200542.0,207257.2,182279.7,258849.0,212497.0,190789.8,190093.4,197555.6,0.0
200210.3,206944.8,181918.2,258588.3,212166.0,190519.8,189820.8,197230.1,0.0
200007.7,206645.5,181551.7,258393.1,211740.0,190282.5,189518.7,196922.8,0.0
200210.9,206767.1,181671.0,258526.5,211802.4,190402.6,189605.7,197060.0,0.0
200546.8,207152.8,182105.4,258798.9,212266.6,190720.4,189966.6,197456.5,0.0
200546.8,207261.0,182236.2,258824.5,212482.0,190794.4,190099.6,197561.2,0.0
200215.7,206945.2,181874.2,258573.1,212150.6,190521.1,189822.5,197234.7,0.0
200013.8,206645.6,181510.0,258375.7,211730.0,190281.0,189519.8,196929.9,0.0
200207.9,206763.6,181619.6,258488.4,211786.9,190393.4,189598.2,197054.2,0.0
200533.8,207136.8,182046.0,258756.7,212250.0,190707.2,189955.5,197446.7,0.0
200539.3,207248.0,182181.8,258793.8,212470.2,190783.4,190091.0,197557.9,0.0
200214.8,206946.0,181825.5,258531.2,212146.8,190518.8,189818.6,197235.2,0.0
200020.0,206657.3,181468.0,258343.5,211739.1,190290.2,189522.6,196937.9,0.0
200222.3,206781.1,181586.8,258487.0,211805.1,190409.1,189607.1,197076.5,0.0
200544.2,207150.5,182008.9,258745.2,212260.5,190713.9,189954.8,197461.8,0.0
200537.6,207250.4,182136.4,258770.5,212475.3,190780.5,190084.5,197564.2,0.0
200197.3,206920.1,181764.8,258496.7,212135.0,190501.5,189799.9,197226.1,0.0
199999.2,206625.7,181400.2,258303.8,211711.4,190263.4,189497.0,196921.1,0.0
200201.3,206757.1,181520.4,258434.2,211776.2,190382.9,189585.1,197058.1,0.0
200533.5,207136.9,181950.3,258720.7,212239.5,190701.0,189946.2,197456.8,0.0
200534.1,207242.2,182078.9,258751.8,212456.8,190777.2,190081.7,197564.7,0.0
200204.5,206934.8,181720.9,258482.8,212131.0,190512.1,189811.4,197236.3,0.0
200000.4,206637.5,181357.0,258288.1,211710.6,190274.1,189508.3,196928.9,0.0
200197.3,206758.6,181469.0,258418.4,211769.7,190388.7,189584.7,197059.3,0.0
200524.1,207135.4,181900.1,258694.5,212233.4,190701.7,189942.1,197454.6,0.0
200516.5,207237.9,182030.3,258713.9,212449.4,190769.6,190072.9,197555.7,0.0
200188.6,206928.3,181673.3,258453.7,212123.9,190501.9,189801.4,197229.4,0.0
199993.1,206637.4,181314.0,258265.8,211708.7,190266.5,189503.5,196929.0,0.0
200202.2,206772.3,181439.8,258408.3,211778.5,190392.1,189591.8,197070.7,0.0
200532.9,207149.7,181873.0,258684.4,212244.1,190710.7,189953.0,197467.5,0.0
200528.0,207251.3,182001.7,258700.7,212458.5,190779.5,190085.0,197569.8,0.0
200195.3,206936.0,181640.0,258431.5,212125.8,190509.0,189807.1,197236.7,0.0
199996.1,206639.7,181278.2,258243.0,211707.3,190272.9,189506.1,196932.6,0.0
200203.5,206769.4,181402.9,258386.7,211777.3,190397.0,189599.8,197073.5,0.0
200540.2,207154.5,181840.2,258664.2,212249.8,190716.8,189965.8,197472.3,0.0
200541.7,207264.4,181973.2,258691.1,212472.2,190790.2,190101.4,197576.9,0.0
200206.6,206947.5,181608.0,258424.1,212137.2,190517.4,189819.2,197241.8,0.0
200014.1,206658.7,181253.2,258244.7,211725.2,190288.4,189525.3,196945.3,0.0
200224.8,206791.3,181382.1,258396.4,211796.5,190413.5,189618.3,197094.5,0.0
200545.6,207157.9,181802.5,258649.7,212248.5,190719.8,189966.9,197475.6,0.0
200544.8,207267.8,181935.3,258674.9,212466.6,190791.9,190103.2,197576.4,0.0
200209.9,206952.9,181572.7,258411.8,212135.7,190519.4,189825.9,197245.6,0.0
200010.0,206657.8,181209.2,258218.8,211716.8,190284.0,189523.4,196937.6,0.0
200216.2,206793.3,181336.5,258356.8,211790.3,190409.3,189615.9,197078.3,0.0
200541.9,207174.3,181767.3,258628.6,212254.5,190724.9,189973.9,197472.1,0.0
200539.3,207280.7,181902.8,258661.9,212480.3,190803.1,190114.7,197581.2,0.0
200208.5,206968.8,181540.5,258400.2,212150.3,190528.3,189839.1,197249.6,0.0
200008.3,206674.3,181180.5,258206.4,211733.1,190291.4,189535.7,196943.5,0.0
200207.7,206797.1,181301.2,258331.1,211798.6,190409.3,189617.5,197074.3,0.0
200534.4,207172.4,181729.1,258601.6,212260.1,190718.1,189972.9,197465.9,0.0
200523.6,207266.0,181851.4,258626.2,212471.8,190782.8,190099.6,197567.2,0.0
200196.1,206957.3,181494.7,258372.0,212146.3,190517.1,189827.9,197240.8,0.0
199995.0,206665.9,181131.2,258176.4,211728.3,190277.6,189525.7,196933.9,0.0
200195.0,206794.6,181252.9,258308.0,211796.3,190398.3,189609.2,197070.6,0.0
200516.1,207161.3,181679.3,258569.4,212254.0,190706.1,189960.7,197460.1,0.0
200515.7,207262.0,181807.0,258597.0,212468.4,190776.5,190089.3,197564.9,0.0
200192.0,206957.7,181447.1,258339.8,212141.0,190511.0,189818.0,197239.7,0.0
199980.4,206652.1,181071.0,258131.0,211711.2,190263.4,189504.1,196916.9,0.0
200186.5,206782.9,181200.1,258272.0,211788.3,190390.6,189596.9,197056.7,0.0
200519.4,207161.7,181636.9,258553.3,212262.2,190710.8,189962.0,197457.9,0.0
200535.5,207281.0,181781.0,258598.6,212493.0,190792.1,190107.6,197574.0,0.0
200204.3,206971.1,181420.3,258335.1,212164.0,190521.3,189832.6,197244.1,0.0
199992.8,206663.5,181049.4,258128.7,211738.1,190275.8,189522.5,196931.4,0.0
200191.0,206780.7,181167.0,258266.6,211799.8,190391.4,189601.7,197065.9,0.0
200525.6,207162.0,181600.7,258541.2,212268.1,190709.4,189960.3,197460.9,0.0
200528.8,207271.2,181733.5,258566.7,212492.3,190787.7,190097.9,197568.9,0.0
200198.9,206958.9,181370.6,258302.8,212166.3,190517.6,189823.9,197241.0,0.0
199998.0,206660.8,181004.5,258110.0,211745.1,190277.0,189519.7,196936.0,0.0
200197.3,206782.1,181124.2,258245.6,211808.5,190396.5,189602.5,197073.9,0.0
200528.3,207165.6,181558.8,258524.8,212276.7,190715.0,189962.8,197470.6,0.0
200530.7,207276.6,181696.7,258555.3,212500.4,190792.2,190103.4,197581.9,0.0
200190.2,206955.1,181329.7,258285.7,212162.4,190514.7,189820.2,197243.9,0.0
199987.0,206658.5,180966.1,258092.0,211742.9,190277.5,189515.2,196932.1,0.0
200188.9,206784.0,181087.1,258222.8,211807.7,190395.8,189595.5,197067.1,0.0
200522.7,207166.2,181519.3,258498.1,212274.2,190711.7,189950.1,197461.9,0.0
200526.5,207274.4,181656.6,258535.2,212500.5,190789.3,190087.5,197572.8,0.0
200194.7,206961.3,181294.9,258272.2,212171.2,190516.7,189809.1,197242.5,0.0
199986.2,206661.2,180924.3,258070.2,211743.8,190270.6,189498.0,196924.5,0.0
200194.2,206790.3,181050.8,258218.9,211813.0,190393.8,189586.5,197066.3,0.0
200519.0,207159.9,181476.4,258481.8,212272.3,190705.5,189939.4,197457.4,0.0
200520.2,207265.2,181606.4,258508.8,212489.5,190778.0,190074.1,197562.4,0.0
200183.2,206949.1,181243.7,258239.8,212158.8,190505.4,189799.0,197232.4,0.0
199979.8,206650.7,180874.4,258044.7,211733.8,190262.8,189493.1,196921.6,0.0
200182.7,206776.6,180992.2,258180.0,211795.8,190378.7,189576.3,197055.7,0.0
200515.1,207157.0,181429.2,258463.2,212264.3,190696.1,189938.9,197454.3,0.0
200509.3,207261.2,181560.9,258483.5,212484.1,190769.8,190073.3,197559.8,0.0
200178.8,206947.1,181202.8,258221.5,212158.1,190504.0,189801.9,197236.5,0.0
199978.2,206649.6,180836.3,258030.4,211733.3,190264.3,189496.5,196925.8,0.0
200181.7,206776.8,180954.0,258169.5,211793.6,190383.9,189577.0,197056.8,0.0
200511.8,207153.5,181383.9,258442.8,212253.3,190696.6,189930.8,197449.4,0.0
200511.2,207257.4,181516.5,258460.2,212469.7,190766.9,190063.4,197552.9,0.0
200191.3,206955.5,181168.3,258206.3,212152.0,190506.9,189798.1,197231.6,0.0
199992.4,206659.1,180804.9,258019.4,211735.8,190274.0,189495.2,196928.1,0.0
200185.2,206772.5,180913.6,258147.4,211789.3,190385.5,189570.3,197054.9,0.0
200510.3,207147.3,181340.3,258414.4,212250.2,190698.2,189927.6,197443.7,0.0
200512.3,207255.9,181474.0,258447.4,212470.9,190775.2,190064.2,197552.4,0.0
200181.5,206947.5,181113.2,258187.0,212139.2,190505.8,189787.7,197223.3,0.0
199983.2,206656.0,180754.6,257998.2,211724.6,190274.9,189490.0,196919.1,0.0
200189.7,206786.8,180878.0,258132.8,211795.6,190401.2,189582.1,197059.6,0.0
200514.7,207158.6,181302.0,258404.6,212250.2,190708.0,189932.0,197447.7,0.0
200515.2,207265.8,181433.0,258432.1,212465.5,190779.1,190066.1,197551.2,0.0
200185.5,206952.0,181073.4,258172.5,212137.1,190510.5,189792.6,197223.1,0.0
199986.5,206657.0,180712.6,257987.8,211720.5,190277.2,189494.5,196920.2,0.0
200180.9,206773.6,180824.8,258117.8,211779.1,190391.5,189574.5,197052.3,0.0
200514.5,207152.2,181257.3,258385.4,212243.7,190705.9,189931.7,197447.1,0.0
200518.0,207262.1,181395.0,258418.4,212466.7,190783.6,190065.5,197557.4,0.0
200180.4,206946.1,181031.6,258148.7,212133.4,190509.5,189783.5,197221.6,0.0
199977.8,206643.6,180669.4,257965.4,211711.4,190269.5,189481.2,196917.4,0.0
200173.3,206761.1,180781.5,258083.9,211767.2,190381.5,189558.7,197045.2,0.0
200512.4,207146.8,181219.1,258368.2,212238.3,190704.6,189923.0,197448.1,0.0
200508.0,207245.3,181343.6,258387.4,212447.3,190772.1,190050.1,197549.7,0.0
200180.8,206934.6,180981.3,258122.8,212113.1,190499.5,189772.0,197214.0,0.0
199977.8,206635.5,180614.5,257929.8,211688.2,190258.3,189463.9,196901.6,0.0
200181.7,206757.1,180734.2,258071.2,211752.7,190376.3,189547.4,197040.7,0.0
200519.6,207141.0,181170.5,258350.9,212219.9,190695.3,189909.0,197441.4,0.0
200518.1,207248.0,181304.8,258378.0,212436.7,190767.5,190042.8,197547.5,0.0
200176.8,206926.9,180940.8,258104.9,212101.6,190488.5,189761.8,197209.3,0.0
199970.3,206626.2,180577.9,257908.1,211680.4,190249.9,189459.9,196901.2,0.0
200174.5,206752.2,180704.1,258047.0,211746.0,190372.8,189550.8,197043.2,0.0
200505.5,207129.4,181139.6,258326.4,212210.3,190688.6,189915.0,197442.2,0.0
200507.0,207241.2,181277.4,258358.4,212433.8,190767.1,190054.3,197550.4,0.0
200172.9,206927.8,180915.7,258096.1,212103.1,190494.6,189778.8,197219.3,0.0
199966.1,206627.8,180548.0,257894.8,211677.1,190254.6,189472.2,196907.0,0.0
200170.8,206757.8,180669.7,258033.6,211743.6,190380.2,189557.6,197042.7,0.0
200506.8,207140.6,181105.5,258316.6,212212.7,190700.9,189918.3,197440.8,0.0
200506.8,207241.9,181237.0,258346.6,212431.3,190773.6,190050.1,197546.5,0.0
200176.5,206928.1,180875.6,258087.9,212101.3,190501.6,189772.8,197216.3,0.0
199973.0,206629.2,180507.0,257889.2,211674.0,190256.5,189463.4,196902.3,0.0
200179.4,206758.2,180632.5,258020.0,211743.1,190377.8,189551.0,197039.2,0.0
200509.1,207134.8,181064.9,258297.1,212208.3,190695.3,189910.2,197432.0,0.0
200503.3,207230.6,181190.9,258321.6,212421.2,190763.6,190040.3,197532.5,0.0
200180.4,206924.4,180832.4,258072.2,212094.6,190496.2,189768.6,197208.6,0.0
199985.0,206640.9,180478.0,257883.0,211685.3,190270.4,189477.1,196914.5,0.0
200175.9,206755.1,180590.7,258002.8,211740.9,190383.9,189554.1,197040.7,0.0
200502.5,207125.8,181015.6,258265.8,212196.8,190692.1,189903.5,197422.5,0.0
200506.6,207234.9,181151.0,258304.0,212418.5,190771.1,190042.5,197532.1,0.0
200179.5,206924.2,180794.8,258050.7,212094.0,190504.7,189772.2,197209.5,0.0
199974.3,206621.6,180425.0,257845.4,211666.5,190259.0,189463.6,196894.8,0.0
200178.5,206750.8,180549.4,257987.1,211733.4,190382.3,189553.9,197033.0,0.0
200516.4,207135.4,180989.1,258274.5,212201.0,190703.2,189915.4,197433.4,0.0
200523.7,207249.5,181131.7,258314.4,212426.1,190783.2,190056.2,197547.5,0.0
200192.2,206935.9,180772.9,258043.2,212099.2,190513.1,189784.1,197219.8,0.0
199993.4,206641.7,180412.8,257851.3,211684.2,190278.3,189485.8,196916.3,0.0
200194.8,206767.0,180534.1,257985.5,211751.2,190397.9,189569.1,197049.7,0.0
200525.1,207148.6,180968.5,258258.6,212222.1,190715.4,189927.3,197442.6,0.0
200517.2,207244.8,181092.6,258280.0,212432.6,190778.3,190051.2,197537.5,0.0
200183.2,206924.7,180726.5,258015.1,212097.6,190500.6,189768.1,197204.2,0.0
199981.6,206628.8,180365.1,257820.0,211679.9,190266.3,189467.4,196901.1,0.0
200188.0,206762.4,180494.3,257960.4,211755.4,190394.6,189562.6,197044.9,0.0
200523.0,207150.5,180935.2,258245.2,212229.6,190716.1,189931.8,197446.6,0.0
200517.2,207253.3,181070.2,258271.7,212450.3,190787.9,190068.2,197551.8,0.0
200178.8,206933.4,180707.7,258005.2,212119.0,190514.1,189791.5,197219.5,0.0
199979.6,206636.3,180345.0,257821.4,211696.3,190274.3,189489.6,196912.4,0.0
200179.9,206758.9,180464.6,257944.6,211756.4,190390.5,189571.7,197045.3,0.0
200513.8,207140.7,180899.8,258221.6,212219.3,190705.4,189930.7,197439.5,0.0
200506.5,207241.8,181027.3,258243.0,212430.7,190770.9,190060.3,197542.5,0.0
200165.5,206917.2,180659.3,257965.3,212091.4,190488.6,189775.3,197201.8,0.0
199962.2,206617.3,180296.3,257769.5,211668.3,190246.5,189469.8,196891.0,0.0
200167.6,206744.3,180419.6,257909.5,211734.4,190366.4,189554.5,197026.8,0.0
200506.7,207133.5,180862.4,258196.8,212208.3,190689.6,189919.9,197431.7,0.0
200504.5,207236.9,180996.7,258225.2,212426.3,190763.1,190054.1,197539.2,0.0
200171.9,206924.5,180637.1,257960.4,212092.7,190490.4,189775.1,197208.0,0.0
199968.3,206629.2,180276.1,257767.6,211674.6,190253.9,189472.5,196904.0,0.0
200172.8,206752.8,180399.0,257910.8,211738.5,190375.1,189556.5,197042.2,0.0
200502.6,207128.4,180828.2,258177.2,212196.6,190685.3,189909.5,197427.9,0.0
200502.2,207233.1,180962.1,258199.9,212416.6,190760.8,190044.7,197532.6,0.0
200171.6,206918.9,180605.6,257942.4,212091.3,190494.6,189773.1,197208.5,0.0
199973.0,206628.6,180244.1,257749.5,211670.8,190256.9,189468.9,196904.0,0.0
200169.4,206750.0,180362.0,257877.8,211730.0,190371.7,189549.2,197033.1,0.0
200500.3,207130.9,180796.8,258154.0,212196.3,190686.9,189907.0,197427.3,0.0
200502.5,207235.9,180929.6,258182.2,212411.5,190755.9,190038.6,197528.5,0.0
200171.1,206918.7,180570.0,257927.8,212081.0,190485.7,189765.4,197198.8,0.0
199962.5,206611.5,180202.7,257731.0,211658.0,190244.6,189462.6,196892.9,0.0
200176.3,206744.7,180328.8,257875.1,211722.9,190367.0,189551.7,197034.9,0.0
200510.5,207124.2,180764.6,258157.7,212186.2,190684.4,189912.2,197436.4,0.0
200504.1,207227.6,180898.6,258176.7,212401.9,190756.1,190044.6,197536.0,0.0
200173.8,206917.3,180544.1,257919.4,212078.5,190491.2,189773.4,197207.9,0.0
199975.6,206627.1,180186.3,257735.7,211664.8,190257.8,189474.9,196902.6,0.0
200172.0,206749.2,180305.3,257867.3,211727.3,190375.1,189558.5,197035.5,0.0
200503.3,207126.0,180741.0,258146.3,212196.8,190692.6,189923.6,197434.7,0.0
200506.4,207242.8,180880.5,258175.5,212426.3,190771.6,190068.3,197547.2,0.0
200168.5,206925.2,180514.8,257906.3,212091.3,190493.5,189788.0,197211.7,0.0
199968.6,206631.4,180156.0,257710.2,211672.6,190259.0,189487.8,196909.0,0.0
200172.8,206762.7,180283.2,257849.4,211742.6,190383.7,189576.2,197050.8,0.0
200503.0,207142.4,180713.7,258121.2,212208.7,190698.6,189932.3,197441.4,0.0
200496.7,207247.2,180846.5,258145.6,212428.0,190772.9,190065.0,197541.4,0.0
200164.1,206931.7,180488.6,257888.3,212097.4,190501.5,189789.7,197214.2,0.0
199967.0,206629.5,180129.0,257712.4,211676.1,190262.6,189486.8,196911.5,0.0
200172.9,206761.1,180253.5,257842.3,211742.9,190384.9,189575.3,197047.8,0.0
200503.8,207141.8,180687.4,258115.1,212208.8,190699.9,189936.7,197444.4,0.0
200498.6,207241.9,180813.2,258128.8,212422.6,190767.5,190064.2,197543.3,0.0
200163.8,206922.0,180446.4,257858.5,212087.7,190491.0,189778.6,197206.0,0.0
199963.0,206622.0,180080.5,257665.3,211663.8,190251.5,189470.7,196895.3,0.0
200169.1,206744.9,180204.3,257808.6,211729.4,190375.8,189556.5,197034.2,0.0
200502.7,207124.8,180639.5,258082.8,212195.6,190695.7,189916.0,197431.6,0.0
200512.9,207241.7,180780.4,258117.6,212422.8,190775.7,190055.5,197545.7,0.0
200185.3,206934.8,180425.4,257863.0,212095.8,190508.9,189781.3,197222.7,0.0
199979.4,206632.8,180058.6,257660.4,211670.1,190264.9,189471.3,196905.2,0.0
200181.4,206755.1,180178.6,257794.0,211731.9,190381.5,189553.8,197038.7,0.0
200510.5,207132.4,180611.5,258069.6,212195.3,190697.1,189911.3,197434.3,0.0
200516.3,207239.7,180749.5,258109.3,212416.8,190773.8,190047.1,197545.7,0.0
200184.4,206933.2,180393.2,257836.1,212086.7,190505.6,189771.3,197218.5,0.0
199975.0,206626.1,180021.7,257635.3,211653.2,190262.0,189460.5,196905.4,0.0
200170.5,206746.2,180137.9,257760.7,211709.6,190378.9,189544.7,197037.9,0.0
200500.0,207124.2,180570.0,258034.4,212171.3,190696.7,189904.5,197434.6,0.0
200493.9,207224.0,180698.0,258056.5,212384.9,190765.4,190037.7,197536.6,0.0
200167.0,206913.6,180343.1,257803.2,212059.5,190498.1,189767.6,197213.3,0.0
199969.1,206627.6,179988.0,257614.9,211645.5,190262.4,189469.1,196911.6,0.0
200163.1,206747.9,180107.3,257739.9,211707.2,190375.4,189549.8,197043.7,0.0
200487.8,207119.6,180532.5,258005.2,212164.5,190685.8,189901.0,197432.3,0.0
200486.9,207225.0,180663.7,258032.5,212378.8,190759.4,190032.0,197535.7,0.0
200163.5,206917.7,180310.7,257785.0,212051.8,190495.3,189760.9,197215.1,0.0
199962.3,206619.8,179950.1,257592.4,211632.5,190259.5,189460.5,196913.0,0.0
200159.4,206739.6,180063.5,257707.7,211686.6,190371.9,189538.7,197039.2,0.0
200480.7,207105.5,180485.3,257974.6,212137.6,190680.1,189886.9,197426.2,0.0
200477.2,207206.4,180617.4,258004.8,212354.6,190754.8,190021.0,197531.5,0.0
200152.6,206898.8,180261.5,257755.3,212029.3,190488.7,189751.7,197210.9,0.0
199949.2,206601.3,179897.8,257554.9,211605.9,190248.0,189446.8,196902.1,0.0
200143.4,206717.3,180009.9,257674.2,211659.7,190358.1,189520.8,197024.2,0.0
200478.9,207098.5,180444.6,257953.5,212123.7,190676.1,189881.3,197422.2,0.0
200484.8,207206.0,180578.0,257994.9,212339.9,190752.6,190018.0,197532.6,0.0
200146.8,206885.4,180212.7,257722.2,212001.9,190475.0,189735.1,197195.0,0.0
199946.9,206591.7,179854.3,257523.8,211584.2,190239.8,189434.6,196889.2,0.0
200156.6,206725.8,179983.2,257667.3,211656.6,190367.8,189525.0,197034.1,0.0
200487.9,207106.9,180417.4,257952.2,212122.8,190684.0,189884.9,197433.7,0.0
200484.5,207211.3,180548.3,257972.9,212337.7,190752.3,190015.3,197534.7,0.0
200157.0,206901.9,180191.8,257707.9,212010.1,190484.5,189741.5,197206.4,0.0
199963.4,206614.5,179837.9,257524.4,211600.8,190256.1,189449.7,196906.1,0.0
200165.8,206740.5,179957.1,257664.8,211663.6,190376.2,189536.5,197042.1,0.0
200489.3,207110.0,180377.5,257931.1,212118.6,190683.6,189887.9,197428.4,0.0
200488.3,207213.1,180506.6,257958.3,212334.0,190752.9,190018.6,197530.7,0.0
200159.5,206904.7,180151.8,257702.1,212009.2,190484.3,189745.6,197203.8,0.0
199953.2,206607.8,179791.5,257505.4,211593.2,190249.0,189443.0,196898.2,0.0
200150.1,206728.3,179911.1,257637.1,211654.8,190365.2,189525.0,197031.2,0.0
200489.3,207116.7,180351.6,257918.1,212123.6,190684.2,189891.0,197429.6,0.0
200491.4,207226.1,180493.4,257948.5,212346.6,190763.3,190031.1,197538.4,0.0
200164.0,206916.0,180140.7,257690.7,212021.3,190495.3,189758.2,197215.2,0.0
199963.1,206620.7,179784.8,257502.8,211603.9,190260.7,189459.6,196911.5,0.0
200159.1,206740.5,179902.3,257635.6,211660.7,190373.3,189536.5,197038.4,0.0
200486.0,207114.3,180330.8,257907.9,212119.5,190683.4,189887.7,197428.8,0.0
200482.1,207220.0,180464.2,257922.9,212336.3,190753.7,190019.7,197531.3,0.0
200146.3,206897.4,180099.9,257659.2,211998.8,190475.0,189736.1,197195.7,0.0
199947.3,206602.7,179740.3,257469.5,211580.6,190237.8,189433.2,196890.5,0.0
200150.1,206729.1,179860.6,257604.6,211643.9,190355.9,189517.1,197027.0,0.0
200481.2,207107.8,180292.6,257879.2,212109.4,190671.2,189875.0,197421.8,0.0
200486.9,207219.1,180430.2,257913.4,212335.3,190749.0,190011.4,197529.9,0.0
200168.7,206917.2,180080.2,257664.6,212016.6,190483.8,189740.8,197209.5,0.0
199965.3,206622.0,179720.2,257468.6,211598.8,190245.5,189439.1,196904.5,0.0
200160.5,206742.5,179839.7,257598.0,211664.9,190361.6,189524.3,197037.1,0.0
200490.1,207119.0,180270.7,257864.3,212127.9,190676.0,189880.3,197426.5,0.0
200489.9,207226.1,180403.9,257891.8,212344.1,190747.4,190011.2,197528.3,0.0
200156.4,206909.5,180046.7,257630.6,212017.0,190475.4,189737.0,197199.9,0.0
199956.4,206613.5,179690.9,257446.8,211603.6,190242.9,189440.0,196898.6,0.0
200153.7,206734.3,179806.4,257579.2,211662.0,190358.5,189520.2,197030.0,0.0
200481.1,207108.2,180240.6,257852.4,212128.7,190677.7,189883.1,197426.0,0.0
200481.8,207214.9,180374.5,257880.0,212350.0,190751.9,190020.3,197528.0,0.0
200158.1,206910.8,180022.9,257622.0,212027.0,190485.2,189748.5,197199.7,0.0
199960.3,206617.6,179669.0,257436.8,211613.4,190250.9,189450.2,196896.4,0.0
200164.9,206743.5,179799.5,257586.2,211684.4,190374.6,189540.5,197040.9,0.0
200487.9,207117.2,180223.1,257852.1,212137.0,190680.1,189886.4,197423.0,0.0
200473.4,207209.9,180342.5,257861.2,212341.2,190741.6,190005.9,197511.9,0.0
200144.3,206900.9,179985.4,257604.2,212015.2,190474.3,189734.0,197184.8,0.0
199946.6,206606.7,179626.6,257420.0,211597.6,190236.9,189434.3,196881.6,0.0
200153.9,206739.9,179757.3,257554.2,211671.2,190360.7,189525.2,197021.8,0.0
200480.4,207115.1,180192.3,257829.3,212138.7,190678.2,189886.7,197416.7,0.0
200479.4,207221.8,180324.2,257857.9,212358.0,190751.0,190019.6,197520.9,0.0
200153.8,206918.4,179967.8,257602.2,212034.8,190485.0,189745.8,197192.8,0.0
199954.2,206622.5,179607.2,257410.8,211617.0,190249.7,189444.0,196884.9,0.0
200152.1,206748.1,179730.4,257544.0,211686.3,190370.9,189532.1,197022.9,0.0
200470.3,207118.2,180157.7,257808.3,212147.4,190680.1,189889.1,197410.1,0.0
200467.8,207220.9,180290.0,257838.2,212364.3,190750.3,190023.9,197511.7,0.0
200146.4,206916.5,179940.8,257587.4,212042.4,190486.6,189754.8,197188.8,0.0
199946.7,206621.5,179583.3,257398.8,211626.1,190251.9,189453.0,196886.1,0.0
200155.5,206752.8,179708.5,257534.5,211695.2,190374.4,189538.3,197023.8,0.0
200483.2,207133.0,180143.1,257808.0,212158.0,190687.4,189893.8,197415.2,0.0
200477.2,207240.1,180277.2,257829.8,212377.0,190760.2,190027.6,197519.5,0.0
200151.5,206931.0,179924.8,257576.0,212053.6,190493.6,189754.1,197196.8,0.0
199950.1,206632.5,179564.0,257383.7,211633.9,190253.6,189449.5,196888.5,0.0
200141.6,206746.0,179679.1,257511.5,211691.6,190364.6,189527.5,197016.8,0.0
200472.5,207124.5,180113.3,257790.3,212155.1,190678.8,189885.7,197416.1,0.0
200468.3,207228.7,180247.0,257814.0,212371.3,190748.4,190016.0,197521.2,0.0
200134.7,206910.1,179887.1,257543.4,212037.9,190472.9,189735.1,197184.1,0.0
199946.7,206625.2,179542.0,257366.3,211630.4,190245.8,189443.5,196889.6,0.0
200153.4,206755.7,179671.2,257509.5,211702.0,190370.5,189532.0,197028.7,0.0
200473.9,207127.3,180096.3,257776.7,212162.9,190678.3,189882.5,197413.2,0.0
200468.3,207228.5,180221.9,257797.1,212375.2,190749.3,190013.6,197512.9,0.0
200146.0,206920.0,179869.4,257546.7,212051.6,190486.8,189747.2,197191.2,0.0
199942.9,206622.0,179509.5,257357.6,211632.6,190249.9,189447.7,196886.9,0.0
200144.0,206741.8,179628.6,257490.9,211692.8,190365.8,189530.4,197021.1,0.0
200470.2,207117.3,180057.6,257756.9,212150.0,190675.0,189884.5,197409.5,0.0
200474.7,207226.4,180194.2,257788.8,212374.1,190751.8,190026.3,197515.9,0.0
200151.0,206916.9,179840.9,257547.3,212051.1,190486.3,189755.6,197192.4,0.0
199940.7,206611.0,179471.4,257335.6,211623.2,190239.2,189444.5,196876.5,0.0
200137.8,206729.2,179590.2,257459.8,211683.4,190353.8,189522.6,197006.1,0.0
200463.1,207096.1,180017.7,257732.5,212139.6,190663.9,189874.4,197397.6,0.0
200463.8,207202.3,180148.3,257763.1,212352.4,190735.5,190007.1,197503.9,0.0
200128.8,206885.9,179783.0,257500.1,212016.9,190461.4,189726.1,197169.6,0.0
199929.8,206591.6,179423.6,257309.7,211599.0,190225.9,189427.4,196865.6,0.0
200128.1,206715.1,179544.5,257442.5,211660.4,190343.6,189513.6,197002.7,0.0
200448.8,207080.1,179967.4,257709.7,212111.1,190647.9,189863.1,197385.8,0.0
200460.4,207192.2,180110.9,257760.1,212334.3,190732.6,190008.5,197503.7,0.0
200129.1,206882.4,179751.9,257493.2,212000.7,190461.7,189733.6,197174.0,0.0
199920.3,206582.6,179384.5,257291.5,211572.3,190218.0,189425.0,196862.9,0.0
200115.9,206699.6,179499.7,257423.7,211627.3,190333.1,189503.4,196992.2,0.0
200443.4,207071.6,179928.3,257694.3,212081.2,190642.6,189857.7,197377.5,0.0
200449.8,207180.3,180065.6,257729.1,212299.5,190719.6,189995.7,197484.7,0.0
200126.3,206870.4,179710.5,257475.5,211971.5,190454.1,189725.0,197159.0,0.0
199926.0,206570.7,179347.3,257280.3,211547.4,190215.2,189423.4,196850.2,0.0
200126.3,206693.5,179468.9,257415.3,211608.8,190334.4,189507.3,196985.3,0.0
200456.2,207070.5,179902.8,257699.0,212072.9,190652.0,189869.9,197382.7,0.0
200453.2,207173.5,180032.9,257723.0,212284.0,190722.9,190005.6,197484.7,0.0
200125.3,206859.3,179674.1,257458.9,211948.8,190450.1,189726.6,197154.4,0.0
199919.9,206556.8,179306.9,257260.5,211520.4,190204.2,189415.6,196842.2,0.0
200122.3,206683.0,179428.3,257400.1,211583.4,190324.4,189500.6,196979.8,0.0
200456.5,207063.8,179866.2,257682.2,212046.5,190645.0,189860.1,197377.8,0.0
200452.7,207166.6,180000.8,257712.6,212260.5,190717.7,189993.7,197480.8,0.0
200123.6,206851.3,179639.7,257444.4,211929.8,190444.6,189715.6,197149.0,0.0
199934.8,206564.5,179287.6,257263.6,211517.9,190213.9,189419.2,196854.6,0.0
200144.3,206697.2,179418.7,257402.8,211588.2,190340.9,189510.1,196998.4,0.0
200473.4,207076.3,179851.6,257672.8,212051.6,190655.3,189867.2,197389.0,0.0
200469.8,207180.4,179982.1,257699.9,212265.6,190725.7,189996.9,197490.3,0.0
200134.5,206864.5,179621.4,257435.6,211932.2,190451.8,189717.1,197156.7,0.0
199933.6,206568.3,179263.6,257250.9,211510.3,190214.1,189415.8,196851.0,0.0
200137.6,206693.9,179388.0,257389.9,211572.8,190335.2,189500.6,196989.4,0.0
200468.0,207078.0,179825.3,257669.6,212039.8,190654.0,189862.1,197388.4,0.0
200459.8,207176.6,179948.6,257687.7,212248.2,190719.7,189987.9,197483.6,0.0
200129.3,206861.7,179588.1,257426.9,211917.5,190450.7,189712.0,197153.6,0.0
199930.8,206569.1,179234.0,257237.8,211507.7,190218.5,189420.2,196855.5,0.0
200137.2,206702.6,179362.0,257379.9,211579.0,190343.0,189512.0,196998.0,0.0
200453.5,207073.1,179787.6,257642.7,212038.0,190652.0,189864.1,197386.3,0.0
200449.3,207172.9,179920.5,257675.2,212254.3,190723.8,189996.8,197489.0,0.0
200117.6,206860.0,179564.5,257409.4,211924.8,190453.2,189719.7,197158.1,0.0
199918.1,206565.6,179203.7,257215.6,211503.1,190213.4,189414.5,196849.7,0.0
200123.1,206696.3,179325.8,257351.2,211568.8,190336.6,189500.9,196985.0,0.0
200457.5,207081.7,179767.6,257633.6,212041.5,190660.7,189868.3,197387.5,0.0
200458.1,207189.3,179908.1,257667.7,212262.5,190735.4,190006.8,197496.7,0.0
200130.6,206881.3,179555.3,257412.7,211938.3,190466.8,189735.6,197173.8,0.0
199930.6,206593.1,179198.9,257221.6,211526.7,190231.8,189437.2,196869.8,0.0
200132.7,206720.2,179322.4,257357.5,211596.4,190351.4,189524.0,197004.7,0.0
200462.2,207096.7,179757.9,257633.6,212061.8,190668.4,189885.3,197400.0,0.0
200467.3,207209.3,179897.7,257662.8,212283.3,190744.3,190024.6,197506.5,0.0
200133.4,206894.5,179542.5,257398.5,211956.2,190473.6,189751.5,197173.1,0.0
199931.0,206596.8,179183.1,257204.0,211539.9,190234.3,189449.6,196862.6,0.0
200137.8,206736.9,179314.6,257343.6,211614.2,190360.8,189544.2,197004.5,0.0
200466.6,207119.7,179754.2,257620.2,212085.3,190683.0,189910.5,197405.4,0.0
200462.6,207218.9,179887.2,257650.3,212303.5,190754.4,190046.7,197510.8,0.0
200135.2,206906.4,179531.6,257388.0,211977.0,190485.1,189774.5,197182.4,0.0
199934.0,206609.2,179170.3,257192.9,211557.0,190242.2,189470.0,196871.9,0.0
200121.2,206719.5,179277.3,257316.5,211608.6,190345.0,189539.3,196992.7,0.0
200443.6,207087.1,179702.8,257585.7,212067.4,190654.8,189892.7,197381.5,0.0
200441.8,207184.1,179835.9,257617.4,212282.2,190725.7,190025.4,197486.1,0.0
200108.6,206864.2,179474.1,257346.6,211945.8,190448.5,189742.8,197152.1,0.0
199915.3,206579.2,179122.2,257159.1,211533.3,190215.7,189442.1,196851.4,0.0
200130.6,206721.5,179260.6,257310.5,211616.4,190346.9,189539.6,196998.3,0.0
200459.2,207096.2,179696.1,257585.4,212082.8,190662.1,189897.8,197391.0,0.0
200461.0,207199.6,179832.2,257619.9,212304.0,190739.9,190032.6,197498.6,0.0
200129.8,206888.7,179477.8,257359.4,211976.7,190472.3,189759.3,197171.3,0.0
199934.3,206598.0,179124.6,257170.8,211562.2,190235.7,189461.1,196869.6,0.0
200138.6,206725.0,179251.7,257316.3,211633.1,190357.4,189550.5,197011.8,0.0
200462.1,207095.0,179674.9,257585.8,212088.3,190665.8,189900.4,197400.2,0.0
200445.5,207187.6,179795.8,257590.1,212294.5,190725.3,190023.9,197489.2,0.0
200118.9,206879.1,179443.7,257335.6,211969.3,190459.8,189754.8,197164.6,0.0
199919.1,206587.3,179083.2,257143.4,211550.6,190223.2,189453.1,196858.3,0.0
200120.6,206711.1,179208.0,257284.1,211617.4,190341.1,189538.1,196995.2,0.0
200447.4,207087.8,179643.1,257555.9,212083.0,190655.6,189897.9,197391.2,0.0
200442.0,207187.8,179771.3,257579.1,212295.1,190722.8,190024.8,197490.1,0.0
200113.8,206871.8,179411.0,257320.8,211962.9,190452.4,189743.4,197160.4,0.0
199919.9,206578.8,179057.0,257132.3,211547.6,190217.2,189443.8,196858.0,0.0
200124.5,206707.1,179181.2,257267.3,211613.0,190337.1,189529.3,196994.1,0.0
200448.0,207079.0,179610.2,257540.7,212073.2,190648.0,189880.1,197383.4,0.0
200442.5,207176.6,179741.2,257566.9,212288.7,190719.2,190010.7,197484.5,0.0
200119.7,206872.0,179387.3,257307.8,211961.9,190454.1,189736.5,197159.1,0.0
199921.1,206580.9,179029.5,257119.8,211546.2,190221.0,189434.7,196857.7,0.0
200127.7,206713.1,179158.5,257267.7,211616.3,190343.8,189524.1,197001.9,0.0
200456.5,207090.1,179593.1,257552.4,212078.5,190658.5,189880.3,197397.3,0.0
200453.7,207191.9,179723.1,257569.8,212292.2,190728.2,190010.3,197496.5,0.0
200120.5,206871.3,179363.6,257306.0,211959.0,190453.5,189730.0,197161.2,0.0
199928.9,206583.6,179009.6,257112.9,211547.3,190220.2,189433.6,196857.3,0.0
200129.8,206709.9,179133.4,257249.2,211614.1,190340.4,189518.5,196992.2,0.0
200457.3,207086.6,179567.0,257525.3,212077.5,190653.8,189878.2,197387.6,0.0
200454.1,207193.4,179702.4,257548.1,212297.2,190728.1,190016.8,197495.5,0.0
200126.3,206883.0,179347.7,257290.9,211970.8,190459.1,189745.1,197169.5,0.0
199925.5,206583.6,178988.2,257106.8,211552.8,190222.2,189443.1,196865.1,0.0
200117.9,206699.0,179100.9,257234.5,211608.1,190334.1,189518.8,196994.5,0.0
200438.7,207069.3,179525.5,257495.3,212063.5,190640.6,189863.8,197375.8,0.0
200433.6,207170.4,179658.7,257521.9,212277.8,190710.4,189990.7,197477.1,0.0
200107.5,206861.5,179308.0,257270.7,211953.1,190446.1,189720.6,197153.5,0.0
199911.7,206570.7,178957.8,257082.5,211542.7,190217.5,189425.6,196856.2,0.0
200111.6,206694.0,179083.5,257218.9,211610.0,190338.8,189510.6,196997.6,0.0
200437.0,207069.2,179518.2,257491.1,212074.5,190653.1,189869.9,197390.6,0.0
200435.1,207171.9,179648.8,257518.6,212287.2,190723.4,190001.0,197491.0,0.0
200095.8,206851.9,179282.0,257247.8,211947.1,190448.2,189719.1,197156.2,0.0
199892.4,206552.8,178919.5,257049.5,211525.8,190209.5,189415.8,196848.3,0.0
200094.8,206676.3,179042.6,257186.7,211590.1,190332.5,189501.0,196985.8,0.0
200426.4,207053.5,179476.8,257465.1,212051.3,190651.0,189859.7,197381.0,0.0
200426.0,207157.0,179606.9,257492.6,212260.2,190722.4,189990.6,197482.0,0.0
200101.1,206842.0,179244.1,257235.8,211923.0,190451.4,189715.3,197152.0,0.0
199907.0,206550.5,178889.8,257054.5,211505.8,190221.9,189419.7,196852.6,0.0
200096.1,206667.5,179003.9,257172.1,211559.2,190333.4,189496.4,196977.1,0.0
200426.1,207044.6,179435.9,257437.2,212017.1,190649.6,189855.3,197365.7,0.0
200438.4,207160.3,179579.8,257477.5,212241.4,190732.5,189998.9,197479.7,0.0
200117.5,206854.8,179228.9,257229.3,211914.8,190466.5,189728.4,197159.8,0.0
199903.9,206547.7,178857.6,257023.5,211480.5,190213.9,189412.8,196843.6,0.0
200095.9,206658.8,178967.3,257143.5,211528.8,190316.2,189482.3,196966.0,0.0
200422.4,207028.0,179392.5,257414.1,211980.1,190622.3,189832.5,197356.3,0.0
200422.7,207134.6,179527.5,257445.0,212193.4,190696.4,189967.7,197464.8,0.0
200098.1,206826.3,179174.5,257186.9,211865.0,190430.8,189697.2,197140.3,0.0
199891.8,206519.3,178805.8,256987.3,211432.8,190182.8,189385.8,196824.2,0.0
200089.6,206638.3,178923.9,257120.0,211490.0,190298.7,189465.8,196955.8,0.0
200410.2,207002.1,179346.2,257391.4,211938.3,190603.4,189815.2,197346.2,0.0
200409.5,207098.0,179474.1,257423.6,212143.6,190671.8,189946.9,197452.0,0.0
200087.4,206791.5,179120.9,257165.7,211813.5,190406.2,189677.7,197129.1,0.0
199897.2,206509.0,178773.2,256979.6,211402.1,190179.3,189389.8,196833.1,0.0
200092.1,206633.8,178893.4,257108.0,211459.0,190297.0,189473.3,196963.8,0.0
200420.3,207014.5,179329.7,257383.3,211922.4,190617.9,189835.7,197359.8,0.0
200419.0,207117.4,179463.8,257413.5,212137.6,190692.8,189970.1,197464.8,0.0
200091.0,206809.7,179109.2,257154.2,211804.8,190424.7,189693.8,197134.4,0.0
199891.3,206516.6,178751.3,256970.4,211384.6,190186.8,189392.0,196830.7,0.0
200082.1,206628.6,178860.4,257086.6,211435.7,190294.5,189466.7,196956.8,0.0
200415.4,207008.8,179293.5,257363.0,211897.9,190609.3,189827.4,197352.6,0.0
200407.8,207103.5,179420.0,257388.5,212106.3,190675.5,189953.6,197451.7,0.0
200077.0,206781.9,179058.0,257131.0,211768.7,190402.1,189671.8,197121.8,0.0
199878.8,206490.3,178696.2,256940.1,211345.4,190165.9,189371.9,196820.9,0.0
200072.8,206613.0,178814.0,257063.9,211403.6,190282.8,189453.7,196950.6,0.0
200403.3,206992.0,179247.7,257340.3,211862.8,190596.7,189810.4,197343.5,0.0
200401.6,207093.3,179381.6,257369.3,212077.1,190672.5,189945.2,197449.6,0.0
200075.8,206787.4,179031.9,257113.4,211751.0,190408.3,189676.8,197126.2,0.0
199873.7,206493.1,178673.1,256923.4,211332.9,190170.8,189376.8,196822.0,0.0
200075.1,206621.5,178792.9,257054.7,211394.9,190288.5,189458.6,196952.0,0.0
200403.8,206999.0,179228.3,257332.0,211857.6,190605.7,189818.2,197346.5,0.0
200403.2,207107.5,179366.9,257363.0,212074.6,190681.2,189954.4,197450.8,0.0
200080.1,206802.9,179020.6,257117.8,211752.0,190421.0,189688.0,197131.9,0.0
199887.1,206516.3,178671.6,256936.6,211342.8,190191.3,189393.0,196833.6,0.0
200084.9,206640.5,178793.3,257057.9,211407.0,190306.3,189474.9,196961.7,0.0
200416.4,207022.1,179231.9,257337.1,211876.8,190623.4,189837.8,197356.5,0.0
200416.0,207128.6,179367.3,257365.9,212095.4,190696.5,189974.4,197462.8,0.0
200082.2,206816.9,179008.8,257096.4,211765.6,190423.4,189700.6,197130.6,0.0
199878.9,206519.7,178650.1,256910.7,211351.9,190187.8,189401.4,196826.7,0.0
200080.6,206647.3,178772.2,257042.5,211417.5,190305.7,189488.4,196963.0,0.0
200410.1,207029.1,179211.0,257319.3,211886.4,190622.4,189854.2,197360.0,0.0
200413.8,207138.9,179351.6,257355.9,212109.0,190699.2,189990.5,197469.0,0.0
200094.2,206841.6,179007.8,257106.8,211793.9,190441.9,189726.8,197153.2,0.0
199891.2,206544.5,178648.2,256913.3,211377.7,190205.6,189423.1,196847.7,0.0
200085.6,206665.9,178767.0,257038.0,211444.3,190320.9,189502.0,196977.1,0.0
200411.7,207039.4,179199.8,257310.3,211908.0,190630.3,189855.6,197365.4,0.0
200411.2,207140.0,179333.4,257342.4,212124.9,190700.4,189987.4,197467.7,0.0
200085.3,206829.5,178979.5,257089.9,211800.0,190435.0,189716.9,197143.8,0.0
199892.0,206548.0,178630.7,256910.0,211392.5,190205.8,189425.0,196847.0,0.0
200088.4,206671.7,178754.5,257038.9,211460.8,190324.5,189509.8,196982.2,0.0
200411.0,207038.2,179187.3,257317.0,211924.7,190636.3,189865.1,197373.0,0.0
200406.1,207138.6,179319.9,257336.2,212138.7,190702.8,189992.4,197471.2,0.0
200081.1,206833.8,178970.3,257073.6,211815.8,190434.5,189719.1,197143.0,0.0
199888.4,206551.6,178625.9,256892.0,211410.0,190206.0,189425.6,196846.8,0.0
200091.7,206684.5,178753.5,257026.8,211481.6,190326.1,189512.0,196985.4,0.0
200418.6,207058.9,179186.1,257301.4,211947.8,190636.5,189871.5,197379.4,0.0
200413.6,207155.2,179316.5,257326.8,212161.8,190703.9,190003.5,197480.7,0.0
200082.4,206841.3,178960.6,257062.3,211833.3,190433.2,189728.4,197149.9,0.0
199879.6,206546.0,178598.5,256868.4,211411.2,190191.5,189424.4,196839.3,0.0
200086.9,206683.3,178732.9,257012.4,211489.3,190320.3,189520.2,196984.4,0.0
200409.9,207055.3,179161.4,257279.3,211949.2,190631.6,189871.5,197372.3,0.0
200413.2,207164.7,179300.6,257318.7,212171.9,190708.9,190007.8,197480.0,0.0
200085.8,206856.2,178950.1,257076.0,211850.1,190443.9,189737.7,197157.4,0.0
199880.5,206558.4,178590.3,256865.3,211435.9,190207.0,189435.3,196848.3,0.0
200088.9,206690.4,178723.6,257007.2,211514.6,190330.8,189525.3,196989.8,0.0
200423.5,207077.4,179166.0,257291.0,211991.4,190650.2,189889.1,197391.3,0.0
200414.9,207177.0,179293.6,257307.8,212207.8,190720.7,190016.3,197488.8,0.0
200088.0,206869.5,178940.5,257055.3,211885.4,190456.7,189746.1,197164.6,0.0
199882.9,206572.2,178578.2,256857.4,211465.9,190213.5,189441.1,196852.5,0.0
200074.5,206685.5,178692.3,256985.0,211519.4,190321.8,189515.7,196977.3,0.0
200401.8,207060.7,179126.1,257259.7,211981.0,190637.0,189876.1,197371.6,0.0
200408.7,207175.7,179267.6,257296.4,212205.8,190717.5,190019.4,197481.9,0.0
200077.0,206863.0,178909.5,257030.0,211877.2,190445.5,189740.1,197149.0,0.0
199881.3,206569.4,178553.9,256845.8,211462.2,190210.9,189434.4,196844.6,0.0
200086.4,206695.8,178681.3,256986.3,211529.7,190333.0,189517.4,196982.2,0.0
200410.4,207068.6,179110.7,257248.5,211991.1,190643.0,189871.9,197371.3,0.0
200406.8,207170.3,179242.4,257274.9,212208.4,190714.8,190005.8,197476.6,0.0
200080.4,206860.0,178887.2,257019.9,211878.8,190444.5,189732.2,197148.7,0.0
199882.5,206566.3,178531.1,256839.3,211462.4,190208.8,189432.9,196849.0,0.0
200080.3,206689.3,178652.1,256969.2,211522.0,190325.2,189513.2,196985.0,0.0
200403.8,207060.0,179084.2,257238.1,211977.7,190635.1,189863.7,197375.9,0.0
200403.6,207162.6,179219.8,257267.1,212192.8,190706.3,189995.6,197480.7,0.0
200071.2,206844.8,178858.4,257007.1,211857.1,190432.0,189712.8,197149.0,0.0
199869.6,206544.3,178494.7,256812.0,211432.7,190193.8,189406.5,196840.0,0.0
200075.7,206674.5,178619.7,256948.3,211500.8,190314.9,189493.4,196979.1,0.0
200395.3,207040.5,179041.4,257215.5,211950.9,190617.8,189840.7,197364.8,0.0
200383.3,207124.6,179157.3,257237.0,212147.5,190677.2,189959.2,197455.0,0.0
200051.2,206799.8,178792.0,256971.2,211809.4,190403.2,189676.7,197119.4,0.0
199858.6,206507.9,178436.1,256787.2,211393.6,190168.3,189376.7,196816.6,0.0
200069.2,206643.8,178566.0,256935.0,211464.7,190294.5,189467.5,196959.6,0.0
200395.8,207020.6,178999.1,257218.5,211927.5,190610.2,189825.6,197357.4,0.0
200377.0,207105.6,179113.3,257218.0,212122.9,190667.6,189942.1,197437.0,0.0
200050.2,206788.8,178754.3,256957.7,211787.3,190397.4,189664.7,197100.0,0.0
199853.5,206494.0,178395.1,256775.3,211365.5,190157.8,189363.3,196795.1,0.0
200051.3,206619.8,178515.0,256907.7,211426.4,190275.6,189448.3,196929.5,0.0
200370.2,206987.9,178936.8,257171.2,211878.5,190583.1,189798.9,197315.3,0.0
200371.2,207093.5,179068.1,257205.8,212089.8,190654.2,189931.7,197422.4,0.0
200045.3,206780.0,178711.7,256944.9,211760.2,190390.5,189660.3,197099.3,0.0
199843.8,206477.6,178348.4,256753.6,211336.6,190153.1,189357.0,196792.2,0.0
200047.5,206600.9,178470.9,256899.5,211395.3,190271.4,189439.2,196927.6,0.0
200376.8,206980.4,178905.7,257171.9,211855.3,190588.3,189797.6,197322.5,0.0
200368.3,207077.1,179031.0,257190.3,212060.4,190655.3,189924.0,197421.0,0.0
200042.0,206763.8,178673.1,256936.4,211726.8,190385.5,189649.7,197094.2,0.0
199848.8,206473.5,178319.4,256752.7,211307.0,190153.8,189356.0,196794.2,0.0
200050.1,206599.1,178440.0,256884.0,211365.8,190274.8,189441.8,196927.9,0.0
200376.1,206970.3,178869.0,257162.0,211821.4,190587.7,189795.9,197318.1,0.0
200370.6,207071.6,178999.6,257189.8,212030.5,190657.0,189927.9,197419.9,0.0
200040.9,206758.4,178640.3,256924.1,211693.9,190387.3,189651.6,197087.3,0.0
199843.7,206464.0,178283.2,256732.9,211277.5,190156.4,189352.9,196783.1,0.0
200049.0,206593.4,178409.8,256871.3,211345.4,190278.6,189440.1,196921.7,0.0
200370.7,206965.0,178835.7,257139.8,211799.2,190585.6,189789.3,197309.9,0.0
200371.7,207074.5,178968.8,257166.3,212012.6,190656.5,189920.2,197414.2,0.0
200040.9,206762.9,178608.2,256902.6,211677.4,190383.4,189639.3,197081.2,0.0
199848.3,206475.8,178255.5,256724.6,211264.7,190153.7,189341.5,196783.1,0.0
200053.6,206604.6,178385.3,256868.9,211332.5,190278.4,189431.6,196929.0,0.0
200363.2,206959.5,178805.4,257121.1,211777.8,190575.7,189774.3,197306.5,0.0
200363.1,207063.5,178940.2,257152.7,211991.8,190648.2,189905.6,197407.3,0.0
200034.2,206752.2,178584.4,256897.7,211661.5,190381.1,189631.4,197081.1,0.0
199840.8,206464.7,178233.1,256711.0,211247.9,190147.0,189334.9,196781.2,0.0
200044.9,206594.8,178363.6,256849.3,211317.0,190268.9,189422.5,196919.4,0.0
200372.1,206973.4,178800.9,257126.5,211780.2,190583.6,189780.8,197311.6,0.0
200369.2,207076.5,178935.2,257155.8,211995.6,190655.2,189916.2,197416.7,0.0
200040.6,206761.0,178575.3,256894.3,211659.3,190383.6,189636.0,197084.6,0.0
199840.5,206461.8,178215.7,256702.8,211236.9,190144.4,189329.7,196778.1,0.0
200039.3,206582.3,178338.3,256835.5,211301.7,190260.2,189411.3,196912.2,0.0
200373.4,206966.6,178776.6,257120.9,211767.8,190575.5,189769.9,197309.6,0.0
200370.7,207069.5,178912.6,257143.9,211987.6,190651.1,189907.8,197414.5,0.0
200050.9,206767.9,178567.1,256891.2,211667.5,190387.9,189642.1,197090.5,0.0
199852.2,206473.7,178212.4,256704.8,211252.1,190151.6,189342.6,196784.9,0.0
200060.4,206607.6,178344.5,256845.2,211326.7,190277.8,189434.6,196928.4,0.0
200389.8,206989.6,178785.0,257121.7,211796.0,190597.5,189796.1,197325.3,0.0
200384.7,207093.4,178919.7,257149.8,212010.4,190668.0,189928.2,197426.3,0.0
200048.8,206778.2,178562.7,256884.3,211678.1,190394.7,189649.5,197092.6,0.0
199844.3,206478.7,178207.6,256695.6,211265.5,190160.9,189349.3,196791.3,0.0
200056.3,206621.0,178344.0,256842.3,211346.6,190291.0,189447.4,196937.3,0.0
200391.5,207009.7,178786.5,257128.8,211820.4,190612.1,189815.0,197336.0,0.0
200380.1,207105.6,178917.8,257149.5,212035.8,190681.2,189945.3,197434.7,0.0
200056.0,206803.4,178569.3,256891.8,211719.9,190418.9,189676.1,197108.3,0.0
199861.7,206517.3,178218.4,256705.2,211314.2,190185.7,189382.7,196806.9,0.0
200068.1,206647.1,178350.1,256846.4,211391.0,190310.4,189474.9,196951.2,0.0
200400.6,207032.2,178791.5,257122.5,211865.5,190627.8,189837.2,197349.0,0.0
200400.8,207142.2,178933.1,257147.7,212094.3,190703.1,189973.3,197451.4,0.0
200079.1,206843.4,178589.5,256892.0,211781.7,190440.8,189705.0,197127.5,0.0
199891.6,206567.2,178255.0,256713.5,211390.1,190218.5,189422.6,196836.4,0.0
200103.4,206714.4,178403.5,256864.4,211481.9,190351.7,189524.9,196986.5,0.0
200413.7,207079.4,178828.6,257124.9,211941.3,190654.5,189872.1,197368.7,0.0
200399.7,207172.3,178953.6,257142.0,212157.7,190719.5,189999.8,197465.0,0.0
200075.2,206867.8,178603.5,256893.8,211841.4,190452.4,189730.3,197142.5,0.0
199874.2,206572.1,178252.0,256707.4,211436.4,190217.2,189433.6,196841.8,0.0
200078.9,206701.4,178383.1,256833.4,211512.0,190339.2,189522.3,196979.6,0.0
200409.1,207084.1,178823.4,257107.5,211984.2,190652.3,189881.5,197370.0,0.0
200403.2,207187.3,178961.6,257136.9,212208.5,190721.3,190015.1,197473.3,0.0
200065.8,206866.8,178601.5,256867.7,211878.8,190442.0,189732.1,197134.6,0.0
199877.3,206582.3,178256.5,256695.8,211476.0,190213.3,189438.7,196841.5,0.0
200090.1,206724.0,178398.9,256842.7,211564.5,190345.0,189538.2,196994.1,0.0
200409.1,207094.7,178829.3,257099.9,212027.4,190650.6,189886.8,197375.4,0.0
200400.0,207192.5,178961.1,257120.4,212245.2,190718.9,190015.7,197474.2,0.0
200078.4,206889.0,178612.0,256866.5,211925.5,190451.8,189743.8,197149.4,0.0
199888.5,206606.4,178266.5,256687.0,211523.8,190223.0,189449.5,196851.7,0.0
200093.3,206739.4,178400.0,256832.7,211600.8,190347.6,189540.2,196994.5,0.0
200407.0,207108.4,178826.8,257094.1,212058.5,190651.8,189890.4,197378.3,0.0
200397.3,207207.7,178958.6,257115.5,212273.9,190719.5,190019.4,197476.2,0.0
200078.2,206903.6,178614.4,256875.5,211962.0,190461.8,189757.7,197160.2,0.0
199884.1,206611.3,178260.3,256684.0,211550.7,190227.5,189458.0,196857.8,0.0
200084.9,206733.9,178380.4,256817.3,211616.2,190344.7,189538.3,196989.6,0.0
200410.6,207108.6,178812.5,257087.0,212082.7,190656.6,189895.6,197378.9,0.0
200409.1,207213.4,178949.1,257114.2,212302.3,190727.6,190029.2,197480.9,0.0
200083.6,206903.9,178595.2,256852.5,211972.6,190456.7,189754.1,197152.8,0.0
199887.7,206607.1,178241.6,256666.5,211556.4,190218.8,189455.3,196851.0,0.0
200091.7,206732.9,178371.8,256808.1,211627.1,190339.5,189544.7,196987.8,0.0
200416.8,207110.4,178806.4,257077.3,212092.0,190650.4,189900.0,197376.6,0.0
200422.0,207222.0,178949.9,257118.1,212318.2,190729.5,190042.0,197488.5,0.0
200098.0,206911.3,178597.4,256866.2,211989.0,190460.3,189770.7,197162.4,0.0
199897.4,206609.8,178235.6,256680.9,211564.2,190218.5,189465.3,196857.2,0.0
200093.1,206726.7,178355.6,256809.8,211626.8,190331.8,189544.1,196984.3,0.0
200412.8,207094.1,178784.9,257073.4,212087.2,190641.7,189897.8,197371.8,0.0
200411.5,207199.2,178916.6,257108.7,212300.5,190712.3,190030.4,197476.2,0.0
200075.2,206876.1,178554.1,256847.4,211968.2,190440.5,189751.4,197145.7,0.0
199872.3,206576.0,178192.7,256635.0,211546.7,190201.2,189445.4,196832.1,0.0
200074.6,206702.6,178319.5,256770.6,211609.3,190321.5,189529.3,196969.3,0.0
200396.3,207072.0,178747.7,257040.9,212066.0,190629.8,189879.3,197358.5,0.0
200391.4,207172.0,178875.8,257066.4,212278.4,190699.1,190008.1,197460.1,0.0
200058.5,206854.9,178513.0,256801.9,211941.9,190426.2,189728.5,197127.9,0.0
199861.1,206559.5,178157.6,256618.4,211525.6,190190.0,189428.6,196824.2,0.0
200065.9,206686.9,178283.4,256765.0,211592.1,190310.0,189513.8,196962.1,0.0
200390.8,207061.1,178714.4,257038.6,212052.8,190622.8,189868.2,197353.9,0.0
200389.0,207162.0,178845.3,257058.3,212267.7,190695.4,189999.9,197456.4,0.0
200063.6,206847.0,178487.7,256800.2,211939.4,190427.0,189725.5,197130.2,0.0
199863.1,206548.5,178129.4,256610.8,211521.4,190190.1,189423.1,196824.8,0.0
200060.9,206666.8,178247.4,256746.5,211577.2,190303.6,189500.1,196954.9,0.0
200383.3,207036.9,178675.7,257029.5,212032.1,190614.3,189852.2,197345.6,0.0
200369.0,207125.8,178795.6,257042.8,212233.2,190679.0,189971.6,197434.6,0.0
200040.2,206807.2,178432.0,256776.3,211891.3,190408.6,189688.2,197099.4,0.0
199849.7,206518.6,178077.6,256594.4,211469.2,190176.8,189389.4,196799.3,0.0
200053.8,206643.6,178200.6,256733.3,211528.3,190298.6,189472.0,196939.4,0.0
200378.9,207019.1,178624.3,256994.4,211976.2,190607.1,189819.0,197322.5,0.0
200370.8,207109.6,178744.9,257021.0,212174.6,190672.3,189941.8,197416.0,0.0
200037.4,206785.0,178379.1,256758.3,211830.4,190401.4,189662.4,197082.3,0.0
199849.0,206501.4,178025.7,256571.6,211412.4,190172.2,189366.6,196788.3,0.0
200050.6,206623.6,178144.4,256707.4,211467.3,190289.1,189446.2,196926.9,0.0
200366.7,206986.8,178561.0,256964.5,211910.9,190592.3,189787.9,197309.5,0.0
200367.1,207088.3,178691.3,256992.2,212121.0,190665.5,189921.8,197415.8,0.0
200042.8,206780.2,178334.8,256741.4,211788.1,190399.9,189650.8,197091.3,0.0
199845.2,206487.1,177977.6,256551.4,211366.2,190165.8,189350.5,196788.6,0.0
200039.3,206608.0,178094.6,256670.7,211421.2,190279.9,189430.7,196919.6,0.0
200373.0,206989.6,178529.7,256948.0,211880.1,190596.5,189790.1,197316.9,0.0
200366.2,207085.3,178655.6,256972.2,212084.7,190663.8,189917.3,197417.1,0.0
200037.2,206772.0,178295.9,256708.5,211749.1,190395.4,189639.5,197088.2,0.0
199847.0,206483.7,177944.9,256530.6,211334.8,190167.4,189346.2,196793.3,0.0
200044.5,206607.7,178064.8,256665.8,211395.6,190287.7,189432.3,196928.7,0.0
200364.7,206972.8,178488.5,256930.5,211849.6,190595.8,189785.0,197316.8,0.0
200353.3,207064.2,178609.9,256949.2,212051.5,190658.8,189909.2,197413.3,0.0
200023.0,206744.3,178248.3,256692.1,211710.1,190385.7,189631.5,197084.3,0.0
199836.1,206460.5,177899.9,256514.4,211294.6,190156.4,189338.8,196788.9,0.0
200038.5,206590.1,178025.4,256657.4,211359.4,190275.8,189423.8,196926.0,0.0
200354.7,206955.2,178448.1,256919.7,211807.4,190577.6,189770.3,197310.4,0.0
200342.8,207044.8,178567.2,256927.0,212007.5,190637.3,189888.9,197402.4,0.0
200010.8,206722.2,178195.8,256665.2,211658.4,190356.6,189600.7,197065.1,0.0
199815.5,206432.0,177840.0,256484.5,211235.8,190121.2,189303.5,196766.9,0.0
200015.6,206552.5,177961.1,256620.2,211289.7,190237.2,189384.6,196902.3,0.0
200334.5,206918.7,178382.5,256878.8,211733.3,190543.1,189730.8,197281.3,0.0
200325.0,207011.4,178505.2,256900.3,211932.2,190607.9,189855.6,197377.5,0.0
199994.8,206691.3,178140.8,256635.9,211588.7,190336.8,189575.3,197044.1,0.0
199801.2,206393.3,177780.6,256451.1,211162.4,190104.5,189273.0,196740.5,0.0
200010.0,206524.4,177906.1,256595.6,211219.3,190224.7,189360.0,196880.5,0.0
200330.6,206889.6,178328.8,256872.4,211662.5,190530.1,189710.0,197267.2,0.0
200319.4,206978.0,178448.8,256891.0,211857.1,190594.5,189832.1,197362.3,0.0
199989.9,206661.4,178083.3,256623.0,211512.7,190320.0,189548.4,197030.0,0.0
199795.2,206365.6,177721.8,256436.5,211083.3,190079.5,189244.2,196724.2,0.0
199996.7,206490.7,177844.5,256574.3,211141.2,190199.2,189330.7,196861.3,0.0
200313.1,206858.1,178269.1,256843.1,211591.1,190508.5,189679.9,197248.3,0.0
200312.7,206962.7,178401.6,256873.2,211801.5,190584.5,189812.7,197353.9,0.0
199988.0,206653.9,178044.0,256613.1,211465.3,190314.6,189535.3,197024.4,0.0
199797.9,206365.3,177693.2,256430.8,211049.8,190086.8,189242.1,196726.5,0.0
199998.2,206485.5,177813.0,256569.3,211105.9,190207.5,189325.7,196863.0,0.0
200325.8,206863.0,178242.6,256839.3,211557.8,190520.7,189681.7,197254.9,0.0
200323.1,206967.7,178372.8,256864.0,211762.8,190591.0,189812.6,197356.0,0.0
199986.3,206643.3,178004.7,256603.8,211417.0,190316.9,189531.0,197023.0,0.0
199779.5,206332.6,177631.2,256406.2,210978.1,190073.7,189218.9,196709.8,0.0
199979.1,206452.7,177742.6,256535.4,211021.0,190185.7,189291.9,196839.1,0.0
200309.5,206827.3,178167.8,256811.1,211463.5,190499.8,189642.4,197231.0,0.0
200303.7,206927.1,178293.1,256845.3,211660.6,190571.3,189769.2,197331.8,0.0
199973.9,206614.4,177932.3,256580.4,211317.4,190302.6,189491.0,196996.9,0.0
199770.4,206316.5,177565.3,256379.5,210883.6,190062.6,189183.8,196683.1,0.0
199976.2,206447.2,177691.8,256523.4,210947.5,190187.5,189273.3,196823.8,0.0
200302.2,206822.1,178123.3,256799.5,211405.8,190502.5,189629.9,197215.7,0.0
200299.7,206925.0,178257.0,256824.5,211617.9,190575.8,189764.4,197317.9,0.0
199979.3,206619.4,177908.2,256578.3,211295.5,190316.5,189500.2,197000.3,0.0
199786.3,206333.3,177559.5,256395.6,210884.9,190087.6,189207.2,196701.9,0.0
199997.2,206477.0,177699.8,256535.8,210963.5,190216.0,189305.3,196848.3,0.0
200320.5,206856.6,178140.7,256802.8,211430.9,190531.2,189667.6,197244.1,0.0
200312.0,206955.6,178271.2,256828.3,211642.4,190600.4,189798.0,197343.3,0.0
199988.9,206650.2,177919.6,256572.8,211319.2,190339.2,189531.7,197018.4,0.0
199793.8,206362.8,177570.7,256389.7,210910.4,190109.7,189242.7,196720.8,0.0
199992.5,206489.2,177699.3,256523.5,210980.9,190233.0,189335.6,196859.5,0.0
200317.3,206867.0,178132.5,256796.9,211443.4,190546.9,189695.6,197252.3,0.0
200310.9,206966.1,178262.0,256826.3,211653.4,190615.2,189829.2,197352.8,0.0
199980.6,206648.9,177902.8,256564.3,211316.8,190341.8,189551.6,197020.2,0.0
199787.9,206359.7,177551.6,256380.4,210902.5,190109.7,189255.3,196717.9,0.0
199987.0,206484.1,177676.1,256516.7,210966.1,190228.0,189338.0,196852.0,0.0
200309.7,206856.6,178108.0,256793.3,211425.7,190540.7,189693.0,197246.2,0.0
200301.5,206954.3,178236.9,256814.2,211633.6,190603.8,189820.7,197342.9,0.0
199974.2,206639.1,177879.5,256558.1,211300.5,190331.5,189544.6,197017.0,0.0
199781.0,206348.7,177527.2,256380.0,210887.5,190100.6,189249.9,196724.5,0.0
199986.8,206478.5,177659.4,256515.4,210959.7,190225.0,189343.0,196863.4,0.0
200318.1,206857.0,178097.3,256791.9,211423.7,190541.6,189704.5,197256.5,0.0
200307.1,206947.8,178221.9,256818.5,211628.0,190607.1,189829.3,197351.3,0.0
199977.7,206636.2,177865.7,256556.1,211297.7,190342.3,189558.5,197024.2,0.0
199794.6,206359.7,177522.3,256375.8,210894.2,190120.9,189271.5,196731.6,0.0
199993.0,206479.9,177648.3,256511.1,210959.9,190236.9,189354.7,196866.8,0.0
200318.4,206853.6,178081.6,256782.0,211423.1,190547.6,189709.5,197259.9,0.0
200314.1,206958.8,178217.0,256811.1,211643.4,190621.9,189842.0,197364.8,0.0
199989.9,206659.4,177871.0,256557.9,211326.2,190361.9,189575.4,197043.1,0.0
199797.9,206376.3,177527.9,256375.0,210922.7,190132.8,189284.3,196746.0,0.0
200004.0,206511.5,177668.0,256516.8,211004.6,190258.0,189380.2,196890.4,0.0
200332.3,206893.8,178112.0,256793.4,211479.2,190574.6,189744.8,197284.9,0.0
200328.8,206996.4,178244.1,256822.4,211695.9,190643.7,189875.9,197384.5,0.0
199999.8,206687.1,177887.9,256568.0,211367.2,190374.6,189602.1,197055.4,0.0
199807.3,206404.4,177544.9,256379.3,210967.5,190149.3,189313.6,196760.9,0.0
200013.0,206543.2,177687.7,256516.5,211055.2,190277.7,189412.7,196905.6,0.0
200344.2,206929.6,178131.2,256788.4,211532.4,190591.8,189775.6,197301.5,0.0
200339.1,207034.0,178267.1,256817.4,211758.5,190662.7,189910.5,197405.4,0.0
200019.2,206733.3,177926.1,256568.8,211451.2,190404.6,189645.9,197086.5,0.0
199827.7,206454.5,177590.3,256388.7,211063.8,190180.7,189364.1,196795.0,0.0
200039.5,206600.0,177743.2,256546.5,211163.2,190316.2,189472.7,196951.0,0.0
200358.1,206980.3,178185.3,256807.6,211643.8,190629.7,189832.4,197340.3,0.0
200362.9,207100.6,178337.3,256841.3,211888.9,190711.0,189979.1,197450.4,0.0
200051.2,206813.2,178007.4,256596.9,211598.6,190461.2,189728.0,197140.7,0.0
199853.9,206528.7,177662.8,256406.9,211206.0,190228.4,189437.2,196842.0,0.0
200059.4,206667.5,177801.8,256545.2,211294.9,190350.1,189531.4,196984.3,0.0
200385.5,207046.0,178246.1,256823.7,211777.3,190665.8,189893.1,197380.6,0.0
200385.0,207151.9,178387.6,256846.5,212006.4,190737.2,190023.2,197481.7,0.0
200052.9,206841.8,178041.2,256587.7,211691.4,190466.9,189747.6,197153.2,0.0
199857.1,206558.1,177696.9,256399.4,211291.8,190231.8,189450.4,196851.2,0.0
200053.8,206682.9,177826.5,256533.0,211371.8,190348.4,189534.8,196985.1,0.0
200376.9,207059.8,178264.4,256805.1,211846.4,190658.9,189890.2,197375.2,0.0
200373.4,207161.9,178401.4,256834.0,212068.8,190729.3,190021.2,197477.3,0.0
200044.5,206848.8,178046.7,256575.3,211742.0,190456.5,189743.5,197144.5,0.0
199846.5,206550.0,177690.2,256385.8,211325.0,190216.0,189436.0,196836.5,0.0
200046.7,206675.8,177822.3,256519.2,211398.3,190336.7,189520.4,196974.2,0.0
200363.1,207039.5,178250.3,256780.6,211855.4,190638.3,189865.9,197354.7,0.0
200352.6,207131.9,178378.6,256812.4,212066.5,190702.3,189992.0,197450.3,0.0
200031.8,206827.9,178031.5,256558.5,211748.9,190441.7,189724.6,197128.6,0.0
199843.7,206549.2,177684.5,256372.4,211344.1,190213.3,189432.8,196833.3,0.0
200047.6,206677.0,177815.2,256521.5,211416.5,190334.2,189525.5,196975.0,0.0
200357.6,207038.2,178237.7,256771.3,211868.0,190635.8,189872.1,197352.9,0.0
200343.7,207131.2,178359.9,256787.7,212071.2,190694.5,189994.2,197443.4,0.0
200015.8,206818.2,178000.5,256523.7,211737.3,190420.5,189714.6,197111.1,0.0
199822.5,206523.1,177643.1,256344.2,211319.7,190186.3,189414.3,196811.0,0.0
200028.7,206648.2,177768.2,256490.0,211386.5,190309.7,189501.3,196954.5,0.0
200345.7,207008.3,178186.7,256754.3,211833.2,190613.0,189844.8,197336.7,0.0
200327.3,207093.3,178297.5,256761.4,212018.7,190662.6,189952.1,197412.2,0.0
200000.5,206776.8,177939.7,256506.4,211681.6,190390.3,189674.6,197080.3,0.0
199807.7,206479.8,177585.0,256322.0,211260.3,190156.8,189373.4,196777.2,0.0
200015.1,206609.1,177713.5,256461.8,211325.4,190280.7,189459.3,196916.1,0.0
200331.6,206974.3,178137.2,256722.2,211777.7,190584.8,189804.6,197299.4,0.0
200328.1,207073.2,178264.2,256754.9,211983.4,190653.3,189932.5,197399.8,0.0
199995.8,206749.6,177894.1,256500.7,211634.7,190375.4,189645.7,197064.3,0.0
199797.0,206449.6,177536.2,256304.3,211213.0,190142.4,189345.1,196759.0,0.0
200009.4,206581.3,177671.3,256451.9,211285.1,190270.8,189440.0,196904.2,0.0
200336.3,206958.8,178100.0,256725.1,211737.3,190578.0,189793.0,197294.5,0.0
200323.1,207051.9,178222.6,256745.4,211937.2,190641.1,189916.3,197389.9,0.0
199992.6,206735.2,177860.7,256483.4,211599.1,190368.1,189636.8,197056.6,0.0
199797.1,206440.1,177505.8,256298.6,211181.2,190136.5,189338.0,196753.8,0.0
200003.2,206573.8,177638.9,256443.6,211255.2,190266.4,189431.8,196898.7,0.0
200332.8,206960.9,178078.0,256717.1,211720.5,190582.3,189791.6,197290.1,0.0
200336.4,207073.8,178218.0,256747.3,211940.2,190659.3,189926.9,197396.6,0.0
200010.4,206764.0,177866.3,256493.8,211613.9,190394.0,189655.0,197072.5,0.0
199809.4,206469.1,177512.0,256307.0,211199.8,190160.7,189355.0,196772.0,0.0
200012.0,206599.7,177646.9,256444.3,211280.0,190285.7,189447.6,196917.5,0.0
200339.0,206980.8,178086.4,256719.1,211750.7,190600.9,189806.8,197311.5,0.0
200340.6,207089.3,178230.2,256766.0,211976.0,190677.7,189945.8,197420.5,0.0
200013.9,206782.6,177881.5,256504.2,211658.2,190413.3,189678.7,197097.3,0.0
199822.5,206503.2,177538.7,256317.8,211262.4,190186.9,189394.2,196802.3,0.0
200033.8,206647.8,177682.1,256462.2,211354.4,190318.0,189497.3,196951.2,0.0
200372.6,207043.1,178135.7,256754.5,211841.7,190646.3,189872.8,197361.4,0.0
200360.2,207147.1,178271.2,256767.4,212065.1,190711.8,190005.5,197455.0,0.0
200029.9,206840.5,177924.0,256500.9,211753.5,190443.8,189734.8,197125.2,0.0
199833.3,206550.2,177577.6,256313.2,211352.6,190209.1,189438.3,196824.2,0.0
200042.5,206690.3,177723.9,256460.9,211447.3,190341.9,189539.9,196974.7,0.0
200371.0,207079.4,178173.8,256738.9,211936.8,190662.5,189905.9,197371.4,0.0
200366.0,207195.4,178316.1,256766.7,212170.9,190735.4,190040.0,197472.8,0.0
200041.2,206893.8,177972.6,256518.8,211865.1,190473.4,189773.7,197152.1,0.0
199853.0,206618.3,177636.8,256337.3,211481.9,190249.5,189492.2,196860.6,0.0
200057.1,206754.3,177777.1,256476.4,211573.9,190371.7,189588.7,197004.6,0.0
200372.8,207126.2,178212.6,256742.4,212045.4,190677.5,189942.2,197392.2,0.0
200365.3,207225.7,178348.3,256764.2,212271.0,190745.4,190071.9,197492.3,0.0
200040.0,206918.4,177998.2,256507.6,211952.7,190473.3,189794.6,197164.4,0.0
199847.0,206631.0,177655.3,256326.4,211553.4,190244.6,189500.4,196868.7,0.0
200054.7,206766.8,177796.9,256469.2,211640.3,190373.3,189597.7,197014.8,0.0
200369.5,207132.2,178222.8,256728.1,212101.7,190674.4,189945.7,197395.0,0.0
200362.2,207226.7,178351.5,256758.5,212314.8,190738.0,190068.5,197490.2,0.0
200022.5,206898.0,177983.6,256493.4,211976.1,190456.9,189778.8,197151.4,0.0
199821.9,206598.6,177623.2,256300.2,211557.1,190214.7,189468.8,196842.5,0.0
200020.3,206720.9,177748.0,256432.5,211625.6,190332.2,189549.9,196976.5,0.0
200342.5,207089.7,178175.7,256703.0,212084.4,190639.6,189898.0,197364.5,0.0
200337.3,207186.0,178303.5,256734.5,212292.1,190706.6,190024.2,197462.5,0.0
200006.5,206866.2,177942.5,256471.6,211954.5,190432.4,189745.2,197129.1,0.0
199806.5,206562.6,177582.5,256277.5,211531.8,190193.3,189441.0,196822.2,0.0
200005.7,206680.9,177700.3,256412.3,211588.2,190305.3,189517.1,196952.5,0.0
200333.8,207057.0,178132.1,256690.0,212049.9,190618.2,189873.5,197343.8,0.0
200327.9,207155.8,178259.0,256715.0,212260.1,190686.7,189999.9,197440.9,0.0
199997.0,206838.2,177895.1,256454.2,211920.4,190412.4,189717.0,197108.5,0.0
199805.0,206545.9,177540.0,256269.9,211502.4,190177.5,189416.3,196807.0,0.0
200010.5,206676.0,177665.7,256400.9,211571.1,190300.0,189503.4,196943.7,0.0
200339.0,207054.6,178099.0,256676.9,212034.2,190616.7,189860.3,197337.0,0.0
200331.7,207150.3,178226.4,256707.0,212239.7,190682.5,189985.8,197436.3,0.0
200005.6,206832.7,177869.6,256458.2,211903.0,190411.5,189709.5,197110.5,0.0
199804.0,206532.0,177509.7,256259.5,211480.5,190172.0,189405.0,196801.8,0.0
200002.3,206654.9,177637.1,256392.4,211549.7,190294.2,189492.6,196940.9,0.0
200328.7,207030.6,178071.0,256664.3,212013.4,190609.9,189852.6,197333.7,0.0
200323.7,207134.3,178202.3,256687.4,212228.8,190681.9,189985.2,197434.0,0.0
200003.7,206834.3,177856.9,256437.9,211911.0,190421.5,189718.8,197111.4,0.0
199814.2,206553.4,177515.4,256256.1,211510.6,190197.2,189431.7,196818.0,0.0
200021.6,206688.2,177653.5,256397.4,211595.3,190323.8,189528.0,196962.2,0.0
200343.1,207061.3,178085.6,256665.2,212059.9,190631.7,189883.4,197349.2,0.0
200337.9,207164.5,178221.1,256691.6,212280.5,190702.2,190017.0,197451.2,0.0
200006.6,206848.5,177865.2,256432.0,211953.2,190428.8,189739.1,197119.4,0.0
199812.2,206556.4,177513.8,256247.3,211541.8,190194.8,189439.5,196820.2,0.0
200016.8,206682.3,177641.3,256384.9,211609.5,190315.7,189525.0,196959.6,0.0
200332.9,207045.8,178062.6,256649.2,212061.8,190618.4,189870.3,197340.1,0.0
200323.0,207135.7,178182.9,256672.2,212260.6,190677.8,189989.3,197429.1,0.0
199999.0,206818.3,177820.0,256419.3,211913.4,190401.4,189703.2,197095.2,0.0
199796.2,206511.2,177454.0,256230.9,211478.0,190155.2,189391.6,196787.5,0.0
199991.0,206627.5,177572.7,256357.6,211532.3,190268.4,189469.1,196919.1,0.0
200315.1,206999.8,178001.8,256625.0,211984.8,190579.8,189821.6,197307.9,0.0
200318.2,207099.4,178130.5,256662.2,212189.9,190651.5,189950.7,197412.0,0.0
199987.4,206775.6,177760.3,256398.8,211840.1,190375.7,189665.3,197077.7,0.0
199789.1,206473.7,177397.1,256211.4,211407.7,190137.6,189357.9,196771.2,0.0
199985.8,206589.0,177514.6,256344.0,211460.1,190254.6,189435.6,196903.1,0.0
200310.9,206958.3,177943.0,256620.0,211910.5,190567.4,189787.0,197292.6,0.0
200305.9,207050.4,178065.5,256648.1,212107.0,190634.1,189907.9,197388.3,0.0
199977.4,206733.3,177700.3,256379.1,211760.1,190359.6,189621.8,197052.8,0.0
199780.3,206436.6,177344.2,256189.0,211333.8,190123.3,189323.2,196753.8,0.0
199976.2,206550.3,177460.2,256315.4,211382.4,190236.7,189403.0,196882.3,0.0
200298.3,206918.9,177884.0,256582.9,211824.8,190544.5,189750.5,197267.8,0.0
200296.9,207016.0,178008.5,256616.9,212022.6,190613.5,189876.0,197367.6,0.0
199973.4,206700.1,177649.3,256362.5,211680.9,190344.9,189597.9,197039.5,0.0
199779.9,206403.9,177292.2,256166.3,211255.6,190112.6,189296.5,196737.4,0.0
199985.2,206531.7,177421.2,256305.8,211319.7,190237.3,189386.6,196876.2,0.0
200311.1,206904.3,177849.4,256580.3,211770.1,190548.5,189741.4,197265.8,0.0
200298.1,206989.3,177963.3,256599.5,211960.7,190609.7,189860.5,197356.6,0.0
199979.4,206683.5,177608.6,256350.0,211624.0,190346.0,189588.3,197031.4,0.0
199785.5,206398.9,177256.0,256157.6,211207.4,190115.9,189293.6,196734.6,0.0
199993.4,206531.5,177386.1,256300.7,211277.5,190244.3,189386.5,196878.2,0.0
200319.4,206905.7,177818.2,256578.5,211735.7,190558.8,189743.9,197270.0,0.0
200305.5,206997.1,177938.0,256591.1,211933.4,190623.8,189865.9,197362.6,0.0
199978.1,206686.9,177577.9,256339.0,211593.3,190353.3,189589.6,197033.9,0.0
199785.1,206395.5,177224.0,256151.5,211170.2,190119.3,189293.2,196735.5,0.0
199987.5,206522.9,177349.8,256288.5,211234.2,190241.9,189383.3,196879.9,0.0
200295.6,206879.1,177767.4,256546.1,211677.2,190542.8,189727.3,197259.3,0.0
200289.0,206975.2,177892.0,256568.7,211877.5,190608.9,189851.4,197356.2,0.0
199961.5,206663.7,177530.3,256309.2,211534.5,190334.0,189570.9,197023.8,0.0
199771.5,206377.2,177177.9,256125.3,211115.2,190104.2,189276.4,196724.4,0.0
199976.9,206505.7,177305.5,256262.4,211180.5,190226.4,189363.5,196863.3,0.0
200302.6,206878.4,177735.0,256537.5,211636.3,190537.2,189718.5,197257.2,0.0
200287.7,206960.1,177848.7,256553.3,211827.0,190593.3,189835.9,197346.7,0.0
199952.3,206630.5,177474.7,256287.0,211469.6,190310.7,189545.4,197003.3,0.0
199760.1,206338.0,177113.5,256098.2,211037.1,190073.3,189240.8,196698.8,0.0
199970.4,206472.6,177241.3,256248.5,211094.0,190197.9,189329.8,196844.0,0.0
200283.5,206829.3,177654.2,256513.8,211522.5,190496.6,189669.7,197224.3,0.0
200264.1,206899.8,177755.7,256525.7,211690.3,190543.6,189773.7,197304.8,0.0
199933.5,206570.3,177379.5,256266.3,211325.1,190265.7,189481.5,196965.3,0.0
199739.2,206270.0,177011.8,256084.6,210879.6,190026.0,189171.4,196656.6,0.0
199935.9,206382.4,177121.5,256209.1,210914.6,190139.7,189245.9,196783.8,0.0
200249.6,206732.5,177527.8,256470.3,211335.1,190439.8,189582.4,197160.5,0.0
200232.4,206808.5,177624.0,256484.6,211496.5,190490.9,189683.4,197243.4,0.0
199890.4,206470.8,177235.5,256207.2,211114.3,190203.3,189380.5,196895.9,0.0
199690.8,206161.6,176859.2,256012.6,210654.9,189959.3,189065.8,196582.8,0.0
199888.1,206270.3,176962.9,256145.5,210681.5,190067.4,189134.4,196710.7,0.0
200201.8,206619.5,177366.1,256409.1,211094.4,190365.7,189467.6,197088.0,0.0
200184.3,206687.8,177462.1,256432.0,211252.4,190423.5,189575.4,197177.8,0.0
199843.4,206345.6,177067.5,256155.1,210860.7,190134.1,189272.3,196825.5,0.0
199646.3,206038.0,176692.0,255967.6,210398.9,189891.4,188956.6,196512.4,0.0
199847.8,206151.1,176798.8,256110.9,210424.3,190008.3,189030.7,196649.0,0.0
200153.5,206492.0,177190.0,256364.2,210820.6,190299.7,189357.4,197017.4,0.0
200135.8,206563.9,177282.3,256382.9,210970.4,190353.6,189465.4,197100.5,0.0
199794.3,206219.5,176887.3,256112.4,210573.8,190068.4,189168.7,196753.8,0.0
199597.2,205908.1,176505.4,255920.6,210101.9,189825.0,188857.1,196442.8,0.0
199799.7,206022.7,176610.3,256052.6,210122.5,189942.1,188935.8,196577.6,0.0
200118.6,206376.3,177015.9,256320.3,210533.1,190246.8,189278.8,196961.7,0.0
200109.5,206459.1,177121.3,256343.0,210696.0,190309.6,189398.2,197054.6,0.0
199784.8,206138.6,176748.5,256090.6,210326.1,190041.6,189119.7,196724.8,0.0
199594.4,205844.0,176383.3,255913.5,209882.8,189817.4,188824.1,196428.3,0.0
199802.8,205970.8,176504.0,256049.0,209931.8,189950.1,188918.7,196569.7,0.0
200141.4,206366.3,176942.3,256328.6,210386.9,190279.9,189288.7,196974.2,0.0
200134.7,206467.7,177068.5,256354.0,210584.1,190354.4,189422.6,197077.4,0.0
199814.7,206163.0,176717.7,256106.6,210250.5,190094.3,189162.8,196757.4,0.0
199634.6,205895.0,176383.3,255932.7,209852.0,189880.5,188892.0,196476.4,0.0
199847.8,206050.7,176536.1,256078.0,209947.5,190025.7,189009.9,196635.5,0.0
200183.9,206455.4,176996.7,256365.8,210442.8,190365.4,189399.2,197048.7,0.0
200184.7,206578.5,177147.5,256395.8,210680.0,190449.8,189552.0,197160.8,0.0
199862.5,206284.3,176812.4,256146.1,210374.5,190195.4,189301.1,196848.1,0.0
199668.4,206007.4,176477.2,255962.9,209982.0,189971.2,189022.1,196558.2,0.0
199887.2,206165.9,176634.8,256120.0,210087.3,190113.7,189137.3,196718.9,0.0
200220.0,206561.5,177089.2,256407.1,210578.5,190438.0,189516.1,197127.6,0.0
200210.5,206665.8,177227.9,256429.5,210806.3,190506.1,189653.9,197232.3,0.0
199882.5,206363.3,176882.0,256165.9,210491.1,190235.3,189387.8,196902.4,0.0
199701.6,206093.9,176555.2,255997.2,210110.0,190016.3,189109.5,196620.1,0.0
199908.2,206235.9,176705.5,256145.0,210210.1,190147.3,189211.3,196770.6,0.0
200234.8,206623.6,177157.1,256419.1,210701.8,190468.9,189582.2,197171.3,0.0
200243.4,206749.0,177317.8,256456.2,210953.6,190556.6,189736.6,197288.0,0.0
199931.2,206464.2,176993.9,256218.1,210668.6,190308.2,189488.2,196979.8,0.0
199740.7,206192.7,176662.9,256038.6,210289.6,190081.8,189206.0,196688.3,0.0
199951.5,206346.8,176819.8,256170.0,210399.6,190217.0,189318.2,196840.0,0.0
200273.5,206734.1,177270.2,256445.7,210893.7,190536.2,189687.9,197238.9,0.0
200262.0,206838.8,177408.4,256468.0,211127.2,190606.8,189819.3,197340.0,0.0
199936.5,206539.8,177067.7,256214.2,210824.1,190342.2,189551.4,197016.7,0.0
199751.7,206269.9,176741.0,256040.2,210447.4,190119.5,189269.8,196727.9,0.0
199958.8,206414.1,176889.8,256185.8,210548.9,190246.7,189366.9,196873.2,0.0
200285.9,206801.8,177341.6,256463.6,211042.8,190564.2,189730.2,197269.3,0.0
200275.0,206903.9,177479.8,256478.2,211272.4,190629.6,189858.6,197365.1,0.0
199940.7,206593.7,177130.2,256211.0,210957.4,190358.5,189583.5,197028.5,0.0
199754.2,206316.3,176797.3,256033.9,210572.6,190133.7,189297.6,196737.5,0.0
199960.3,206452.9,176941.3,256176.0,210666.9,190256.2,189389.2,196884.1,0.0
200282.7,206832.1,177385.2,256452.3,211151.2,190569.7,189747.2,197276.6,0.0
200270.8,206932.8,177524.5,256473.6,211380.3,190639.2,189878.3,197371.6,0.0
199946.9,206628.1,177181.5,256218.9,211068.3,190372.0,189607.6,197043.7,0.0
199759.0,206348.5,176844.6,256034.7,210677.2,190146.3,189318.0,196749.3,0.0
199966.3,206487.9,176991.8,256179.1,210771.6,190274.1,189415.3,196895.9,0.0
200290.2,206867.3,177433.5,256446.4,211250.9,190585.5,189771.8,197286.0,0.0
200288.5,206975.5,177575.4,256481.0,211483.5,190658.3,189907.0,197391.8,0.0
199975.1,206687.1,177240.3,256244.5,211180.5,190402.7,189643.4,197078.7,0.0
199772.8,206397.6,176891.4,256036.8,210780.7,190166.5,189345.3,196773.4,0.0
199972.0,206521.7,177024.4,256168.6,210863.9,190282.8,189433.1,196909.5,0.0
200301.8,206907.5,177467.0,256440.3,211344.3,190593.7,189793.4,197300.9,0.0
200298.1,207015.7,177609.3,256470.3,211579.4,190665.6,189929.8,197404.5,0.0
199972.4,206713.4,177272.2,256223.7,211276.0,190402.3,189664.5,197086.3,0.0
199785.5,206443.4,176946.4,256045.4,210897.8,190183.7,189381.4,196797.6,0.0
