EEG 1,EEG 2,EEG 3,EEG 4,EEG 5,EEG 6,EEG 7,EEG 8,TRIG
194489.6,205013.2,196779.4,255101.4,201796.2,191031.3,186344.0,198947.9,0.0
194987.9,205932.4,197841.8,255569.1,203199.1,191738.4,187282.4,199810.0,0.0
194730.5,205843.0,197762.3,255337.2,203404.0,191575.0,187249.6,199638.5,0.0
194065.8,204862.6,196497.9,254673.4,202119.7,190759.1,186282.1,198665.2,0.0
193903.7,204348.7,195653.7,254437.0,201122.7,190418.4,185717.4,198232.8,0.0
194479.7,205016.3,196261.4,254923.1,201798.5,191030.8,186342.6,198947.2,0.0
194979.5,205929.6,197329.8,255401.4,203204.9,191737.6,187283.8,199809.7,0.0
194713.0,205830.3,197247.7,255157.6,203404.3,191560.5,187239.1,199629.3,0.0
194057.3,204858.8,195998.4,254500.8,202128.4,190750.8,186277.4,198660.8,0.0
193906.7,204348.3,195163.6,254274.7,201133.9,190416.4,185716.4,198229.2,0.0
194480.2,205015.5,195772.8,254759.7,201807.1,191026.0,186336.4,198939.5,0.0
194993.9,205940.5,196855.0,255257.7,203219.5,191738.9,187285.0,199809.9,0.0
194732.3,205851.0,196786.6,255025.2,203430.7,191574.3,187255.1,199641.9,0.0
194052.1,204867.0,195529.8,254343.8,202147.2,190756.9,186286.4,198659.9,0.0
193889.9,204344.3,194685.2,254107.7,201138.1,190409.9,185711.4,198216.7,0.0
194456.4,204995.7,195283.5,254590.4,201791.6,191010.6,186321.2,198919.3,0.0
194973.1,205925.1,196375.5,255075.3,203208.1,191729.1,187275.9,199794.1,0.0
194724.5,205840.8,196320.7,254854.5,203425.6,191572.3,187252.9,199632.5,0.0
194055.3,204854.5,195063.5,254193.7,202139.5,190755.2,186283.3,198655.9,0.0
193902.1,204340.3,194228.6,253969.2,201137.9,190416.5,185717.8,198222.7,0.0
194473.4,205001.0,194839.7,254448.5,201802.7,191023.4,186336.6,198930.3,0.0
194981.5,205926.1,195929.7,254933.5,203216.1,191738.9,187287.3,199801.3,0.0
194728.7,205841.8,195879.0,254713.2,203436.1,191581.6,187263.0,199636.9,0.0
194062.1,204864.6,194635.2,254049.3,202157.4,190770.7,186299.2,198665.4,0.0
193905.3,204346.6,193802.2,253822.3,201151.9,190429.2,185732.3,198229.5,0.0
194472.7,205003.1,194408.2,254303.3,201804.1,191029.5,186344.8,198931.3,0.0
194973.9,205925.2,195493.5,254779.9,203208.8,191737.6,187288.9,199795.2,0.0
194727.3,205852.3,195456.9,254570.8,203440.4,191587.6,187275.3,199639.8,0.0
194062.4,204874.2,194220.8,253914.4,202166.9,190774.7,186311.1,198668.5,0.0
193896.4,204343.7,193381.2,253672.9,201152.8,190423.8,185733.7,198221.4,0.0
194464.6,204998.1,193989.0,254149.5,201803.3,191021.4,186343.0,198919.5,0.0
194977.0,205927.3,195085.4,254640.1,203214.9,191736.3,187292.8,199789.7,0.0
194733.6,205855.6,195051.4,254436.3,203444.7,191588.2,187278.4,199638.9,0.0
194062.9,204877.3,193815.7,253774.3,202170.5,190775.8,186314.4,198668.9,0.0
193893.3,204342.6,192974.3,253532.7,201155.1,190423.5,185733.3,198219.8,0.0
194462.1,204996.3,193588.3,254020.5,201809.5,191025.3,186341.4,198921.1,0.0
194969.8,205922.3,194682.3,254510.8,203215.9,191736.0,187286.9,199788.8,0.0
194720.1,205848.2,194646.2,254286.1,203440.8,191583.6,187268.8,199632.3,0.0
194061.6,204879.4,193423.6,253634.5,202175.0,190780.5,186314.5,198671.5,0.0
193902.4,204357.8,192591.8,253406.1,201162.9,190436.1,185740.2,198231.6,0.0
194460.5,204997.5,193194.7,253879.3,201801.3,191026.1,186336.8,198923.9,0.0
194973.5,205921.7,194298.7,254370.7,203214.6,191743.4,187284.8,199795.8,0.0
194732.4,205862.1,194279.9,254157.9,203456.7,191600.7,187277.6,199648.1,0.0
194057.8,204881.3,193046.2,253490.8,202179.9,190784.0,186309.8,198671.6,0.0
193882.5,204337.9,192205.7,253254.9,201158.5,190425.1,185722.5,198217.3,0.0
194444.9,204978.7,192810.5,253734.9,201794.2,191011.3,186319.7,198905.6,0.0
194967.7,205922.0,193929.9,254239.2,203214.6,191735.5,187279.2,199787.7,0.0
194725.9,205854.1,193912.7,254035.1,203451.6,191589.4,187270.3,199640.9,0.0
194055.8,204872.8,192684.7,253376.5,202174.8,190774.7,186306.7,198670.8,0.0
193884.8,204335.5,191845.6,253144.1,201148.2,190416.7,185719.0,198220.1,0.0
194456.5,204992.9,192462.7,253630.4,201793.6,191016.6,186322.2,198923.7,0.0
194973.7,205920.8,193576.3,254121.0,203205.1,191735.3,187272.0,199799.7,0.0
194729.8,205855.2,193565.9,253916.2,203446.8,191592.4,187264.5,199652.7,0.0
194061.0,204888.1,192350.4,253261.6,202180.1,190782.0,186306.9,198685.8,0.0
193887.4,204352.7,191516.4,253026.3,201155.3,190422.2,185720.6,198230.7,0.0
194447.0,204986.9,192120.7,253501.3,201787.5,191009.4,186313.6,198914.7,0.0
194956.9,205904.5,193224.8,253991.1,203190.4,191720.9,187256.5,199782.6,0.0
194728.7,205858.7,193231.6,253803.1,203447.1,191591.9,187262.3,199648.3,0.0
194055.9,204879.6,192012.3,253147.8,202177.3,190778.9,186299.2,198675.6,0.0
193875.9,204334.2,191174.3,252904.0,201146.5,190415.8,185707.7,198215.2,0.0
194441.3,204979.0,191783.9,253382.2,201777.4,191003.9,186301.3,198903.4,0.0
194967.1,205910.3,192902.4,253895.4,203192.4,191727.7,187254.7,199784.9,0.0
194729.9,205849.8,192905.0,253700.5,203443.3,191594.5,187255.6,199648.1,0.0
194057.2,204872.8,191689.2,253033.7,202176.8,190784.3,186295.3,198679.1,0.0
193884.4,204339.6,190858.0,252802.5,201147.9,190424.6,185707.3,198224.4,0.0
194449.4,204986.9,191479.7,253291.5,201785.2,191020.3,186313.3,198922.6,0.0
194959.9,205911.3,192596.6,253786.0,203192.9,191733.3,187264.2,199794.5,0.0
194724.4,205852.1,192603.0,253591.4,203447.2,191595.1,187266.0,199653.2,0.0
194060.6,204878.4,191397.2,252942.3,202184.1,190781.0,186306.5,198685.7,0.0
193886.5,204342.7,190568.2,252703.1,201156.1,190418.0,185714.8,198227.4,0.0
194447.9,204983.0,191184.8,253184.3,201785.8,191006.5,186310.6,198915.3,0.0
194977.1,205925.6,192322.1,253700.9,203207.2,191739.4,187278.9,199806.1,0.0
194741.1,205870.1,192335.0,253502.2,203464.2,191606.9,187287.3,199671.4,0.0
194058.6,204881.3,191111.1,252834.3,202184.3,190785.0,186313.3,198685.6,0.0
193884.0,204341.7,190280.2,252599.4,201157.8,190427.1,185725.2,198225.7,0.0
194445.6,204983.8,190893.3,253079.1,201787.8,191014.3,186320.0,198910.5,0.0
194958.8,205906.8,192010.1,253570.6,203196.4,191731.8,187266.3,199783.8,0.0
194722.4,205848.2,192023.7,253378.3,203455.3,191600.1,187270.6,199652.9,0.0
194050.6,204872.2,190819.9,252723.3,202193.4,190789.9,186310.2,198685.1,0.0
193875.8,204331.1,189987.3,252483.8,201158.5,190421.8,185712.7,198220.7,0.0
194435.9,204975.0,190599.7,252963.1,201783.3,191004.0,186300.5,198903.8,0.0
194950.9,205902.2,191718.4,253459.9,203190.4,191720.1,187248.2,199779.1,0.0
194718.8,205845.6,191732.6,253275.6,203446.0,191585.2,187255.8,199647.9,0.0
194053.8,204880.8,190537.5,252635.3,202192.4,190779.9,186306.8,198687.3,0.0
193876.8,204335.3,189702.7,252391.3,201155.1,190413.1,185709.1,198222.5,0.0
194441.2,204975.1,190316.9,252872.5,201779.8,191004.7,186303.8,198912.2,0.0
194967.4,205918.0,191452.3,253383.4,203200.1,191735.7,187267.3,199800.1,0.0
194727.9,205863.5,191469.9,253190.8,203461.1,191598.8,187273.5,199663.0,0.0
194058.4,204889.6,190271.7,252537.7,202205.0,190787.3,186318.6,198693.3,0.0
193873.9,204338.5,189436.0,252295.2,201166.9,190416.0,185718.2,198223.7,0.0
194423.9,204960.0,190037.4,252764.0,201774.4,190992.7,186296.1,198900.6,0.0
194952.3,205901.9,191175.4,253274.3,203193.2,191725.0,187259.4,199788.8,0.0
194740.8,205877.3,191219.8,253104.5,203482.7,191617.0,187289.3,199676.5,0.0
194075.6,204906.2,190023.5,252457.3,202224.6,190807.8,186331.9,198711.1,0.0
193881.8,204346.5,189177.0,252209.9,201173.4,190426.9,185721.5,198233.3,0.0
194431.8,204972.8,189780.0,252681.6,201781.9,191002.0,186299.5,198905.3,0.0
194950.2,205906.3,190915.0,253168.1,203197.3,191724.7,187254.7,199782.1,0.0
194733.6,205874.1,190956.0,252992.3,203476.7,191607.8,187277.6,199663.6,0.0
194065.4,204904.4,189762.6,252345.3,202218.4,190797.2,186321.9,198694.4,0.0
193875.0,204344.7,188920.3,252096.3,201168.8,190418.5,185712.8,198216.1,0.0
194431.7,204970.7,189526.3,252570.8,201777.8,190997.5,186295.9,198894.4,0.0
194962.1,205916.4,190669.3,253084.9,203198.1,191730.4,187262.3,199783.6,0.0
194750.0,205886.0,190717.4,252920.0,203483.9,191621.6,187291.6,199673.3,0.0
194077.0,204910.6,189517.2,252259.8,202221.7,190804.7,186328.4,198698.9,0.0
193890.2,204355.3,188678.1,252007.5,201175.0,190428.7,185720.0,198222.3,0.0
194438.0,204973.8,189275.8,252481.6,201772.4,190996.9,186288.0,198891.3,0.0
194956.5,205902.3,190409.4,252988.8,203179.1,191717.5,187240.9,199773.7,0.0
194727.6,205862.1,190445.6,252797.4,203452.8,191589.4,187257.3,199650.1,0.0
194059.7,204896.3,189256.6,252152.6,202200.9,190780.2,186303.8,198684.9,0.0
193871.5,204337.7,188414.8,251906.7,201150.7,190404.7,185695.9,198207.8,0.0
194430.1,204968.5,189023.3,252390.9,201758.6,190989.4,186282.6,198889.0,0.0
194953.6,205903.2,190164.5,252899.1,203172.5,191715.3,187240.9,199773.5,0.0
194727.5,205861.6,190211.1,252715.4,203454.8,191592.7,187264.6,199652.9,0.0
194068.3,204902.6,189034.0,252075.4,202211.5,190792.2,186321.1,198693.5,0.0
193885.4,204352.4,188205.7,251839.4,201163.1,190421.5,185721.6,198222.8,0.0
194430.6,204969.3,188807.3,252306.8,201754.8,190992.0,186295.5,198890.4,0.0
194950.0,205901.0,189945.6,252812.7,203162.1,191715.7,187248.5,199770.9,0.0
194734.6,205867.7,189997.5,252646.2,203447.9,191600.6,187276.4,199657.5,0.0
194067.7,204898.1,188814.9,252001.9,202201.1,190793.8,186325.3,198695.8,0.0
193876.2,204336.9,187975.4,251749.0,201148.4,190415.6,185712.6,198217.8,0.0
194428.4,204959.9,188576.0,252217.1,201746.7,190990.7,186283.5,198883.7,0.0
194960.0,205907.0,189725.5,252737.1,203171.5,191726.9,187249.9,199777.1,0.0
194735.9,205870.1,189776.0,252560.1,203455.6,191606.1,187276.0,199661.1,0.0
194064.7,204902.5,188594.1,251903.5,202206.5,190796.7,186326.4,198694.0,0.0
193873.4,204340.1,187750.5,251661.6,201149.8,190418.1,185714.3,198214.2,0.0
194423.1,204954.5,188343.9,252139.7,201736.5,190991.7,186282.4,198881.5,0.0
194950.2,205900.5,189496.4,252656.2,203161.5,191725.9,187248.8,199773.1,0.0
194731.8,205869.8,189555.0,252471.8,203454.3,191607.5,187276.3,199659.7,0.0
194070.9,204908.8,188382.5,251835.7,202213.5,190803.9,186331.6,198700.1,0.0
193867.8,204331.7,187529.6,251579.6,201141.7,190410.0,185706.8,198207.0,0.0
194417.5,204949.6,188132.2,252049.8,201734.4,190982.3,186281.0,198874.8,0.0
194942.8,205886.4,189279.2,252562.5,203153.3,191711.7,187241.0,199759.9,0.0
194730.1,205860.9,189342.4,252394.8,203453.5,191602.2,187273.7,199651.9,0.0
194066.4,204904.8,188173.2,251754.1,202218.0,190801.2,186328.7,198693.0,0.0
193868.7,204338.9,187330.5,251506.5,201157.9,190415.1,185710.7,198205.1,0.0
194425.4,204957.9,187930.0,251988.3,201746.2,190989.5,186283.2,198873.2,0.0
194951.0,205893.3,189075.0,252500.4,203156.9,191719.8,187242.3,199762.6,0.0
194729.7,205861.9,189139.0,252321.6,203457.5,191609.7,187277.1,199656.4,0.0
194068.1,204903.6,187972.4,251688.5,202223.4,190807.5,186336.0,198699.5,0.0
193868.2,204330.9,187124.2,251429.5,201155.0,190417.8,185714.7,198206.9,0.0
194416.4,204945.9,187721.0,251897.7,201739.3,190987.4,186281.5,198871.7,0.0
194949.9,205895.3,188880.6,252420.6,203166.0,191724.9,187250.9,199770.2,0.0
194737.9,205876.6,188954.4,252255.8,203471.6,191615.3,187290.1,199668.0,0.0
194076.1,204916.5,187789.7,251617.9,202233.9,190811.8,186345.6,198707.8,0.0
193878.4,204345.5,186944.9,251364.2,201169.1,190421.1,185722.4,198216.7,0.0
194428.5,204961.7,187539.4,251834.2,201752.9,190989.5,186283.6,198877.3,0.0
194958.2,205901.2,188693.2,252350.0,203173.0,191723.5,187245.2,199768.5,0.0
194744.8,205876.5,188764.0,252183.6,203475.2,191614.5,187278.8,199662.3,0.0
194090.3,204923.7,187603.7,251553.2,202243.0,190815.9,186337.2,198708.4,0.0
193876.4,204337.5,186748.0,251284.6,201164.7,190413.8,185704.9,198207.6,0.0
194421.9,204944.5,187339.6,251755.2,201742.8,190977.6,186267.2,198867.1,0.0
194961.4,205901.2,188504.3,252282.5,203169.7,191721.7,187244.9,199770.5,0.0
194752.4,205890.3,188585.1,252113.7,203481.4,191624.5,187290.3,199672.9,0.0
194080.6,204924.6,187415.0,251467.8,202241.9,190817.5,186341.2,198708.0,0.0
193875.7,204344.7,186561.8,251211.5,201165.7,190417.3,185710.0,198209.7,0.0
194418.7,204954.7,187154.6,251677.3,201743.2,190978.2,186267.7,198864.5,0.0
194948.3,205891.2,188304.9,252193.8,203156.5,191706.8,187223.9,199751.1,0.0
194745.8,205882.0,188393.1,252041.0,203475.5,191612.0,187275.0,199662.0,0.0
194083.6,204928.7,187238.3,251402.7,202250.3,190814.4,186336.0,198708.0,0.0
193874.4,204349.9,186386.8,251138.9,201174.3,190414.7,185704.8,198208.7,0.0
194416.1,204948.9,186975.8,251611.0,201743.4,190976.0,186262.9,198866.4,0.0
194947.0,205885.9,188127.1,252134.0,203155.0,191709.3,187226.5,199759.7,0.0
194746.2,205883.1,188213.9,251980.0,203473.8,191612.6,187277.4,199665.5,0.0
194082.5,204928.0,187057.0,251332.9,202249.3,190812.6,186339.0,198706.3,0.0
193875.1,204346.6,186208.1,251073.2,201179.5,190417.1,185712.7,198209.4,0.0
194408.7,204938.6,186785.1,251533.0,201739.4,190967.1,186257.6,198854.9,0.0
194948.4,205892.0,187946.5,252053.6,203160.1,191704.0,187224.6,199749.3,0.0
194742.7,205883.4,188038.6,251896.8,203481.3,191606.0,187274.8,199655.5,0.0
194070.8,204917.9,186876.4,251252.7,202248.7,190800.2,186331.1,198694.8,0.0
193867.6,204339.6,186028.3,251001.1,201173.0,190405.6,185705.5,198200.3,0.0
194407.7,204940.8,186615.7,251466.7,201738.0,190961.2,186260.4,198852.5,0.0
194941.9,205884.8,187773.5,251987.3,203155.5,191697.6,187226.0,199746.0,0.0
194740.4,205881.5,187870.3,251832.8,203479.7,191606.6,187278.5,199656.2,0.0
194071.8,204921.5,186712.4,251190.0,202249.1,190800.3,186333.5,198695.8,0.0
193865.7,204339.6,185858.3,250934.5,201167.1,190400.0,185701.6,198192.7,0.0
194419.3,204947.3,186452.3,251415.6,201734.7,190969.9,186262.1,198851.9,0.0
194952.6,205890.2,187612.5,251942.1,203151.2,191709.4,187227.3,199748.3,0.0
194747.7,205884.0,187710.5,251775.9,203476.1,191617.0,187284.7,199661.9,0.0
194087.5,204930.9,186556.9,251136.9,202248.5,190818.3,186348.4,198707.9,0.0
193872.6,204341.6,185694.5,250867.9,201165.1,190414.2,185709.6,198198.2,0.0
194413.5,204941.0,186273.2,251332.5,201724.4,190972.1,186257.5,198845.7,0.0
194956.9,205897.2,187442.7,251863.1,203150.9,191717.7,187231.9,199750.9,0.0
194752.8,205892.7,187545.5,251714.0,203479.2,191621.3,187290.5,199668.3,0.0
194081.5,204933.0,186392.4,251069.9,202258.2,190814.7,186354.2,198710.3,0.0
193864.8,204338.0,185530.5,250806.5,201168.3,190405.2,185714.7,198197.2,0.0
194397.2,204927.8,186103.7,251263.7,201716.0,190956.7,186251.8,198839.8,0.0
194942.0,205883.5,187274.8,251798.0,203142.9,191702.1,187224.8,199744.6,0.0
194745.2,205884.7,187380.8,251650.3,203478.9,191612.5,187286.4,199663.7,0.0
194075.4,204922.7,186224.2,250994.6,202249.5,190804.9,186342.9,198701.4,0.0
193857.0,204329.3,185365.2,250729.1,201157.5,190398.7,185703.9,198193.2,0.0
194399.7,204929.9,185953.4,251201.4,201712.3,190958.8,186256.7,198844.8,0.0
194943.3,205887.2,187130.9,251738.0,203140.1,191706.6,187237.5,199752.5,0.0
194745.0,205891.0,187239.5,251591.2,203476.8,191616.7,187299.3,199673.4,0.0
194074.7,204931.2,186085.7,250943.1,202250.1,190810.1,186356.6,198712.5,0.0
193858.1,204336.2,185225.2,250682.5,201158.4,190400.9,185714.5,198200.9,0.0
194389.5,204922.8,185799.2,251137.2,201705.6,190951.7,186255.8,198839.7,0.0
194936.4,205878.3,186973.5,251674.8,203135.6,191700.4,187230.6,199749.8,0.0
194742.4,205887.6,187088.2,251535.6,203480.3,191618.5,187297.7,199677.7,0.0
194070.8,204929.9,185933.5,250882.8,202256.8,190811.8,186356.7,198716.2,0.0
193859.9,204340.0,185072.7,250619.0,201167.8,190406.7,185718.2,198207.2,0.0
194391.2,204921.7,185641.1,251074.6,201705.2,190952.4,186254.5,198841.5,0.0
194933.5,205873.6,186816.9,251603.4,203130.9,191696.9,187228.6,199746.0,0.0
194747.2,205892.4,186945.7,251463.5,203486.6,191621.3,187303.1,199678.1,0.0
194075.3,204929.4,185794.5,250820.3,202264.8,190814.7,186361.2,198718.1,0.0
193857.0,204330.0,184927.7,250553.1,201167.4,190402.4,185713.0,198199.9,0.0
194396.8,204919.5,185506.3,251023.2,201715.8,190960.0,186262.3,198843.8,0.0
194938.6,205873.8,186678.3,251553.6,203144.4,191706.3,187239.1,199749.0,0.0
194749.3,205891.9,186802.7,251413.7,203497.1,191625.5,187312.0,199679.7,0.0
194087.9,204947.2,185665.3,250780.5,202286.4,190827.7,186378.6,198727.2,0.0
193875.3,204360.0,184810.0,250522.2,201198.3,190422.2,185736.8,198212.2,0.0
194403.1,204938.1,185376.6,250984.1,201729.2,190966.6,186267.3,198843.9,0.0
194944.6,205883.0,186539.9,251510.4,203141.0,191706.7,187234.7,199748.3,0.0
194753.1,205894.0,186664.1,251366.4,203488.5,191623.7,187308.3,199679.9,0.0
194081.5,204938.1,185523.6,250724.1,202271.1,190820.3,186373.9,198721.4,0.0
193861.3,204333.4,184655.9,250460.2,201168.4,190404.7,185723.3,198201.5,0.0
194393.0,204910.2,185220.3,250924.8,201699.1,190948.2,186255.9,198840.9,0.0
194930.4,205860.7,186391.2,251450.7,203120.7,191692.6,187227.1,199744.9,0.0
194741.3,205879.7,186523.8,251309.5,203479.3,191619.7,187304.3,199682.3,0.0
194084.2,204936.8,185394.0,250678.7,202275.6,190829.0,186378.7,198738.2,0.0
193860.4,204330.4,184522.6,250409.7,201167.0,190407.0,185723.7,198210.8,0.0
194398.3,204918.8,185098.7,250874.6,201706.5,190958.2,186264.4,198850.3,0.0
194943.9,205871.3,186271.2,251406.4,203129.0,191700.5,187236.2,199752.7,0.0
194759.2,205890.5,186404.6,251277.5,203489.7,191625.4,187315.3,199690.9,0.0
194082.9,204938.6,185264.0,250625.7,202275.9,190819.0,186375.0,198731.4,0.0
193849.5,204327.0,184387.0,250341.2,201164.9,190393.3,185710.7,198197.8,0.0
194386.3,204910.8,184953.9,250805.3,201695.1,190941.0,186242.9,198831.7,0.0
194930.5,205862.9,186125.9,251341.7,203115.0,191688.7,187213.5,199736.4,0.0
194748.0,205887.6,186266.4,251211.8,203484.1,191621.8,187300.4,199678.7,0.0
194090.8,204948.4,185138.5,250577.5,202285.6,190829.6,186378.6,198731.0,0.0
193866.5,204345.9,184267.9,250305.4,201183.2,190408.0,185721.9,198200.5,0.0
194389.3,204907.9,184822.8,250757.0,201698.7,190941.5,186239.1,198822.2,0.0
194928.0,205853.3,185992.3,251290.2,203108.0,191680.8,187205.1,199725.5,0.0
194745.2,205880.3,186136.9,251152.8,203473.5,191608.6,187290.5,199669.2,0.0
194081.0,204934.6,185012.4,250512.3,202272.2,190816.3,186368.4,198724.0,0.0
193850.9,204322.1,184140.4,250241.1,201162.6,190395.0,185713.8,198197.7,0.0
194382.7,204900.6,184704.6,250698.8,201682.5,190935.9,186241.5,198826.2,0.0
194935.0,205861.3,185888.7,251241.1,203108.9,191691.3,187225.3,199742.6,0.0
194754.9,205889.6,186037.3,251113.0,203480.5,191625.7,187316.3,199688.8,0.0
194089.1,204939.0,184906.3,250476.9,202278.0,190831.7,186389.1,198739.1,0.0
193849.5,204318.6,184022.3,250190.3,201157.8,190403.3,185722.7,198199.1,0.0
194386.5,204907.9,184594.3,250652.8,201684.1,190953.7,186257.0,198834.0,0.0
194929.8,205857.1,185764.6,251183.5,203099.0,191694.2,187223.2,199735.6,0.0
194752.6,205891.1,185915.7,251062.0,203481.1,191634.3,187314.3,199690.7,0.0
194085.9,204943.0,184785.4,250430.3,202285.6,190841.2,186383.9,198741.3,0.0
193849.2,204325.0,183903.4,250145.6,201166.9,190411.0,185715.6,198199.7,0.0
194375.5,204898.4,184457.8,250589.6,201678.5,190943.6,186235.6,198819.8,0.0
194925.6,205861.5,185639.4,251131.5,203104.1,191697.0,187217.9,199736.0,0.0
194749.2,205897.1,185793.5,251008.2,203485.0,191640.4,187316.9,199691.6,0.0
194087.8,204952.9,184670.2,250376.6,202288.3,190850.3,186393.5,198746.6,0.0
193861.0,204338.4,183796.3,250103.5,201174.3,190422.9,185732.2,198212.4,0.0
194386.9,204907.3,184350.8,250561.5,201690.2,190959.1,186254.1,198834.0,0.0
194938.1,205870.6,185534.6,251101.1,203117.8,191713.3,187233.9,199748.4,0.0
194751.3,205897.4,185683.4,250962.6,203490.7,191643.1,187321.3,199691.5,0.0
194082.5,204949.6,184557.1,250324.2,202292.1,190848.2,186393.9,198743.6,0.0
193849.8,204335.0,183678.1,250045.4,201177.3,190420.3,185727.4,198211.1,0.0
194376.7,204899.9,184228.1,250494.8,201681.3,190952.4,186239.8,198829.6,0.0
194928.1,205863.7,185415.1,251026.2,203110.0,191710.5,187219.9,199743.4,0.0
194757.8,205905.0,185580.9,250904.9,203502.7,191656.7,187322.6,199704.3,0.0
194094.9,204964.0,184459.3,250274.7,202307.5,190856.4,186394.8,198757.5,0.0
193852.1,204332.3,183563.2,249984.6,201171.4,190415.8,185713.9,198209.4,0.0
194366.8,204884.1,184100.2,250437.2,201664.3,190944.3,186222.3,198822.7,0.0
194924.7,205854.7,185289.4,250984.4,203092.0,191705.7,187211.3,199743.9,0.0
194755.0,205898.4,185455.4,250866.3,203484.0,191653.0,187317.6,199707.4,0.0
194088.3,204954.9,184334.0,250227.4,202291.9,190858.0,186394.9,198760.8,0.0
193846.2,204330.5,183441.9,249937.6,201160.2,190416.4,185717.6,198210.7,0.0
194372.0,204895.1,183988.5,250394.5,201660.9,190948.5,186228.2,198825.3,0.0
194934.4,205866.2,185182.4,250948.7,203095.5,191712.5,187215.6,199748.9,0.0
194764.9,205911.1,185353.4,250829.5,203488.1,191658.3,187320.7,199712.0,0.0
194087.1,204961.4,184227.0,250182.1,202287.9,190851.8,186392.7,198758.5,0.0
193851.3,204339.7,183343.6,249900.9,201164.7,190416.6,185722.3,198215.5,0.0
194380.9,204901.0,183887.9,250359.0,201664.0,190949.8,186232.9,198830.5,0.0
194933.1,205859.4,185063.9,250898.7,203085.2,191701.4,187208.3,199739.8,0.0
194757.0,205899.5,185228.8,250773.5,203480.1,191644.0,187312.0,199700.1,0.0
194091.4,204961.0,184113.2,250142.0,202292.0,190849.3,186392.4,198754.3,0.0
193853.1,204340.5,183229.2,249863.3,201167.2,190415.2,185721.3,198212.2,0.0
194367.4,204892.3,183763.2,250308.6,201654.8,190940.8,186222.5,198820.0,0.0
194916.8,205848.8,184942.5,250847.6,203076.4,191692.4,187197.8,199732.5,0.0
194762.3,205915.4,185132.3,250748.5,203492.2,191655.4,187321.0,199714.4,0.0
194096.8,204979.3,184021.1,250122.4,202310.9,190862.4,186403.3,198773.9,0.0
193849.2,204343.8,183126.1,249823.5,201177.5,190420.7,185722.1,198218.5,0.0
194367.7,204890.3,183660.4,250269.5,201661.8,190941.9,186222.8,198823.3,0.0
194928.3,205853.0,184847.6,250818.9,203088.9,191698.2,187202.7,199740.2,0.0
194755.2,205895.6,185013.7,250696.8,203484.3,191640.2,187304.9,199699.7,0.0
194095.4,204961.8,183902.8,250066.9,202303.4,190848.9,186388.5,198756.9,0.0
193863.0,204349.2,183025.2,249793.4,201184.8,190420.2,185724.9,198218.8,0.0
194379.2,204900.2,183560.5,250240.8,201668.8,190943.9,186228.8,198825.4,0.0
194940.7,205867.8,184758.5,250803.1,203100.8,191706.7,187221.1,199748.8,0.0
194775.0,205916.4,184942.8,250698.8,203508.7,191660.9,187340.2,199723.4,0.0
194091.9,204960.2,183812.8,250027.8,202312.6,190854.2,186408.3,198762.8,0.0
193851.7,204334.7,182923.5,249740.3,201181.7,190418.2,185731.7,198212.1,0.0
194375.0,204890.2,183461.6,250197.0,201666.7,190947.0,186235.0,198820.4,0.0
194935.6,205853.2,184648.3,250749.3,203089.6,191705.7,187215.5,199738.0,0.0
194769.4,205905.3,184829.5,250628.0,203495.3,191657.3,187329.4,199707.5,0.0
194113.3,204979.5,183724.7,250001.1,202324.6,190871.0,186420.2,198770.2,0.0
193863.5,204348.8,182825.1,249711.8,201185.7,190421.0,185734.8,198214.2,0.0
194376.6,204898.9,183355.5,250162.2,201666.8,190941.6,186236.1,198820.7,0.0
194933.7,205864.1,184544.7,250704.6,203095.4,191704.1,187223.2,199741.5,0.0
194766.1,205911.1,184719.1,250584.2,203496.5,191654.5,187332.3,199707.2,0.0
194099.5,204970.5,183605.2,249953.1,202310.6,190857.8,186412.9,198761.9,0.0
193855.7,204339.2,182709.6,249668.2,201173.1,190411.5,185734.2,198210.9,0.0
194368.4,204882.8,183233.8,250106.1,201646.2,190927.2,186226.9,198809.2,0.0
194929.9,205847.0,184426.3,250654.2,203070.9,191689.5,187212.6,199729.3,0.0
194773.4,205910.5,184617.9,250551.2,203488.6,191648.6,187331.0,199706.0,0.0
194110.3,204983.4,183511.0,249923.2,202316.3,190861.4,186415.7,198764.4,0.0
193854.4,204346.0,182612.1,249626.4,201178.1,190414.9,185730.8,198204.1,0.0
194363.5,204887.3,183134.7,250067.0,201646.2,190930.0,186224.7,198799.9,0.0
194922.7,205850.7,184325.4,250620.1,203067.2,191690.2,187210.5,199724.3,0.0
194772.1,205915.8,184524.6,250521.0,203489.0,191659.0,187337.9,199711.3,0.0
194114.8,204990.9,183425.1,249894.8,202320.8,190875.7,186427.8,198775.3,0.0
193862.0,204351.6,182523.9,249600.0,201175.7,190424.0,185739.3,198212.9,0.0
194367.7,204883.8,183039.7,250034.4,201638.7,190933.0,186223.2,198801.6,0.0
194935.7,205861.5,184236.9,250586.0,203073.7,191701.6,187211.7,199729.2,0.0
194790.3,205940.5,184445.6,250486.9,203510.2,191677.2,187347.7,199723.4,0.0
194129.0,205011.6,183347.2,249860.2,202340.8,190890.4,186439.0,198784.4,0.0
193861.5,204360.0,182433.3,249548.1,201182.7,190425.1,185739.4,198209.6,0.0
194374.2,204897.9,182955.8,249989.9,201649.3,190937.0,186230.9,198807.0,0.0
194939.3,205864.8,184148.5,250542.3,203077.6,191697.6,187213.2,199730.1,0.0
194785.3,205938.3,184353.6,250438.0,203510.5,191665.3,187343.3,199715.3,0.0
194114.7,204995.4,183248.5,249801.8,202337.3,190871.7,186425.1,198769.8,0.0
193858.8,204347.5,182338.9,249504.1,201188.7,190417.2,185731.2,198202.0,0.0
194370.3,204889.2,182856.7,249953.1,201653.8,190932.7,186221.2,198798.1,0.0
194932.3,205857.7,184047.7,250491.5,203081.3,191693.5,187206.2,199719.9,0.0
194788.0,205936.5,184261.2,250399.1,203522.4,191669.0,187345.5,199715.9,0.0
194117.1,204998.9,183159.4,249767.2,202353.9,190875.4,186431.3,198773.9,0.0
193854.2,204351.6,182251.1,249462.8,201202.8,190417.1,185735.8,198205.1,0.0
194362.8,204886.9,182769.2,249905.3,201661.9,190930.9,186223.5,198801.3,0.0
194927.1,205852.5,183961.0,250457.9,203083.4,191692.1,187206.5,199725.4,0.0
194770.4,205915.6,184160.4,250356.4,203506.5,191658.0,187332.9,199710.0,0.0
194107.8,204984.0,183053.9,249724.1,202334.1,190867.3,186417.0,198765.3,0.0
193853.9,204347.5,182149.2,249427.2,201186.2,190414.2,185725.9,198198.6,0.0
194360.4,204876.5,182661.8,249865.3,201637.4,190921.8,186205.2,198786.6,0.0
194924.3,205842.0,183853.2,250415.5,203056.5,191680.0,187184.3,199708.0,0.0
194782.5,205926.3,184074.3,250334.4,203504.7,191661.9,187330.0,199713.8,0.0
194119.4,204998.1,182977.1,249702.6,202340.9,190875.9,186421.7,198778.2,0.0
193859.5,204344.7,182063.5,249399.1,201182.3,190417.5,185722.6,198205.3,0.0
194370.1,204881.3,182578.9,249840.6,201638.4,190933.0,186208.9,198794.5,0.0
194935.3,205849.6,183775.7,250395.8,203067.7,191697.2,187196.5,199721.0,0.0
194786.0,205924.3,183989.4,250298.3,203503.8,191661.8,187329.4,199713.1,0.0
194121.8,204990.2,182896.2,249672.8,202341.4,190874.4,186422.4,198776.4,0.0
193858.4,204337.7,181980.7,249373.0,201184.8,190414.5,185725.7,198204.5,0.0
194363.2,204866.7,182487.0,249805.2,201632.0,190920.7,186203.3,198792.6,0.0
194927.3,205835.5,183678.1,250353.8,203056.3,191682.3,187183.4,199715.8,0.0
194782.0,205918.9,183895.8,250260.4,203504.0,191658.3,187325.6,199712.3,0.0
194122.8,204996.7,182811.2,249644.7,202352.2,190877.1,186429.7,198782.7,0.0
193852.7,204331.0,181891.9,249337.8,201188.0,190411.6,185727.1,198203.2,0.0
194358.6,204859.6,182395.3,249766.5,201627.8,190914.8,186201.5,198782.8,0.0
194928.0,205837.0,183597.1,250327.0,203059.0,191687.3,187192.2,199716.0,0.0
194777.0,205922.3,183820.7,250227.4,203512.8,191666.1,187335.5,199715.9,0.0
194106.3,204985.3,182724.8,249590.1,202349.8,190871.8,186422.5,198774.3,0.0
193839.1,204325.9,181800.2,249280.9,201180.5,190403.1,185714.2,198194.2,0.0
194343.4,204849.2,182302.3,249713.6,201619.3,190906.4,186187.4,198776.2,0.0
194917.3,205832.4,183508.1,250273.5,203052.7,191676.6,187180.6,199710.5,0.0
194778.7,205920.9,183734.9,250185.0,203507.0,191657.5,187325.3,199713.2,0.0
194114.5,204995.5,182646.7,249562.1,202353.8,190873.3,186420.3,198778.5,0.0
193847.7,204337.7,181732.6,249262.0,201197.5,190409.5,185719.9,198201.3,0.0
194353.7,204862.2,182233.9,249697.0,201637.6,190912.0,186190.0,198781.6,0.0
194927.7,205838.4,183434.4,250252.5,203061.5,191681.5,187175.8,199712.8,0.0
194783.6,205928.3,183666.1,250164.8,203518.8,191667.5,187328.2,199721.3,0.0
194113.6,205001.7,182577.8,249536.5,202364.9,190882.5,186426.3,198787.0,0.0
193848.5,204348.2,181658.5,249230.5,201202.3,190420.8,185720.9,198207.6,0.0
194339.0,204858.9,182146.1,249648.8,201628.0,190912.6,186182.1,198774.5,0.0
194908.7,205828.4,183344.8,250207.0,203053.9,191681.5,187171.9,199707.0,0.0
194778.4,205922.1,183578.8,250126.1,203514.7,191669.0,187325.2,199721.4,0.0
194114.1,204994.8,182487.4,249496.8,202358.3,190880.8,186418.8,198786.2,0.0
193846.5,204336.4,181561.7,249188.3,201188.2,190410.9,185712.3,198203.3,0.0
194348.7,204859.2,182062.2,249626.4,201620.6,190911.9,186184.5,198781.0,0.0
194917.7,205834.8,183264.5,250179.9,203046.5,191682.2,187175.6,199712.9,0.0
194782.6,205935.3,183506.3,250093.5,203517.0,191674.9,187335.6,199729.4,0.0
194117.8,205009.7,182421.6,249466.8,202366.5,190887.8,186435.5,198796.3,0.0
193844.4,204346.7,181495.1,249155.0,201191.5,190411.9,185724.0,198206.1,0.0
194337.1,204859.2,181982.2,249579.8,201614.0,190905.9,186182.8,198775.1,0.0
194914.4,205836.0,183185.4,250145.3,203042.6,191679.3,187171.5,199710.0,0.0
194780.7,205934.6,183428.1,250062.0,203510.2,191669.4,187329.9,199725.6,0.0
194116.4,205009.8,182345.7,249436.9,202364.1,190885.2,186431.5,198792.8,0.0
193848.2,204344.8,181422.8,249129.8,201194.2,190418.7,185725.2,198208.2,0.0
194338.9,204848.7,181904.2,249547.7,201606.0,190906.1,186177.4,198769.5,0.0
194921.2,205829.0,183112.7,250125.7,203038.2,191683.6,187174.2,199714.6,0.0
194783.9,205931.4,183355.7,250035.7,203511.8,191674.7,187336.8,199730.9,0.0
194116.2,205009.0,182272.2,249401.3,202366.3,190890.1,186437.6,198795.8,0.0
193840.7,204338.4,181342.2,249089.6,201190.6,190410.7,185720.1,198206.1,0.0
194326.2,204833.7,181815.4,249506.2,201595.1,190889.9,186166.6,198764.8,0.0
194912.4,205820.5,183026.3,250081.4,203028.0,191671.8,187166.9,199710.7,0.0
194780.4,205927.0,183277.4,249999.2,203506.9,191671.8,187334.1,199732.0,0.0
194112.9,205004.1,182195.3,249368.9,202363.5,190890.0,186433.9,198798.2,0.0
193842.2,204341.1,181268.7,249057.1,201194.3,190421.0,185726.1,198210.1,0.0
194344.8,204854.9,181757.2,249487.2,201614.0,190915.9,186188.6,198779.2,0.0
194924.9,205827.8,182959.7,250055.6,203040.0,191689.8,187181.2,199717.3,0.0
194795.5,205928.2,183207.1,249982.8,203516.9,191684.3,187344.1,199737.3,0.0
194143.1,205021.8,182140.2,249366.6,202388.7,190912.7,186456.9,198816.5,0.0
193859.2,204339.3,181194.6,249036.9,201194.0,190420.7,185724.4,198209.7,0.0
194360.8,204853.8,181679.3,249464.5,201607.3,190916.5,186182.8,198777.3,0.0
194938.3,205830.7,182880.3,250023.6,203031.7,191688.4,187171.3,199708.8,0.0
194815.9,205940.6,183134.6,249947.0,203514.3,191684.6,187337.7,199732.3,0.0
194155.8,205022.5,182062.4,249324.8,202378.8,190904.0,186444.0,198806.8,0.0
193875.0,204347.4,181127.0,249004.6,201196.2,190425.8,185725.0,198211.2,0.0
194369.9,204849.2,181601.8,249429.2,201598.2,190911.0,186175.1,198770.8,0.0
194955.6,205831.6,182812.2,250003.0,203030.5,191686.9,187169.7,199712.3,0.0
194828.7,205943.1,183072.1,249928.5,203516.3,191686.1,187339.2,199741.4,0.0
194168.5,205029.0,182001.9,249302.8,202383.3,190906.2,186444.4,198817.3,0.0
193885.1,204352.3,181066.8,248984.7,201200.5,190422.9,185722.6,198218.7,0.0
194371.5,204847.6,181534.1,249398.0,201595.9,190900.4,186164.7,198768.6,0.0
194950.8,205829.7,182740.5,249959.2,203023.0,191676.8,187158.7,199705.5,0.0
194822.2,205944.9,183006.1,249891.4,203517.9,191681.3,187336.1,199740.7,0.0
194160.5,205030.3,181936.1,249269.0,202389.3,190905.7,186448.1,198816.8,0.0
193882.6,204361.3,181000.5,248953.8,201206.9,190425.3,185727.4,198218.7,0.0
194368.6,204852.2,181467.1,249372.7,201601.8,190904.7,186170.5,198770.0,0.0
194949.7,205831.8,182674.6,249938.7,203032.6,191683.2,187164.3,199711.6,0.0
194828.8,205952.7,182942.2,249870.6,203532.0,191691.6,187343.3,199750.7,0.0
194169.9,205045.0,181876.4,249247.1,202407.0,190913.8,186456.4,198826.4,0.0
193877.5,204360.1,180932.2,248921.6,201217.4,190423.1,185728.8,198218.5,0.0
194355.9,204841.8,181392.8,249336.2,201603.7,190898.5,186168.0,198767.3,0.0
194936.6,205826.9,182599.1,249905.7,203027.7,191671.8,187161.9,199704.4,0.0
194809.5,205941.2,182863.0,249824.4,203519.3,191672.7,187335.9,199734.7,0.0
194148.5,205027.6,181798.2,249204.4,202396.2,190901.2,186452.3,198814.8,0.0
193859.3,204349.4,180857.1,248883.8,201212.4,190418.7,185733.8,198211.1,0.0
194338.9,204833.0,181312.9,249295.2,201593.3,190888.6,186168.5,198753.0,0.0
194923.1,205815.6,182519.3,249868.4,203018.8,191667.4,187161.6,199695.2,0.0
194807.9,205939.5,182794.7,249809.5,203520.4,191679.6,187346.3,199738.7,0.0
194140.6,205017.9,181721.8,249182.2,202387.5,190899.0,186452.1,198810.6,0.0
193851.0,204332.3,180779.2,248856.9,201199.8,190416.6,185728.3,198209.3,0.0
194327.1,204813.9,181229.8,249262.7,201574.6,190881.0,186152.8,198747.1,0.0
194911.1,205795.3,182434.4,249828.9,202996.3,191654.3,187144.6,199685.4,0.0
194813.2,205935.7,182725.9,249778.0,203514.4,191678.8,187345.3,199742.2,0.0
194149.5,205015.8,181656.6,249147.1,202384.1,190892.8,186453.0,198812.5,0.0
193865.1,204331.4,180712.4,248824.8,201189.5,190403.1,185725.2,198205.4,0.0
194357.7,204825.8,181175.9,249245.1,201574.8,190882.7,186163.2,198756.4,0.0
194938.9,205808.8,182379.5,249811.1,202995.7,191654.9,187147.0,199690.8,0.0
194831.6,205946.2,182670.4,249761.5,203513.9,191678.0,187344.2,199744.9,0.0
194169.5,205034.9,181609.6,249137.1,202393.8,190900.7,186459.3,198821.5,0.0
193890.8,204362.8,180673.5,248819.7,201209.2,190419.3,185736.8,198218.9,0.0
194371.0,204843.6,181125.2,249229.2,201585.0,190893.1,186165.6,198758.3,0.0
194951.6,205819.9,182335.0,249798.6,203009.8,191670.2,187160.2,199698.9,0.0
194840.4,205953.9,182621.2,249737.0,203526.4,191684.5,187351.3,199751.2,0.0
194181.0,205043.6,181560.7,249114.5,202412.0,190909.2,186467.9,198829.6,0.0
193890.0,204353.3,180603.7,248786.7,201208.1,190413.0,185727.2,198202.3,0.0
194362.5,204821.4,181039.6,249186.2,201563.3,190874.1,186142.1,198726.6,0.0
194950.0,205807.3,182252.6,249763.9,202993.0,191661.4,187143.0,199679.4,0.0
194843.7,205945.6,182546.0,249712.5,203516.6,191681.2,187342.1,199742.2,0.0
194183.5,205045.2,181495.7,249096.5,202410.3,190913.4,186466.0,198833.0,0.0
193879.3,204354.4,180540.1,248752.5,201206.2,190414.8,185725.5,198205.3,0.0
194348.4,204823.2,180980.6,249150.8,201566.4,190876.2,186143.6,198728.3,0.0
194936.1,205812.0,182192.4,249732.3,202995.3,191659.4,187143.8,199682.4,0.0
194829.0,205954.9,182486.0,249683.4,203524.3,191684.5,187347.3,199750.4,0.0
194170.2,205048.5,181432.8,249065.8,202420.6,190914.8,186471.8,198837.7,0.0
193869.9,204354.2,180474.5,248726.6,201217.9,190418.5,185733.4,198212.0,0.0
194332.2,204817.4,180897.7,249115.8,201559.9,190866.9,186134.3,198723.6,0.0
194923.0,205807.5,182110.6,249701.5,202985.2,191651.3,187129.6,199676.6,0.0
194816.5,205946.6,182413.8,249643.0,203517.3,191682.3,187337.8,199749.7,0.0
194158.1,205047.4,181370.5,249018.4,202421.1,190918.0,186467.5,198842.7,0.0
193860.4,204358.0,180415.0,248679.8,201220.6,190424.9,185731.7,198214.3,0.0
194328.7,204823.8,180844.7,249076.2,201570.8,190882.4,186141.9,198727.7,0.0
194916.7,205805.3,182052.8,249651.4,202993.5,191664.7,187136.3,199674.3,0.0
194813.3,205943.5,182350.2,249599.5,203523.4,191689.6,187344.1,199742.6,0.0
194150.8,205038.9,181301.4,248979.1,202422.7,190918.7,186473.4,198831.4,0.0
193844.3,204341.8,180343.6,248636.5,201218.5,190417.7,185732.3,198200.4,0.0
194316.9,204818.1,180778.8,249041.0,201571.0,190878.6,186142.2,198720.1,0.0
194907.5,205803.5,181988.7,249612.5,202992.2,191661.8,187138.9,199672.3,0.0
194801.8,205941.7,182290.5,249559.7,203524.2,191689.6,187348.5,199744.6,0.0
194142.9,205040.0,181246.6,248941.9,202427.2,190924.2,186479.5,198833.5,0.0
193852.9,204355.0,180297.8,248612.9,201230.9,190435.0,185746.9,198213.1,0.0
194328.4,204822.2,180734.5,249019.3,201580.6,190895.8,186160.5,198736.2,0.0
194918.8,205805.6,181945.4,249592.4,202999.5,191675.2,187150.3,199681.7,0.0
194824.7,205957.3,182261.5,249554.2,203541.3,191711.5,187367.2,199763.2,0.0
194166.2,205062.6,181231.1,248939.8,202454.8,190945.4,186502.9,198859.1,0.0
193842.1,204342.9,180255.3,248584.1,201225.8,190422.9,185736.9,198208.9,0.0
194316.2,204807.6,180683.7,248989.4,201563.6,190878.2,186142.7,198726.0,0.0
194914.0,205790.4,181892.5,249572.2,202977.8,191662.1,187137.4,199678.7,0.0
194832.5,205952.2,182211.7,249537.7,203525.5,191705.5,187358.0,199766.4,0.0
194170.4,205046.6,181161.4,248916.5,202423.1,190931.2,186480.1,198852.7,0.0
193863.7,204348.5,180194.8,248562.6,201211.8,190426.5,185733.1,198215.9,0.0
194348.7,204822.5,180630.2,248972.0,201560.9,190887.5,186147.0,198738.4,0.0
194949.4,205810.6,181841.2,249565.5,202981.4,191670.7,187144.5,199691.7,0.0
194852.5,205960.7,182153.7,249533.9,203527.0,191707.9,187362.4,199774.4,0.0
194196.5,205068.7,181120.0,248914.9,202441.9,190945.0,186500.5,198871.4,0.0
193894.3,204368.4,180157.0,248569.7,201229.7,190438.6,185755.2,198232.5,0.0
194363.8,204827.4,180583.2,248965.5,201564.4,190890.1,186159.3,198742.2,0.0
194956.8,205810.5,181793.3,249549.5,202982.7,191676.9,187156.2,199694.6,0.0
194863.3,205965.8,182109.0,249511.3,203530.6,191717.9,187374.4,199778.9,0.0
194208.4,205075.3,181073.0,248899.3,202445.1,190951.8,186506.7,198872.9,0.0
193884.3,204360.0,180091.8,248537.8,201219.1,190431.3,185743.8,198219.3,0.0
194345.8,204817.6,180509.7,248925.8,201550.1,190881.0,186141.2,198723.9,0.0
194943.7,205807.8,181726.3,249519.2,202976.3,191670.5,187142.2,199682.8,0.0
194858.9,205976.6,182054.8,249494.4,203539.5,191724.0,187374.4,199781.3,0.0
194203.6,205087.2,181022.1,248881.9,202460.0,190962.7,186512.9,198878.2,0.0
193891.3,204383.7,180055.0,248536.7,201245.8,190449.8,185761.9,198234.7,0.0
194349.7,204834.5,180467.6,248938.3,201569.5,190894.6,186156.9,198739.1,0.0
194932.1,205808.0,181662.1,249497.8,202971.4,191665.9,187137.9,199677.7,0.0
194839.4,205966.5,181983.1,249462.6,203521.0,191704.6,187357.8,199765.8,0.0
194190.1,205089.4,180968.6,248864.8,202455.8,190949.7,186509.5,198874.8,0.0
193872.2,204375.3,179996.7,248513.3,201238.2,190436.8,185752.3,198227.2,0.0
194338.1,204831.2,180410.9,248907.1,201566.2,190886.8,186147.0,198733.2,0.0
194922.6,205805.1,181613.0,249480.6,202977.1,191659.3,187132.8,199679.8,0.0
194826.2,205956.7,181931.9,249441.2,203529.8,191700.0,187355.3,199768.0,0.0
194172.1,205066.8,180901.3,248834.2,202449.2,190940.8,186495.4,198869.4,0.0
193859.4,204360.2,179927.2,248486.5,201229.1,190429.6,185738.9,198225.5,0.0
194321.3,204815.2,180341.1,248879.4,201554.6,190873.8,186132.7,198727.8,0.0
194914.7,205799.0,181551.9,249466.0,202974.3,191657.2,187126.2,199680.5,0.0
194824.9,205961.0,181879.3,249429.6,203537.7,191703.8,187351.6,199771.8,0.0
194164.1,205064.0,180846.7,248808.4,202456.0,190937.5,186488.7,198865.8,0.0
193853.7,204359.4,179875.4,248466.5,201237.8,190427.6,185737.9,198224.0,0.0
194313.5,204811.2,180284.7,248857.5,201557.1,190873.3,186128.9,198727.9,0.0
194898.8,205789.3,181490.5,249432.4,202970.9,191656.0,187124.2,199680.6,0.0
194812.8,205954.3,181822.5,249406.9,203536.5,191706.8,187360.3,199780.0,0.0
194154.2,205064.6,180792.8,248794.2,202458.3,190946.8,186501.4,198875.0,0.0
193837.6,204359.4,179825.1,248447.5,201244.1,190435.8,185752.0,198231.3,0.0
194296.2,204804.8,180229.7,248834.5,201561.2,190876.1,186140.3,198730.5,0.0
194882.1,205780.1,181430.5,249405.9,202969.1,191652.6,187129.3,199676.1,0.0
194802.6,205954.3,181772.4,249387.4,203544.2,191709.0,187372.1,199782.3,0.0
194152.9,205076.7,180752.4,248765.2,202478.1,190954.2,186519.1,198881.9,0.0
193832.7,204359.9,179769.2,248412.6,201249.8,190432.7,185756.4,198225.2,0.0
194289.1,204795.7,180165.3,248799.8,201553.4,190868.2,186136.3,198717.8,0.0
194901.2,205794.0,181383.8,249388.5,202976.0,191663.8,187135.8,199677.6,0.0
194824.2,205976.1,181728.5,249366.2,203551.5,191716.6,187372.8,199779.6,0.0
194167.5,205083.8,180703.3,248753.8,202479.2,190953.3,186513.3,198878.3,0.0
193842.5,204359.7,179721.1,248400.0,201248.8,190429.5,185748.9,198223.2,0.0
194291.3,204796.4,180114.4,248776.6,201550.0,190860.3,186126.9,198710.4,0.0
194885.6,205777.8,181329.8,249358.1,202968.7,191646.6,187124.0,199666.0,0.0
194807.4,205952.8,181673.7,249336.4,203545.6,191701.2,187364.0,199770.1,0.0
194153.8,205066.4,180645.8,248733.4,202470.8,190942.1,186506.8,198870.9,0.0
193820.6,204340.9,179654.7,248363.5,201233.3,190421.6,185741.3,198214.2,0.0
194270.4,204775.1,180043.4,248737.1,201529.9,190848.4,186116.3,198700.8,0.0
194875.1,205768.9,181260.4,249329.9,202951.1,191638.0,187116.6,199662.0,0.0
194793.0,205941.2,181599.7,249302.6,203524.4,191690.8,187352.0,199762.7,0.0
194137.5,205051.3,180576.8,248687.6,202456.7,190932.7,186497.8,198864.0,0.0
193818.3,204331.9,179595.7,248332.9,201229.7,190415.1,185736.8,198211.1,0.0
194274.8,204776.5,179992.6,248720.2,201531.1,190848.7,186116.8,198701.8,0.0
194879.3,205775.0,181211.8,249312.5,202951.1,191639.8,187118.3,199663.6,0.0
194805.6,205956.5,181565.1,249295.5,203537.0,191707.1,187369.6,199780.2,0.0
194143.6,205063.9,180538.0,248682.1,202466.6,190944.6,186511.3,198879.6,0.0
193824.1,204348.8,179554.0,248325.9,201237.6,190424.7,185747.4,198222.9,0.0
194277.2,204786.2,179942.0,248698.8,201532.0,190855.4,186120.4,198704.0,0.0
194878.1,205767.0,181149.4,249279.4,202942.3,191643.5,187114.8,199656.6,0.0
194808.9,205953.9,181503.5,249266.6,203533.0,191710.7,187365.3,199771.7,0.0
194162.5,205076.3,180491.6,248662.2,202479.5,190960.3,186517.5,198881.9,0.0
193832.6,204350.4,179499.1,248294.0,201241.4,190430.0,185745.3,198217.4,0.0
194288.3,204791.4,179893.8,248681.9,201539.4,190863.6,186124.8,198708.6,0.0
194885.5,205773.6,181104.3,249268.1,202953.7,191652.0,187123.8,199669.8,0.0
194800.1,205949.0,181445.2,249235.9,203527.8,191702.3,187360.5,199771.5,0.0
194149.9,205073.2,180433.9,248633.5,202469.4,190949.9,186514.0,198882.0,0.0
193821.9,204347.9,179444.5,248273.9,201235.4,190426.0,185747.8,198220.5,0.0
194281.2,204786.8,179837.9,248665.5,201533.9,190861.9,186127.4,198711.7,0.0
194892.8,205782.0,181061.5,249263.0,202958.5,191660.0,187136.5,199679.2,0.0
194810.6,205963.0,181415.2,249235.3,203547.0,191719.9,187383.7,199790.1,0.0
194156.3,205081.2,180399.8,248619.8,202490.1,190964.0,186535.0,198896.8,0.0
193827.5,204352.0,179403.2,248258.0,201245.4,190430.1,185752.9,198228.3,0.0
194270.8,204774.3,179778.3,248628.3,201521.9,190849.1,186110.6,198704.6,0.0
194873.5,205764.1,180989.5,249216.0,202935.6,191638.0,187106.1,199664.2,0.0
194808.5,205956.9,181352.7,249206.9,203535.4,191710.5,187363.0,199786.0,0.0
194156.7,205078.9,180342.9,248602.5,202482.3,190956.9,186514.8,198893.7,0.0
193830.3,204351.2,179353.6,248244.2,201245.1,190429.8,185745.8,198230.1,0.0
194286.8,204790.1,179745.8,248630.2,201537.0,190862.1,186121.8,198713.1,0.0
194893.7,205781.0,180963.6,249218.7,202952.5,191657.6,187119.8,199673.0,0.0
194819.7,205964.9,181321.5,249205.3,203542.1,191721.9,187365.6,199788.3,0.0
194168.4,205091.2,180316.1,248596.0,202492.3,190969.8,186521.4,198897.5,0.0
193835.0,204361.4,179322.4,248226.7,201251.5,190438.8,185747.8,198228.6,0.0
194274.1,204774.4,179691.8,248596.5,201523.5,190856.0,186103.6,198701.1,0.0
194878.3,205762.9,180900.9,249179.4,202932.7,191642.9,187098.1,199658.3,0.0
194825.5,205970.0,181277.5,249183.6,203546.3,191728.4,187368.1,199791.3,0.0
194172.5,205096.0,180271.8,248583.2,202499.5,190978.2,186525.9,198902.7,0.0
193831.6,204363.3,179274.2,248205.4,201257.6,190443.0,185746.9,198230.1,0.0
194281.9,204790.5,179655.8,248584.7,201539.8,190866.1,186115.0,198707.9,0.0
194883.2,205774.9,180867.5,249170.3,202949.7,191651.6,187109.5,199665.8,0.0
194815.7,205963.6,181230.3,249159.6,203547.7,191717.0,187362.0,199788.6,0.0
194161.5,205085.4,180222.1,248553.7,202499.2,190963.4,186516.6,198897.6,0.0
193824.2,204351.5,179223.3,248176.6,201252.4,190425.5,185737.7,198223.1,0.0
194274.0,204776.5,179600.1,248558.4,201528.8,190851.5,186104.1,198698.3,0.0
194878.3,205761.8,180808.9,249149.6,202937.1,191642.3,187101.1,199655.2,0.0
194812.1,205957.4,181175.4,249132.8,203538.5,191711.2,187361.2,199778.8,0.0
194161.8,205085.4,180173.4,248528.0,202491.2,190957.9,186522.0,198890.9,0.0
193832.0,204359.1,179180.0,248168.6,201248.6,190428.5,185747.4,198224.0,0.0
194284.3,204787.5,179557.9,248549.0,201530.0,190857.7,186113.2,198704.0,0.0
194895.0,205779.7,180774.9,249146.1,202946.5,191653.3,187111.8,199666.8,0.0
194824.0,205974.5,181139.6,249125.2,203547.3,191724.3,187365.4,199786.0,0.0
194171.2,205101.3,180138.3,248519.6,202502.2,190975.8,186528.1,198901.2,0.0
193838.3,204368.9,179143.4,248156.0,201257.4,190443.0,185757.2,198235.7,0.0
194286.4,204790.5,179516.3,248539.0,201528.2,190862.4,186117.4,198710.5,0.0
194894.6,205786.5,180733.9,249124.2,202945.0,191657.7,187117.5,199673.7,0.0
194830.5,205990.0,181110.7,249117.6,203560.1,191738.2,187383.5,199807.7,0.0
194175.8,205118.5,180108.8,248512.0,202520.1,190990.5,186543.5,198920.6,0.0
193837.5,204381.1,179106.0,248141.0,201271.0,190452.8,185763.2,198242.3,0.0
194270.3,204786.5,179463.9,248508.5,201524.6,190860.6,186109.3,198702.0,0.0
194873.5,205772.7,180675.4,249095.2,202933.4,191650.9,187104.6,199661.9,0.0
194817.3,205978.4,181053.1,249093.3,203550.2,191730.9,187372.4,199794.1,0.0
194165.9,205104.6,180049.5,248484.4,202509.4,190977.0,186530.3,198905.0,0.0
193827.8,204366.8,179044.0,248107.2,201260.0,190437.0,185744.0,198228.2,0.0
194273.6,204779.7,179410.6,248481.8,201521.6,190855.6,186096.0,198696.9,0.0
194876.3,205766.5,180622.7,249076.9,202924.6,191642.6,187090.9,199656.8,0.0
194817.3,205971.7,181007.4,249072.8,203542.2,191723.8,187363.5,199794.9,0.0
194167.5,205100.5,180012.8,248459.5,202511.5,190975.8,186530.3,198911.0,0.0
193828.9,204361.5,179008.3,248092.5,201261.9,190434.9,185747.7,198234.6,0.0
194267.8,204770.5,179367.8,248460.6,201516.7,190846.6,186095.6,198698.3,0.0
194885.0,205768.0,180590.6,249059.8,202931.1,191645.2,187096.5,199664.1,0.0
194832.0,205985.5,180983.3,249062.9,203561.4,191734.0,187377.0,199806.6,0.0
194183.1,205118.4,179988.5,248458.5,202530.9,190987.2,186544.7,198922.9,0.0
193840.9,204371.9,178976.2,248086.3,201267.7,190439.8,185753.1,198237.0,0.0
194285.7,204784.2,179333.8,248463.7,201516.7,190851.4,186099.0,198697.8,0.0
194880.7,205762.4,180531.0,249034.9,202911.3,191631.8,187082.4,199647.2,0.0
194824.4,205975.6,180920.6,249033.8,203540.3,191722.8,187363.5,199791.0,0.0
194181.1,205112.4,179933.1,248438.8,202517.4,190984.3,186540.3,198917.8,0.0
193831.8,204360.8,178916.0,248053.8,201252.4,190433.4,185745.3,198227.2,0.0
194257.5,204755.7,179260.8,248406.5,201493.2,190832.1,186081.3,198674.7,0.0
194872.6,205750.4,180476.6,249003.3,202903.4,191627.9,187078.5,199639.4,0.0
194825.8,205973.6,180874.4,249011.5,203540.0,191722.0,187363.4,199788.2,0.0
194172.7,205105.3,179883.5,248410.4,202512.3,190974.0,186531.8,198907.5,0.0
193825.8,204357.5,178870.7,248036.4,201252.6,190425.2,185740.4,198223.9,0.0
194259.1,204757.5,179217.3,248393.4,201493.8,190826.4,186073.5,198676.0,0.0
194873.5,205751.2,180435.0,248993.4,202909.4,191625.9,187072.0,199641.0,0.0
194824.1,205970.3,180831.3,249001.8,203547.3,191720.6,187356.0,199788.1,0.0
194180.6,205115.7,179848.1,248410.6,202530.1,190979.4,186529.4,198914.7,0.0
193833.8,204370.3,178839.4,248038.8,201274.2,190435.4,185741.0,198232.1,0.0
194256.6,204762.4,179185.0,248386.0,201512.1,190835.0,186075.9,198680.0,0.0
194872.0,205753.0,180400.6,248982.9,202923.2,191634.4,187075.3,199647.4,0.0
194822.7,205979.7,180799.1,248988.4,203562.6,191731.1,187362.0,199796.9,0.0
194170.6,205114.6,179809.7,248381.0,202538.7,190984.6,186532.8,198913.2,0.0
193817.1,204360.1,178794.2,247995.9,201273.4,190431.0,185736.2,198216.9,0.0
194253.5,204756.1,179142.1,248365.1,201513.6,190834.3,186073.9,198671.4,0.0
194868.5,205747.2,180356.6,248963.0,202919.7,191628.5,187071.4,199636.9,0.0
194823.0,205973.0,180757.6,248965.8,203556.0,191724.0,187356.5,199788.2,0.0
194168.6,205104.4,179764.6,248360.0,202524.3,190974.7,186522.0,198905.6,0.0
193822.4,204359.4,178755.0,247989.1,201261.7,190428.4,185731.8,198219.4,0.0
194250.1,204755.1,179098.6,248346.9,201496.4,190831.3,186069.1,198669.9,0.0
194862.9,205750.3,180311.2,248931.2,202902.1,191625.9,187067.7,199631.8,0.0
194815.0,205973.6,180715.9,248942.2,203542.7,191724.6,187357.3,199787.0,0.0
194175.8,205122.1,179738.3,248350.2,202529.1,190987.5,186537.5,198915.9,0.0
193830.5,204375.2,178723.5,247972.2,201269.2,190439.3,185748.3,198230.3,0.0
194249.1,204756.5,179053.5,248323.4,201489.3,190829.8,186072.2,198669.4,0.0
194864.7,205754.3,180274.7,248923.0,202902.1,191630.5,187077.7,199639.4,0.0
194828.4,205990.0,180687.0,248938.2,203553.9,191731.8,187370.7,199800.9,0.0
194180.6,205125.5,179704.5,248336.8,202536.7,190987.4,186541.7,198923.2,0.0
193826.3,204367.6,178682.9,247954.0,201265.2,190431.5,185744.2,198227.7,0.0
194255.9,204760.9,179019.5,248308.8,201493.0,190829.5,186075.5,198672.6,0.0
194876.9,205756.6,180236.1,248911.2,202901.6,191632.3,187079.9,199643.5,0.0
194838.9,205994.4,180649.0,248929.7,203553.4,191739.2,187377.6,199807.2,0.0
194196.6,205140.8,179672.6,248341.3,202544.3,191005.1,186558.3,198938.8,0.0
193845.3,204389.5,178656.1,247966.6,201281.0,190454.8,185765.1,198246.2,0.0
194272.2,204781.4,178992.1,248311.0,201511.6,190854.2,186096.3,198688.3,0.0
194881.6,205770.2,180203.5,248898.1,202917.0,191646.0,187091.5,199647.8,0.0
194834.2,205991.8,180614.7,248907.2,203566.5,191743.5,187385.6,199806.8,0.0
194194.3,205141.6,179642.5,248308.4,202558.0,191007.4,186566.3,198935.7,0.0
193836.0,204383.3,178621.9,247922.1,201286.7,190449.8,185767.1,198241.3,0.0
194252.7,204759.2,178941.3,248267.2,201496.3,190835.9,186081.8,198674.0,0.0
194862.3,205747.2,180145.3,248856.1,202893.9,191629.7,187077.7,199638.2,0.0
194822.6,205980.9,180561.0,248872.7,203547.6,191734.1,187378.5,199802.5,0.0
194174.9,205122.0,179584.7,248266.0,202537.4,190994.7,186555.2,198926.0,0.0
193821.7,204367.8,178562.8,247880.8,201267.7,190439.0,185752.2,198230.0,0.0
194239.4,204746.6,178884.0,248227.7,201477.0,190820.7,186067.4,198665.4,0.0
194848.5,205733.6,180095.0,248824.2,202878.3,191610.4,187064.7,199632.7,0.0
194811.6,205971.6,180515.9,248843.1,203538.3,191721.5,187370.1,199803.6,0.0
194169.8,205119.0,179547.4,248250.5,202534.4,190987.8,186552.9,198936.4,0.0
193818.5,204365.3,178533.7,247871.0,201269.1,190435.0,185757.9,198241.7,0.0
194240.4,204742.1,178854.3,248219.4,201478.5,190820.8,186075.2,198671.3,0.0
194847.9,205724.7,180057.4,248808.4,202869.5,191609.3,187063.4,199626.8,0.0
194812.2,205965.7,180482.4,248832.8,203532.8,191721.3,187368.6,199798.9,0.0
194170.3,205116.2,179512.6,248241.2,202532.4,190986.1,186552.0,198932.6,0.0
193814.0,204355.7,178485.8,247854.0,201259.0,190424.2,185748.7,198230.6,0.0
194238.3,204735.6,178810.5,248198.3,201471.2,190814.2,186070.9,198663.1,0.0
194861.3,205736.9,180032.2,248801.6,202884.0,191618.9,187080.2,199638.5,0.0
194827.7,205983.6,180458.3,248819.0,203550.4,191727.5,187388.4,199809.7,0.0
194179.1,205129.3,179485.8,248214.3,202546.2,190988.5,186567.0,198935.7,0.0
193813.9,204360.3,178451.7,247818.6,201264.3,190422.5,185756.5,198229.2,0.0
194227.8,204724.9,178762.0,248162.8,201460.1,190802.7,186065.3,198655.0,0.0
194849.9,205722.5,179975.0,248765.8,202863.6,191603.8,187067.2,199626.8,0.0
194819.3,205972.5,180403.9,248792.6,203535.1,191721.4,187377.7,199800.5,0.0
194171.4,205126.3,179439.6,248197.9,202542.7,190990.8,186567.3,198934.8,0.0
193807.4,204366.8,178416.9,247809.8,201273.1,190432.4,185770.4,198234.7,0.0
194227.5,204741.9,178736.9,248165.7,201479.3,190816.8,186087.4,198665.8,0.0
194839.6,205732.1,179944.0,248752.9,202877.0,191608.4,187080.4,199627.7,0.0
194808.5,205979.6,180373.8,248772.5,203548.9,191724.3,187390.8,199804.2,0.0
194173.9,205139.5,179416.1,248184.4,202566.4,191001.7,186585.5,198946.4,0.0
193810.6,204371.2,178381.4,247795.9,201285.9,190436.3,185772.0,198237.5,0.0
194230.3,204741.9,178694.1,248144.5,201484.5,190819.5,186081.2,198664.6,0.0
194847.9,205737.6,179906.9,248738.1,202884.0,191618.3,187077.4,199630.7,0.0
194816.3,205988.7,180339.6,248758.8,203558.6,191733.8,187389.3,199805.6,0.0
194179.4,205143.4,179380.5,248173.0,202568.6,191003.5,186580.1,198943.0,0.0
193815.1,204374.8,178347.4,247788.1,201285.7,190437.6,185769.9,198236.6,0.0
194223.6,204739.3,178652.0,248116.7,201477.4,190813.6,186071.9,198654.1,0.0
194839.1,205728.1,179862.2,248704.1,202875.4,191609.5,187065.0,199615.9,0.0
194817.0,205985.7,180302.0,248736.3,203557.3,191731.8,187383.9,199797.8,0.0
194179.5,205145.0,179348.4,248147.5,202575.1,191005.2,186581.2,198938.3,0.0
193817.6,204381.0,178321.0,247754.3,201299.8,190441.3,185775.7,198231.5,0.0
194228.4,204742.6,178625.6,248092.4,201490.0,190817.3,186076.1,198651.2,0.0
194848.8,205736.5,179836.6,248693.8,202887.9,191617.8,187071.6,199619.8,0.0
194821.8,205992.9,180276.8,248722.2,203568.6,191743.2,187389.8,199805.7,0.0
194169.1,205133.0,179304.5,248115.8,202568.2,191002.9,186567.0,198932.7,0.0
193806.2,204369.3,178272.6,247723.6,201287.5,190441.3,185757.8,198227.9,0.0
194219.6,204733.6,178578.7,248064.6,201476.7,190820.1,186061.1,198650.6,0.0
194840.3,205723.8,179794.3,248664.3,202876.3,191618.3,187057.6,199621.6,0.0
194819.0,205984.8,180240.2,248697.9,203560.8,191744.1,187378.3,199808.0,0.0
194170.8,205134.8,179274.8,248088.0,202568.5,191007.5,186563.0,198937.3,0.0
193801.6,204366.0,178235.1,247688.5,201281.1,190435.0,185748.5,198225.5,0.0
194211.4,204726.1,178537.3,248034.5,201465.3,190811.8,186051.8,198647.7,0.0
194834.9,205720.3,179754.4,248645.2,202867.4,191617.3,187055.9,199623.1,0.0
194823.5,205987.3,180207.6,248691.7,203564.1,191752.3,187389.7,199818.2,0.0
194179.7,205149.1,179250.1,248102.0,202583.1,191019.2,186583.8,198953.0,0.0
193807.0,204375.2,178207.0,247702.6,201291.4,190441.0,185761.7,198231.6,0.0
194218.4,204738.7,178507.4,248041.9,201472.3,190817.5,186059.5,198650.3,0.0
194850.9,205742.5,179727.6,248658.7,202877.7,191626.4,187064.0,199630.9,0.0
194829.3,206003.0,180176.2,248691.6,203566.7,191750.6,187389.3,199821.7,0.0
194187.9,205155.9,179219.0,248090.9,202582.0,191019.8,186581.0,198958.2,0.0
193821.6,204383.3,178180.3,247699.4,201291.8,190450.3,185764.3,198244.9,0.0
194231.8,204742.1,178475.0,248037.0,201465.6,190821.5,186057.3,198657.0,0.0
194848.9,205728.2,179683.0,248637.3,202858.2,191615.6,187049.4,199623.9,0.0
194829.9,205990.3,180132.8,248674.3,203551.5,191742.5,187375.4,199818.3,0.0
194187.6,205145.6,179180.2,248086.0,202571.8,191011.2,186569.8,198958.8,0.0
193815.9,204372.1,178136.8,247680.4,201280.3,190435.1,185747.6,198236.9,0.0
194230.0,204731.1,178431.1,248029.1,201454.9,190807.1,186043.2,198652.0,0.0
194845.6,205717.2,179635.9,248630.9,202840.8,191603.5,187035.7,199619.2,0.0
194823.5,205976.8,180083.5,248653.9,203530.8,191735.8,187363.5,199812.7,0.0
194190.7,205151.8,179139.4,248069.4,202560.8,191011.5,186569.5,198960.0,0.0
193822.9,204380.3,178099.2,247675.8,201272.0,190433.6,185750.9,198240.2,0.0
194228.2,204729.4,178386.8,248015.7,201441.9,190797.7,186039.7,198647.8,0.0
194851.7,205730.6,179606.0,248625.9,202844.7,191603.3,187045.4,199624.2,0.0
194837.1,205995.7,180069.2,248670.0,203548.3,191741.6,187383.4,199829.2,0.0
194197.0,205160.4,179123.8,248077.9,202575.5,191017.6,186584.4,198971.8,0.0
193815.7,204380.4,178074.5,247668.6,201278.6,190437.0,185757.8,198242.8,0.0
194221.0,204730.5,178359.2,248002.4,201441.6,190799.3,186041.5,198645.9,0.0
194855.8,205733.3,179583.3,248619.2,202849.6,191613.8,187050.4,199629.4,0.0
194842.2,206001.2,180043.7,248663.5,203555.3,191753.5,187386.1,199833.0,0.0
194203.5,205171.4,179101.5,248071.8,202587.0,191028.2,186584.7,198975.9,0.0
193821.6,204392.8,178058.2,247666.6,201298.5,190450.6,185765.5,198252.2,0.0
194221.2,204736.0,178337.8,248001.0,201460.0,190812.7,186050.7,198653.5,0.0
194842.8,205728.9,179550.0,248596.5,202856.8,191613.6,187047.0,199621.9,0.0
194836.1,206006.6,180019.2,248640.6,203568.0,191756.6,187386.5,199827.4,0.0
194197.0,205171.9,179075.3,248053.2,202599.6,191033.9,186588.7,198970.9,0.0
193820.9,204388.6,178026.2,247654.2,201303.0,190455.5,185766.6,198246.1,0.0
194227.5,204736.7,178305.5,247992.3,201464.6,190820.9,186050.7,198650.3,0.0
194850.7,205737.9,179521.4,248591.1,202863.8,191628.0,187050.6,199623.5,0.0
194842.1,206014.7,179992.9,248632.8,203575.9,191772.0,187392.8,199830.2,0.0
194209.3,205180.3,179052.2,248046.7,202611.3,191048.3,186596.8,198977.1,0.0
193832.2,204404.9,178009.8,247641.4,201320.2,190464.9,185776.6,198253.8,0.0
194227.1,204742.8,178285.9,247973.1,201475.2,190820.1,186057.6,198652.8,0.0
194857.0,205740.2,179500.6,248578.0,202870.2,191626.1,187059.0,199628.2,0.0
194837.8,206010.7,179956.7,248604.5,203569.3,191759.3,187389.6,199823.4,0.0
194198.0,205177.9,179014.1,248017.5,202603.6,191037.3,186590.4,198970.9,0.0
193818.7,204395.8,177967.9,247614.8,201308.2,190455.9,185766.3,198245.8,0.0
194208.9,204730.3,178236.8,247934.6,201453.7,190805.2,186039.7,198635.1,0.0
194832.8,205724.9,179447.5,248540.1,202845.9,191608.4,187036.5,199607.7,0.0
194831.6,206007.7,179923.0,248598.4,203564.8,191758.3,187383.4,199824.7,0.0
194188.3,205175.9,178980.8,247999.9,202596.3,191029.7,186581.7,198967.5,0.0
193806.7,204388.5,177931.8,247589.7,201298.5,190444.4,185756.0,198241.4,0.0
194211.7,204733.3,178208.8,247923.1,201454.9,190807.7,186041.6,198640.7,0.0
194831.7,205724.2,179414.7,248526.5,202842.7,191608.0,187036.9,199605.3,0.0
194822.8,206003.6,179887.2,248573.4,203556.7,191751.3,187382.1,199817.0,0.0
194193.8,205179.1,178961.3,247997.6,202606.6,191038.2,186598.2,198975.3,0.0
193810.7,204391.1,177910.2,247575.0,201306.1,190447.6,185767.0,198243.8,0.0
194205.0,204719.1,178176.7,247892.6,201446.7,190796.1,186035.0,198635.3,0.0
194837.9,205719.6,179394.6,248507.8,202843.7,191609.3,187037.7,199613.5,0.0
194840.2,206013.5,179876.4,248556.2,203574.8,191766.5,187394.3,199834.1,0.0
194206.2,205183.6,178939.4,247971.3,202618.5,191045.2,186601.4,198984.9,0.0
193817.4,204379.5,177875.9,247561.9,201306.4,190448.9,185762.5,198247.6,0.0
194217.4,204714.2,178141.9,247891.4,201447.8,190801.7,186032.5,198640.2,0.0
194839.7,205707.0,179352.1,248493.3,202834.9,191602.6,187027.0,199613.9,0.0
194827.7,205984.8,179825.1,248534.7,203550.7,191739.4,187369.1,199822.0,0.0
194188.6,205157.0,178892.7,247949.8,202594.9,191016.0,186578.2,198971.0,0.0
193802.5,204366.4,177837.5,247532.4,201287.8,190426.6,185747.3,198237.2,0.0
194202.1,204704.1,178108.9,247868.1,201432.0,190786.5,186025.0,198633.8,0.0
194830.9,205704.4,179324.8,248483.9,202828.5,191599.3,187025.9,199613.1,0.0
194827.5,205997.4,179807.8,248533.8,203557.2,191752.8,187380.0,199835.6,0.0
194194.1,205175.1,178879.1,247951.0,202610.9,191037.3,186596.0,198988.1,0.0
193810.4,204385.6,177823.3,247543.3,201310.7,190450.2,185764.5,198250.1,0.0
194205.0,204715.3,178081.9,247867.8,201446.3,190797.3,186030.4,198637.0,0.0
194837.9,205717.0,179294.9,248485.3,202840.7,191610.4,187033.1,199618.3,0.0
194835.2,206005.3,179775.2,248547.7,203567.5,191764.8,187387.6,199839.7,0.0
194189.4,205173.0,178842.0,247945.2,202615.5,191038.9,186598.7,198988.8,0.0
193802.4,204375.7,177781.8,247528.5,201307.5,190445.7,185762.1,198248.9,0.0
194193.7,204702.9,178036.2,247853.7,201438.0,190793.7,186025.6,198629.9,0.0
194819.5,205696.9,179241.2,248453.1,202821.3,191593.9,187017.4,199601.2,0.0
194831.1,205998.7,179737.2,248515.0,203559.4,191756.1,187381.6,199833.3,0.0
194193.7,205176.1,178809.5,247927.3,202614.8,191036.6,186595.6,198987.5,0.0
193808.0,204389.2,177756.5,247518.8,201316.9,190450.4,185769.0,198252.9,0.0
194193.6,204710.2,178006.3,247837.5,201441.9,190791.0,186027.1,198628.6,0.0
194817.3,205698.0,179207.9,248439.0,202820.8,191589.2,187019.8,199595.6,0.0
194825.1,205996.6,179700.3,248499.0,203558.1,191751.4,187385.3,199822.8,0.0
194189.5,205173.2,178772.6,247911.9,202614.5,191033.6,186602.2,198979.2,0.0
193801.1,204375.7,177709.7,247500.7,201304.1,190436.3,185764.4,198241.9,0.0
194188.1,204694.6,177960.7,247818.3,201424.6,190776.3,186022.8,198619.0,0.0
194810.5,205685.0,179168.4,248420.5,202806.7,191574.5,187019.1,199591.3,0.0
194814.5,205980.6,179657.7,248478.0,203538.9,191730.0,187377.5,199818.5,0.0
194186.0,205167.9,178740.2,247901.3,202603.5,191021.0,186600.5,198982.0,0.0
193802.7,204379.6,177686.2,247498.0,201299.3,190432.2,185769.7,198248.1,0.0
194188.7,204697.6,177935.5,247817.2,201421.3,190770.7,186027.4,198624.0,0.0
194810.8,205685.7,179141.6,248415.5,202803.5,191571.2,187021.7,199594.2,0.0
194813.1,205980.6,179633.0,248473.9,203540.9,191729.5,187381.8,199822.3,0.0
194178.5,205157.4,178708.1,247880.7,202601.6,191016.1,186597.6,198978.2,0.0
193791.9,204369.6,177650.7,247469.0,201297.9,190429.5,185765.5,198240.6,0.0
194172.2,204684.0,177893.1,247783.8,201412.9,190767.8,186019.6,198614.2,0.0
194800.0,205677.4,179093.1,248391.4,202790.6,191565.5,187012.5,199584.6,0.0
194810.6,205984.7,179591.2,248460.7,203535.7,191730.7,187381.8,199819.6,0.0
194177.8,205172.0,178678.9,247877.5,202606.8,191022.4,186607.6,198985.2,0.0
193786.1,204376.8,177619.8,247455.2,201300.7,190429.5,185771.3,198245.8,0.0
194175.8,204694.3,177863.7,247775.6,201418.7,190772.9,186027.0,198622.3,0.0
194807.6,205689.0,179073.6,248385.7,202804.7,191581.8,187026.4,199597.6,0.0
194825.2,205995.6,179578.3,248451.8,203555.2,191751.2,187396.0,199832.7,0.0
194193.0,205180.4,178662.1,247866.2,202621.5,191035.8,186615.0,198992.0,0.0
193790.9,204373.4,177590.1,247435.5,201299.3,190429.9,185764.0,198238.6,0.0
194170.4,204682.1,177824.9,247748.2,201404.5,190763.1,186008.5,198605.9,0.0
194803.8,205680.2,179036.5,248363.6,202788.8,191571.0,187008.8,199582.7,0.0
194815.0,205989.0,179543.4,248429.5,203540.7,191739.7,187382.7,199816.6,0.0
194179.3,205172.8,178629.6,247845.0,202612.4,191026.3,186606.2,198977.5,0.0
193777.1,204359.0,177553.4,247421.4,201289.2,190420.4,185755.5,198225.9,0.0
194167.3,204670.8,177790.8,247737.0,201396.7,190761.1,186006.8,198597.6,0.0
194801.5,205672.6,179003.3,248342.3,202786.1,191570.2,187009.9,199576.5,0.0
194808.6,205979.7,179506.8,248401.2,203535.8,191734.5,187379.6,199810.8,0.0
194180.4,205173.7,178597.9,247816.0,202610.1,191022.7,186606.0,198973.9,0.0
193783.5,204367.6,177528.4,247397.2,201294.3,190419.6,185763.5,198226.4,0.0
194165.7,204671.6,177756.6,247709.9,201393.2,190749.8,186006.6,198589.3,0.0
194798.2,205667.4,178964.9,248320.9,202774.0,191559.0,187005.3,199565.6,0.0
194815.5,205981.0,179480.2,248392.8,203533.5,191734.6,187384.6,199814.4,0.0
194192.7,205178.4,178580.0,247820.6,202615.5,191031.5,186616.3,198989.5,0.0
193791.9,204368.5,177508.4,247397.1,201296.6,190429.4,185767.1,198240.4,0.0
194164.6,204670.1,177730.4,247693.2,201388.4,190752.6,186002.9,198594.5,0.0
194806.0,205671.5,178942.6,248316.0,202776.2,191565.7,187004.8,199575.8,0.0
194819.9,205988.0,179455.7,248388.9,203539.7,191738.3,187382.6,199823.8,0.0
194186.2,205177.9,178552.0,247806.6,202624.3,191033.1,186615.1,198996.5,0.0
193780.2,204362.3,177468.1,247364.0,201289.1,190416.6,185756.5,198232.5,0.0
194164.0,204668.6,177698.1,247681.0,201383.2,190748.8,186000.5,198597.8,0.0
194802.2,205670.3,178912.1,248303.3,202770.0,191565.3,187004.6,199578.8,0.0
194821.5,205988.2,179425.9,248374.7,203532.2,191740.5,187382.7,199823.5,0.0
194198.5,205184.2,178520.8,247800.3,202616.6,191034.5,186616.8,198994.4,0.0
193788.7,204370.0,177440.4,247360.2,201292.5,190422.7,185763.5,198235.4,0.0
194166.0,204668.4,177665.2,247663.9,201387.3,190748.3,186002.4,198596.9,0.0
194800.8,205660.3,178873.4,248278.2,202769.5,191556.3,187001.9,199576.4,0.0
194826.1,205985.3,179397.9,248351.0,203536.4,191736.2,187388.8,199831.0,0.0
194205.9,205184.1,178501.3,247785.0,202626.3,191036.0,186626.9,199008.2,0.0
193790.7,204363.7,177415.5,247340.5,201295.1,190419.0,185765.2,198240.6,0.0
194165.3,204664.7,177638.1,247640.3,201385.0,190747.0,185998.8,198596.9,0.0
194807.2,205668.3,178854.6,248259.3,202772.1,191566.7,187004.5,199579.9,0.0
194830.5,205991.8,179378.5,248333.2,203544.7,191751.9,187392.1,199833.2,0.0
194204.8,205192.9,178483.3,247758.0,202636.7,191052.2,186633.3,199009.0,0.0
193804.2,204387.0,177410.5,247332.3,201314.2,190446.2,185783.7,198253.0,0.0
194177.3,204679.0,177624.7,247634.4,201395.0,190768.7,186014.3,198601.8,0.0
194815.1,205677.3,178832.1,248249.9,202774.0,191579.1,187010.6,199578.2,0.0
194842.3,206005.0,179358.8,248329.2,203550.5,191762.6,187400.7,199834.0,0.0
194216.9,205202.2,178460.3,247760.4,202645.0,191058.0,186636.9,199008.0,0.0
193801.0,204378.4,177371.7,247317.5,201312.7,190436.6,185775.5,198238.1,0.0
194173.0,204667.0,177581.1,247618.3,201388.6,190752.6,186002.4,198585.2,0.0
194809.0,205659.9,178784.5,248232.8,202760.5,191559.3,186997.2,199560.3,0.0
194834.9,205988.6,179314.5,248319.0,203538.3,191745.1,187390.3,199820.5,0.0
194213.0,205194.9,178424.4,247744.4,202635.9,191048.1,186631.6,198996.0,0.0
193809.1,204382.0,177344.7,247309.5,201311.3,190438.0,185778.6,198234.6,0.0
194178.5,204665.9,177547.8,247606.0,201381.4,190751.5,186001.8,198580.4,0.0
194820.2,205669.0,178758.4,248229.9,202761.9,191562.4,187001.0,199562.9,0.0
194845.4,206000.2,179291.5,248309.0,203540.6,191746.7,187395.9,199823.2,0.0
194221.7,205200.5,178399.2,247739.1,202637.1,191046.4,186637.4,199000.5,0.0
193811.5,204379.7,177315.8,247302.5,201304.8,190429.5,185776.3,198232.5,0.0
194183.8,204668.4,177527.3,247604.7,201376.9,190747.9,185999.5,198580.0,0.0
194826.1,205672.0,178743.9,248231.3,202759.7,191566.1,187001.9,199567.5,0.0
194849.3,206000.0,179275.0,248308.4,203536.0,191748.4,187392.0,199826.0,0.0
194218.9,205192.5,178378.1,247720.0,202631.4,191038.7,186623.8,198995.0,0.0
193808.0,204366.4,177294.3,247290.1,201303.7,190422.4,185763.5,198230.9,0.0
194177.6,204655.3,177503.4,247591.1,201375.6,190741.7,185986.6,198577.0,0.0
194824.3,205665.0,178721.0,248214.3,202760.8,191561.6,186992.7,199564.1,0.0
194845.6,205994.5,179254.1,248293.5,203540.7,191744.1,187383.9,199820.8,0.0
194215.3,205192.8,178362.1,247713.8,202638.6,191040.8,186620.7,198994.1,0.0
193808.5,204374.7,177282.2,247284.7,201313.1,190429.2,185767.0,198234.3,0.0
194167.5,204653.8,177479.7,247579.2,201371.5,190736.3,185979.8,198571.0,0.0
194806.0,205659.2,178690.3,248189.7,202750.2,191551.7,186982.4,199549.0,0.0
194840.1,206001.2,179237.0,248276.1,203544.6,191751.1,187391.8,199822.3,0.0
194219.5,205217.0,178358.7,247711.7,202657.5,191060.1,186641.5,199008.0,0.0
193802.5,204392.2,177276.2,247276.2,201326.7,190444.8,185778.4,198239.5,0.0
194162.7,204664.1,177472.1,247569.5,201385.1,190751.6,185992.6,198576.0,0.0
194804.0,205663.0,178681.5,248192.8,202764.2,191564.7,186995.0,199561.9,0.0
194840.2,206008.5,179226.0,248277.9,203557.2,191761.3,187399.5,199834.5,0.0
194210.1,205207.2,178330.8,247692.1,202655.2,191053.7,186635.6,199005.5,0.0
193789.8,204372.7,177231.6,247250.4,201308.4,190420.7,185762.0,198225.4,0.0
194158.2,204648.9,177428.4,247550.0,201364.7,190731.8,185977.3,198563.9,0.0
194798.1,205650.3,178636.8,248170.4,202742.8,191550.3,186980.8,199547.1,0.0
194831.6,205994.7,179182.9,248255.9,203539.5,191747.9,187390.2,199821.3,0.0
194211.5,205205.5,178303.5,247688.4,202652.7,191054.8,186638.2,199006.2,0.0
193788.7,204375.0,177204.5,247238.1,201306.2,190421.6,185762.9,198224.1,0.0
194153.8,204653.4,177398.1,247533.7,201361.3,190730.4,185974.4,198559.9,0.0
194797.6,205651.3,178604.6,248159.8,202735.1,191544.9,186969.5,199540.8,0.0
194843.2,206005.8,179161.0,248258.8,203538.9,191746.8,187381.5,199821.4,0.0
194215.8,205211.6,178276.3,247671.0,202648.7,191045.7,186623.2,198997.6,0.0
193798.4,204379.8,177182.0,247225.7,201310.4,190422.7,185755.3,198221.3,0.0
194160.2,204654.6,177370.8,247521.8,201361.7,190726.5,185962.4,198555.1,0.0
194792.9,205645.4,178570.1,248131.1,202727.2,191531.3,186953.0,199529.4,0.0
194834.3,205994.0,179124.9,248227.2,203531.0,191738.1,187369.9,199812.9,0.0
194216.0,205209.4,178256.0,247663.2,202656.8,191050.9,186630.2,199007.3,0.0
193798.5,204381.0,177163.0,247224.4,201316.0,190425.5,185759.6,198229.9,0.0
194152.1,204646.8,177345.5,247507.9,201357.0,190722.0,185959.6,198554.5,0.0
194788.5,205643.0,178545.4,248115.5,202721.5,191528.4,186949.4,199526.2,0.0
194830.3,205994.0,179101.7,248207.5,203528.8,191734.4,187361.6,199804.3,0.0
194209.1,205210.4,178230.0,247644.0,202654.2,191046.0,186619.0,198997.0,0.0
193786.1,204383.4,177139.1,247203.3,201316.9,190423.5,185756.1,198226.8,0.0
194138.1,204647.6,177314.9,247484.0,201352.5,190718.7,185956.3,198549.6,0.0
194778.1,205643.1,178514.2,248100.2,202716.8,191530.6,186950.6,199529.0,0.0
194817.5,205993.6,179074.4,248194.7,203527.7,191739.4,187369.0,199816.9,0.0
194198.8,205212.3,178208.5,247632.1,202658.8,191053.2,186627.7,199011.5,0.0
193775.3,204377.3,177112.7,247186.0,201316.8,190422.8,185754.9,198231.1,0.0
194124.5,204632.7,177286.4,247465.5,201346.7,190715.6,185949.5,198549.5,0.0
194766.3,205631.3,178486.6,248082.5,202710.3,191528.2,186942.8,199527.1,0.0
194816.7,205992.9,179047.4,248183.3,203526.8,191741.1,187364.8,199815.3,0.0
194202.0,205214.9,178184.3,247619.2,202662.4,191054.8,186628.6,199010.8,0.0
193786.9,204384.9,177094.0,247186.1,201323.0,190429.0,185762.3,198237.5,0.0
194141.4,204643.1,177268.9,247482.5,201355.5,190726.2,185959.6,198559.0,0.0
194771.7,205635.4,178468.8,248078.4,202724.9,191536.9,186955.5,199531.0,0.0
194815.0,205991.5,179030.6,248166.1,203540.0,191746.2,187377.2,199812.0,0.0
194208.4,205226.0,178176.8,247612.9,202682.7,191070.6,186651.0,199016.6,0.0
193774.1,204376.6,177064.6,247157.4,201326.6,190431.6,185770.5,198229.7,0.0
194125.9,204629.3,177227.7,247439.8,201350.6,190723.0,185959.4,198546.6,0.0
194767.2,205628.7,178429.4,248056.8,202718.6,191535.2,186951.6,199528.0,0.0
194811.4,205981.7,178992.0,248147.4,203529.2,191741.1,187366.0,199813.7,0.0
194196.3,205198.4,178128.5,247587.1,202660.5,191051.0,186625.7,199007.6,0.0
193776.5,204371.2,177037.5,247149.2,201323.8,190426.9,185760.9,198235.7,0.0
194125.1,204626.6,177203.4,247424.3,201347.9,190715.9,185952.1,198551.2,0.0
194767.1,205623.2,178402.1,248035.2,202710.4,191526.0,186943.2,199529.1,0.0
194820.0,205985.9,178969.6,248130.8,203527.9,191737.8,187367.7,199821.9,0.0
194209.3,205212.2,178112.2,247572.2,202664.3,191055.1,186635.9,199021.6,0.0
193787.7,204382.7,177019.0,247129.2,201322.9,190429.5,185770.2,198244.6,0.0
194130.0,204633.5,177183.7,247402.8,201341.5,190718.7,185958.9,198555.0,0.0
194781.6,205638.0,178393.5,248030.5,202712.3,191542.0,186963.3,199541.9,0.0
194833.1,205999.4,178963.6,248131.6,203530.6,191757.8,187390.6,199838.1,0.0
194212.8,205215.0,178096.9,247562.8,202660.5,191068.3,186647.6,199029.7,0.0
193783.0,204377.6,176993.5,247114.0,201311.6,190433.3,185769.5,198241.9,0.0
194129.6,204630.1,177156.6,247399.3,201330.5,190721.1,185953.4,198552.8,0.0
194778.5,205632.8,178361.1,248028.3,202699.6,191540.6,186951.7,199540.2,0.0
194836.0,206005.0,178937.6,248133.4,203529.0,191761.5,187386.4,199839.9,0.0
194216.6,205228.6,178077.4,247571.1,202671.2,191078.6,186650.4,199035.0,0.0
193781.4,204383.7,176967.2,247122.2,201320.7,190443.7,185766.8,198247.9,0.0
194136.2,204641.3,177134.2,247404.0,201342.6,190740.2,185959.1,198567.9,0.0
194779.0,205639.0,178335.1,248028.2,202703.8,191552.1,186956.2,199551.6,0.0
194828.6,206003.8,178908.7,248134.7,203526.6,191767.2,187382.8,199844.5,0.0
194212.0,205231.8,178056.6,247575.4,202673.8,191084.5,186652.6,199046.0,0.0
193778.8,204392.0,176954.6,247121.6,201325.4,190445.6,185777.3,198258.8,0.0
194120.5,204629.1,177102.1,247397.1,201326.0,190722.3,185951.1,198556.9,0.0
194767.6,205627.0,178301.9,248021.9,202686.1,191536.8,186945.0,199537.3,0.0
194821.6,205996.9,178876.5,248118.6,203514.5,191752.0,187374.5,199833.5,0.0
194207.6,205226.3,178020.5,247557.8,202661.5,191069.1,186641.5,199033.4,0.0
193781.9,204389.8,176918.5,247119.7,201313.4,190438.4,185766.3,198250.9,0.0
194120.2,204626.6,177064.1,247392.1,201313.9,190714.5,185940.0,198548.0,0.0
194774.3,205629.7,178273.8,248023.4,202682.9,191535.2,186947.2,199535.6,0.0
194831.4,206003.9,178858.0,248126.4,203516.5,191755.1,187384.4,199835.3,0.0
194218.2,205240.0,178010.4,247567.4,202671.9,191075.1,186657.7,199037.8,0.0
193780.0,204391.2,176897.3,247111.6,201317.0,190434.2,185771.8,198244.7,0.0
194122.5,204624.5,177041.7,247384.3,201312.7,190714.0,185944.2,198543.2,0.0
194771.6,205624.0,178243.4,248007.2,202674.4,191532.4,186940.9,199524.4,0.0
194832.1,205999.7,178827.9,248115.7,203515.0,191758.1,187381.7,199832.6,0.0
194222.0,205238.1,177985.3,247560.4,202678.7,191084.5,186664.3,199042.5,0.0
193792.5,204393.7,176877.6,247113.4,201329.9,190446.1,185784.9,198250.4,0.0
194134.2,204636.3,177025.3,247382.0,201328.4,190724.0,185957.6,198548.6,0.0
194776.8,205633.4,178222.5,248000.3,202685.5,191535.1,186947.4,199528.8,0.0
194833.7,206009.3,178814.2,248111.6,203527.0,191761.8,187391.2,199840.5,0.0
194218.0,205239.6,177966.8,247555.1,202678.8,191081.0,186665.8,199042.8,0.0
193779.2,204388.5,176851.5,247091.3,201318.2,190434.0,185779.0,198241.1,0.0
194115.4,204621.0,176993.9,247363.5,201311.1,190708.1,185947.6,198535.2,0.0
194757.7,205613.6,178189.0,247982.3,202661.2,191518.3,186936.6,199516.9,0.0
194818.5,205997.5,178782.8,248096.2,203506.2,191747.7,187383.7,199830.6,0.0
194208.7,205235.3,177941.7,247542.7,202669.8,191072.5,186665.1,199038.5,0.0
193775.2,204388.0,176832.9,247105.5,201319.3,190432.2,185783.7,198246.4,0.0
194111.0,204619.1,176970.4,247394.8,201308.7,190704.9,185952.0,198540.0,0.0
194765.0,205624.1,178175.0,248036.3,202673.4,191527.5,186951.3,199527.7,0.0
194826.6,206009.2,178770.4,248146.7,203523.9,191761.1,187398.0,199840.4,0.0
194214.3,205248.8,177933.8,247578.0,202691.1,191091.3,186683.2,199051.5,0.0
193770.8,204394.1,176814.9,247108.8,201327.5,190440.7,185789.8,198247.1,0.0
194095.9,204613.7,176941.3,247361.0,201304.6,190701.9,185942.5,198528.1,0.0
194749.3,205617.2,178144.6,247980.9,202665.3,191521.9,186937.4,199514.5,0.0
194815.5,206006.4,178743.8,248091.9,203516.1,191754.2,187383.6,199831.5,0.0
194203.8,205247.0,177910.3,247531.1,202686.2,191081.5,186668.6,199043.1,0.0
193771.0,204400.0,176807.4,247081.2,201340.1,190441.3,185796.0,198253.1,0.0
194107.8,204629.3,176943.6,247351.2,201326.1,190709.2,185961.0,198542.2,0.0
194756.5,205623.5,178141.3,247978.0,202680.1,191525.3,186952.9,199522.3,0.0
194813.8,205997.8,178727.0,248076.8,203517.7,191748.3,187391.3,199826.0,0.0
194206.6,205231.7,177883.8,247515.9,202676.2,191073.5,186670.5,199034.4,0.0
193770.0,204376.3,176767.4,247061.3,201316.9,190429.7,185784.0,198236.9,0.0
194112.0,204615.4,176906.6,247339.0,201306.2,190707.4,185954.9,198532.4,0.0
194756.7,205610.4,178103.2,247961.0,202658.6,191523.5,186947.0,199512.9,0.0
194829.3,206005.0,178711.1,248076.9,203518.3,191763.9,187406.9,199837.4,0.0
194221.6,205250.2,177884.5,247529.8,202699.1,191095.2,186699.6,199059.1,0.0
193772.0,204387.8,176759.0,247062.6,201330.0,190438.7,185801.0,198252.2,0.0
194114.0,204624.5,176897.0,247334.9,201311.8,190710.4,185967.6,198544.6,0.0
194761.0,205617.8,178091.5,247955.6,202661.3,191521.0,186958.2,199522.2,0.0
194833.5,206009.9,178696.9,248074.9,203522.8,191759.5,187411.8,199845.5,0.0
194227.6,205251.3,177868.3,247525.1,202700.3,191090.5,186699.0,199063.3,0.0
193781.9,204384.7,176741.9,247058.6,201329.4,190434.3,185802.4,198255.6,0.0
194110.6,204603.8,176862.4,247319.7,201296.4,190694.4,185954.8,198534.3,0.0
194755.6,205601.0,178058.1,247946.9,202648.8,191510.1,186947.0,199516.7,0.0
194830.2,206003.0,178668.5,248065.0,203513.7,191752.4,187406.2,199843.0,0.0
194223.4,205250.8,177841.9,247508.8,202694.2,191082.4,186693.8,199057.8,0.0
193780.5,204399.0,176730.1,247055.1,201337.8,190437.6,185808.5,198257.0,0.0
194109.5,204614.2,176852.2,247325.0,201308.0,190703.8,185968.4,198540.8,0.0
194754.9,205606.7,178039.6,247949.3,202656.3,191515.0,186956.0,199519.6,0.0
194822.5,206005.2,178647.8,248054.7,203521.7,191756.0,187413.1,199841.0,0.0
194224.0,205266.9,177833.1,247507.3,202711.1,191094.6,186711.8,199067.0,0.0
193778.8,204407.9,176712.7,247049.5,201349.1,190447.1,185817.2,198261.7,0.0
194093.4,204606.9,176818.6,247300.0,201304.1,190698.3,185956.2,198525.8,0.0
194748.0,205609.6,178014.9,247928.2,202656.9,191516.7,186949.6,199507.8,0.0
194827.1,206011.8,178628.5,248055.9,203526.8,191765.1,187411.8,199839.3,0.0
194219.6,205256.4,177803.8,247507.9,202709.1,191099.3,186703.1,199059.1,0.0
193778.4,204396.9,176679.4,247050.1,201343.7,190447.1,185808.9,198255.6,0.0
194105.8,204612.5,176794.7,247309.5,201308.8,190704.7,185960.1,198532.8,0.0
194753.3,205604.9,177986.3,247932.8,202655.4,191519.4,186950.5,199514.9,0.0
194836.9,206013.5,178606.6,248059.0,203528.8,191773.0,187420.5,199852.1,0.0
194232.6,205269.4,177791.6,247510.2,202721.5,191111.5,186721.7,199076.4,0.0
193773.0,204395.5,176657.6,247036.0,201346.8,190446.3,185820.1,198259.1,0.0
194100.4,204608.2,176768.2,247290.9,201303.9,190701.2,185962.6,198528.0,0.0
194757.5,205608.0,177966.9,247920.5,202655.9,191521.8,186954.2,199513.6,0.0
194845.9,206020.0,178591.8,248056.4,203535.4,191775.0,187423.2,199855.5,0.0
194242.6,205271.2,177772.2,247506.2,202722.5,191108.3,186715.0,199077.4,0.0
193790.2,204402.8,176642.9,247035.8,201350.8,190447.8,185813.7,198262.6,0.0
194115.4,204615.7,176758.8,247291.7,201311.2,190706.8,185959.7,198535.2,0.0
194768.8,205613.8,177957.4,247924.0,202661.2,191527.1,186953.0,199520.8,0.0
194843.5,206016.4,178574.7,248046.8,203534.0,191773.3,187418.9,199854.6,0.0
194240.3,205270.3,177757.4,247496.7,202728.6,191106.9,186717.2,199079.3,0.0
193789.7,204404.7,176628.1,247030.2,201357.9,190448.6,185816.6,198265.4,0.0
194116.3,204607.5,176731.9,247289.2,201306.2,190702.5,185955.0,198532.3,0.0
194766.5,205604.4,177923.4,247910.3,202648.8,191515.0,186942.0,199509.0,0.0
194851.0,206020.2,178558.1,248049.3,203537.0,191772.0,187422.2,199855.2,0.0
194248.1,205281.7,177750.9,247497.4,202744.5,191114.7,186726.7,199086.0,0.0
193791.4,204417.1,176618.3,247022.0,201374.8,190452.2,185822.9,198269.5,0.0
194107.8,204614.5,176711.6,247269.9,201311.4,190698.2,185955.0,198529.5,0.0
194760.2,205601.9,177897.6,247896.3,202646.2,191514.4,186942.3,199510.8,0.0
194844.5,206017.8,178529.3,248029.7,203532.7,191773.1,187419.4,199856.4,0.0
194240.6,205277.5,177723.9,247481.8,202738.9,191115.1,186726.0,199088.3,0.0
193776.5,204398.4,176583.8,246997.1,201355.3,190443.4,185814.4,198263.5,0.0
194092.6,204593.4,176676.8,247241.4,201291.1,190685.3,185941.6,198518.9,0.0
194751.8,205592.2,177870.2,247875.3,202632.2,191504.8,186929.5,199502.7,0.0
194843.6,206012.8,178511.0,248020.6,203527.1,191769.3,187412.1,199856.3,0.0
194245.8,205272.5,177707.4,247473.6,202736.5,191112.3,186718.2,199089.0,0.0
193786.3,204405.2,176574.3,246990.1,201364.5,190449.9,185811.4,198270.4,0.0
194104.6,204611.4,176670.2,247235.0,201306.1,190699.1,185944.5,198531.7,0.0
194754.9,205601.9,177858.7,247858.8,202646.6,191514.4,186932.0,199510.9,0.0
194840.7,206015.2,178489.1,247987.9,203532.3,191770.6,187406.7,199854.6,0.0
194242.4,205278.3,177683.2,247442.1,202742.0,191116.2,186717.2,199088.2,0.0
193789.5,204415.1,176556.4,246968.3,201376.3,190462.7,185822.0,198277.2,0.0
194109.2,204613.1,176655.4,247215.5,201315.4,190712.8,185958.1,198538.0,0.0
194756.8,205601.4,177838.4,247830.3,202647.6,191521.8,186937.8,199513.3,0.0
194851.2,206023.0,178477.0,247973.3,203545.5,191785.0,187420.0,199867.8,0.0
194245.1,205283.8,177669.8,247419.3,202756.5,191123.0,186723.3,199097.6,0.0
193783.4,204407.3,176530.3,246934.1,201376.6,190454.6,185815.8,198274.4,0.0
194099.4,204600.8,176618.5,247181.3,201303.1,190695.9,185943.4,198529.0,0.0
194756.2,205597.4,177808.3,247809.0,202640.1,191516.6,186934.6,199510.0,0.0
194858.4,206031.1,178458.9,247958.0,203548.7,191792.6,187432.7,199872.0,0.0
194259.1,205293.9,177656.9,247410.8,202764.3,191134.2,186741.1,199106.6,0.0
193800.5,204422.5,176522.0,246937.3,201391.5,190468.9,185833.4,198287.5,0.0
194105.3,204602.8,176595.7,247168.1,201306.2,190702.5,185949.0,198528.8,0.0
194758.2,205592.9,177779.8,247791.8,202633.9,191515.8,186931.9,199505.2,0.0
194860.4,206026.7,178435.2,247948.7,203539.5,191789.4,187427.3,199871.2,0.0
194263.2,205300.7,177645.1,247409.2,202766.2,191139.5,186746.4,199112.4,0.0
193794.9,204424.1,176503.5,246923.6,201388.2,190469.5,185836.2,198284.3,0.0
194102.7,204609.6,176581.4,247164.6,201307.1,190703.8,185953.2,198529.5,0.0
194755.8,205596.4,177761.3,247784.5,202634.1,191513.0,186932.8,199504.3,0.0
194863.4,206032.5,178419.4,247941.1,203546.8,191791.3,187431.4,199874.3,0.0
194265.5,205303.9,177626.1,247404.4,202769.5,191139.1,186744.6,199115.5,0.0
193796.9,204427.1,176485.4,246911.8,201389.5,190463.7,185831.1,198284.8,0.0
194099.8,204605.2,176558.9,247145.2,201300.7,190691.3,185942.8,198525.2,0.0
194759.8,205600.9,177750.5,247780.8,202639.2,191513.4,186934.0,199510.9,0.0
194863.4,206037.0,178408.1,247933.9,203551.9,191791.5,187434.9,199876.5,0.0
194263.1,205306.2,177616.7,247391.3,202778.5,191143.5,186752.7,199115.3,0.0
193795.7,204422.8,176470.0,246911.8,201394.7,190469.3,185835.6,198284.2,0.0
194096.8,204595.3,176538.6,247150.0,201301.5,190695.8,185946.6,198522.9,0.0
194750.1,205588.0,177720.2,247766.7,202630.4,191506.9,186925.5,199497.1,0.0
194854.8,206030.3,178377.2,247914.5,203548.9,191786.0,187422.2,199864.8,0.0
194259.1,205305.5,177588.5,247377.0,202781.1,191134.2,186740.0,199105.5,0.0
193792.7,204424.7,176446.4,246896.4,201400.5,190461.6,185825.9,198274.0,0.0
194094.0,204597.5,176512.3,247131.3,201304.0,190688.8,185929.3,198508.6,0.0
194744.2,205585.3,177692.6,247748.2,202627.5,191500.5,186908.4,199483.0,0.0
194853.9,206028.5,178354.7,247907.1,203544.9,191786.2,187412.6,199858.5,0.0
194259.4,205307.1,177575.1,247374.7,202784.8,191145.3,186743.7,199109.1,0.0
193792.8,204424.6,176434.5,246896.1,201408.9,190475.1,185835.5,198282.2,0.0
194095.2,204597.5,176496.2,247127.9,201307.8,190698.0,185937.8,198517.2,0.0
194751.9,205591.2,177678.4,247754.3,202635.6,191515.3,186920.8,199497.9,0.0
194864.7,206041.4,178348.5,247920.1,203564.3,191802.8,187431.3,199878.5,0.0
194265.8,205317.0,177565.8,247385.8,202800.9,191153.3,186753.8,199124.5,0.0
193782.9,204424.3,176408.7,246880.6,201403.4,190466.7,185828.4,198282.0,0.0
194073.2,204581.9,176458.5,247101.1,201282.9,190681.7,185922.5,198506.9,0.0
194729.8,205569.1,177641.4,247731.0,202605.1,191499.7,186905.7,199487.2,0.0
194842.5,206018.5,178309.3,247887.8,203529.5,191786.7,187412.1,199862.1,0.0
194245.9,205293.9,177526.0,247349.0,202768.8,191137.5,186733.4,199107.0,0.0
193777.2,204410.8,176379.0,246862.6,201382.3,190458.1,185816.0,198271.5,0.0
194070.7,204575.6,176432.4,247089.5,201271.2,190674.6,185914.5,198497.6,0.0
194726.0,205563.1,177611.8,247717.9,202596.0,191491.3,186895.1,199474.7,0.0
194848.7,206022.2,178290.3,247890.3,203531.1,191783.9,187410.3,199860.5,0.0
194261.8,205309.7,177520.5,247363.1,202779.8,191145.2,186745.1,199117.3,0.0
193788.2,204420.7,176373.4,246865.7,201393.8,190464.9,185831.3,198281.1,0.0
194079.3,204581.1,176423.8,247091.5,201281.1,190680.2,185926.1,198503.5,0.0
194741.8,205577.6,177609.7,247726.3,202608.1,191500.2,186911.6,199486.5,0.0
194856.5,206030.0,178285.8,247889.9,203537.8,191789.0,187422.5,199870.1,0.0
194261.4,205309.1,177508.7,247356.6,202779.9,191143.4,186749.4,199120.8,0.0
193774.8,204409.4,176347.8,246852.7,201385.9,190457.3,185824.3,198275.9,0.0
194072.5,204575.1,176401.0,247083.3,201271.3,190674.7,185920.1,198500.3,0.0
194737.2,205571.9,177592.6,247720.3,202598.7,191493.0,186906.7,199485.4,0.0
194849.1,206019.3,178264.2,247878.0,203527.8,191777.3,187415.3,199865.5,0.0
194265.5,205309.4,177498.7,247353.5,202786.0,191143.5,186752.5,199124.5,0.0
193796.2,204429.3,176353.9,246867.5,201404.1,190468.0,185835.8,198288.4,0.0
194079.1,204578.1,176391.0,247077.1,201277.7,190673.3,185917.9,198498.3,0.0
194736.1,205563.5,177564.8,247705.5,202590.7,191486.2,186892.7,199473.5,0.0
194845.0,206006.0,178232.5,247867.3,203512.4,191771.3,187399.5,199854.4,0.0
194259.4,205294.8,177461.5,247339.5,202761.8,191132.2,186731.0,199110.6,0.0
193786.4,204415.7,176314.4,246853.2,201376.4,190453.3,185814.4,198276.9,0.0
194074.9,204571.0,176362.6,247074.9,201259.9,190668.0,185911.5,198499.2,0.0
194734.5,205559.3,177546.5,247709.5,202579.8,191486.2,186896.2,199479.8,0.0
194859.8,206019.3,178233.8,247888.2,203517.5,191783.0,187417.7,199873.0,0.0
194278.9,205315.2,177475.7,247358.7,202780.7,191146.3,186757.9,199134.8,0.0
193804.0,204427.5,176328.5,246862.4,201395.5,190465.0,185840.1,198294.5,0.0
194094.7,204579.4,176368.3,247085.3,201270.4,190674.6,185928.3,198509.3,0.0
194758.0,205559.5,177542.5,247715.6,202583.1,191486.2,186905.0,199483.2,0.0
194882.9,206021.5,178222.8,247877.8,203519.0,191779.1,187420.7,199871.6,0.0
194302.3,205325.3,177469.4,247358.6,202787.2,191150.3,186769.3,199140.1,0.0
193823.5,204428.3,176315.4,246863.8,201396.1,190463.5,185844.8,198296.5,0.0
194115.6,204579.4,176353.4,247086.6,201266.8,190673.5,185930.5,198510.4,0.0
194779.6,205574.2,177537.5,247715.5,202585.3,191492.5,186913.3,199489.6,0.0
194899.0,206028.1,178218.7,247877.0,203523.9,191785.5,187429.2,199878.1,0.0
194315.2,205323.7,177457.5,247347.0,202791.5,191152.9,186773.4,199140.5,0.0
193840.7,204434.2,176308.4,246855.6,201407.1,190471.7,185855.3,198300.8,0.0
194126.0,204578.3,176340.8,247072.0,201269.3,190675.9,185931.5,198509.7,0.0
194787.1,205567.4,177516.3,247705.1,202581.3,191490.8,186905.2,199486.3,0.0
194903.1,206027.6,178198.9,247861.3,203522.3,191786.2,187423.3,199875.7,0.0
194318.6,205329.9,177446.0,247320.1,202802.7,191158.8,186775.1,199142.1,0.0
193844.6,204442.6,176297.7,246829.9,201422.7,190481.0,185861.8,198308.8,0.0
194133.5,204591.2,176330.7,247046.4,201288.7,190687.3,185942.5,198520.7,0.0
194790.8,205578.0,177504.1,247672.0,202599.6,191502.2,186914.3,199495.9,0.0
194907.4,206039.0,178186.1,247834.6,203537.6,191796.1,187427.8,199883.2,0.0
194320.3,205338.7,177432.6,247307.2,202810.2,191164.6,186774.6,199150.1,0.0
193831.6,204438.7,176271.0,246809.2,201416.8,190476.0,185849.2,198303.1,0.0
194105.3,204565.2,176282.4,247016.7,201259.6,190670.4,185916.4,198500.7,0.0
194767.9,205558.4,177456.9,247648.3,202569.9,191490.7,186895.1,199479.1,0.0
194896.7,206036.5,178156.6,247823.6,203528.8,191801.3,187430.5,199884.2,0.0
194312.9,205344.7,177410.1,247301.0,202814.0,191178.7,186784.7,199154.9,0.0
193824.1,204447.8,176252.0,246802.5,201426.9,190490.2,185859.2,198306.7,0.0
194103.3,204582.0,176269.4,247014.0,201277.0,190686.5,185929.3,198509.5,0.0
194766.7,205569.5,177444.9,247648.9,202585.0,191502.7,186906.6,199490.3,0.0
194895.9,206043.7,178141.2,247817.2,203539.2,191810.4,187437.5,199892.6,0.0
194306.5,205342.8,177385.7,247287.5,202812.0,191175.9,186780.9,199158.0,0.0
193814.1,204442.3,176223.1,246783.9,201417.5,190482.2,185852.7,198308.2,0.0
194097.5,204581.7,176246.7,247002.6,201271.5,190680.8,185928.7,198515.5,0.0
194755.8,205562.8,177414.5,247634.2,202573.0,191491.5,186897.1,199492.2,0.0
194881.1,206033.1,178110.0,247812.7,203527.0,191796.0,187425.1,199895.0,0.0
194293.3,205336.5,177362.4,247285.0,202808.5,191167.4,186776.9,199164.1,0.0
193804.6,204438.9,176204.3,246787.5,201415.5,190477.5,185849.7,198312.3,0.0
194084.9,204573.3,176223.8,247015.8,201262.5,190670.1,185916.2,198508.9,0.0
194746.6,205558.1,177393.6,247644.5,202564.6,191483.7,186887.5,199482.9,0.0
194875.8,206027.5,178087.5,247813.3,203517.7,191787.9,187412.5,199882.2,0.0
194304.9,205345.0,177356.1,247304.5,202818.1,191173.4,186778.2,199165.9,0.0
193821.3,204452.8,176204.1,246808.1,201434.5,190487.8,185855.5,198319.3,0.0
194098.3,204581.0,176213.8,247013.7,201271.6,190674.6,185917.3,198512.3,0.0
194760.1,205563.1,177380.0,247642.8,202571.7,191484.8,186888.4,199486.9,0.0
194904.3,206050.9,178093.2,247831.5,203538.9,191803.7,187432.7,199902.7,0.0
194324.1,205356.9,177353.9,247306.4,202827.2,191180.7,186790.1,199177.0,0.0
193837.6,204455.7,176190.9,246801.5,201433.4,190484.6,185860.4,198320.8,0.0
194108.0,204574.8,176190.8,247002.8,201264.5,190666.6,185914.1,198503.7,0.0
194765.1,205554.6,177354.0,247624.5,202560.1,191476.3,186877.0,199474.2,0.0
194910.3,206042.1,178066.0,247811.6,203527.1,191792.8,187416.8,199891.6,0.0
194344.4,205363.2,177340.6,247302.0,202828.4,191178.1,186783.6,199177.4,0.0
193862.7,204467.0,176185.0,246803.8,201441.0,190490.3,185857.8,198324.0,0.0
194142.3,204597.5,176197.1,247019.3,201282.3,190683.6,185922.5,198516.6,0.0
194798.0,205577.4,177360.1,247641.6,202574.9,191491.3,186886.9,199484.8,0.0
194932.3,206057.4,178062.8,247816.5,203532.2,191801.8,187420.1,199892.6,0.0
194355.0,205374.0,177331.4,247296.2,202832.3,191185.1,186785.7,199172.5,0.0
193857.8,204467.1,176167.4,246791.2,201437.4,190488.5,185855.0,198317.9,0.0
194123.5,204584.2,176166.5,246990.5,201264.6,190673.5,185911.6,198505.9,0.0
194784.1,205570.7,177333.1,247618.6,202561.7,191483.7,186885.5,199482.4,0.0
194920.5,206055.0,178045.8,247799.9,203528.6,191795.5,187429.5,199895.2,0.0
194344.7,205371.1,177317.8,247287.0,202831.2,191177.5,186795.9,199179.4,0.0
193853.7,204470.8,176160.0,246789.1,201444.4,190488.5,185872.5,198330.4,0.0
194122.2,204588.3,176159.1,246992.5,201273.8,190674.4,185929.1,198512.0,0.0
194786.4,205578.1,177328.1,247624.6,202574.4,191492.2,186901.4,199487.5,0.0
194919.7,206060.6,178040.7,247806.8,203545.2,191809.6,187443.1,199904.4,0.0
194340.4,205379.7,177314.5,247285.1,202854.5,191194.2,186813.3,199192.2,0.0
193854.3,204485.8,176157.7,246788.8,201466.7,190504.7,185889.9,198343.3,0.0
194112.0,204594.5,176144.9,246977.9,201281.8,190677.0,185932.6,198514.2,0.0
194771.0,205571.8,177306.8,247608.3,202574.8,191487.5,186896.9,199482.8,0.0
194914.1,206057.0,178021.8,247795.7,203549.8,191812.2,187441.2,199905.6,0.0
194342.1,205386.7,177297.9,247281.7,202863.5,191203.3,186815.4,199195.5,0.0
193839.3,204478.1,176124.3,246769.1,201459.4,190498.6,185875.9,198329.9,0.0
194091.3,204573.4,176097.9,246944.3,201258.6,190663.5,185912.2,198493.8,0.0
194749.8,205549.3,177255.0,247565.5,202543.1,191471.7,186876.3,199463.7,0.0
194896.7,206047.2,177983.9,247758.5,203529.5,191802.2,187432.1,199892.9,0.0
194328.2,205381.8,177273.8,247258.2,202852.9,191197.5,186813.3,199193.0,0.0
193823.2,204466.7,176104.0,246743.7,201454.6,190495.7,185876.5,198330.9,0.0
194077.3,204568.1,176080.9,246924.4,201259.3,190660.0,185912.2,198495.1,0.0
194739.9,205552.7,177243.6,247551.8,202548.3,191471.7,186878.4,199467.8,0.0
194891.0,206050.8,177973.2,247750.1,203538.9,191805.1,187436.0,199899.1,0.0
194325.7,205382.9,177261.1,247243.3,202865.7,191199.4,186814.4,199195.3,0.0
193825.3,204470.4,176090.8,246731.4,201464.8,190496.2,185876.4,198332.0,0.0
194084.9,204576.0,176074.6,246924.8,201271.8,190669.0,185916.3,198499.2,0.0
194746.2,205558.7,177237.1,247553.1,202558.0,191480.7,186882.9,199467.7,0.0
194885.0,206050.4,177959.1,247741.3,203538.0,191804.7,187434.8,199893.3,0.0
194316.9,205378.8,177246.6,247235.4,202865.9,191199.2,186815.5,199191.3,0.0
193822.1,204475.3,176080.2,246732.8,201472.8,190502.1,185884.7,198335.4,0.0
194081.5,204579.0,176058.4,246927.9,201275.0,190671.2,185921.2,198502.5,0.0
194743.5,205558.5,177219.0,247564.3,202561.2,191484.5,186888.8,199476.8,0.0
194888.3,206053.2,177945.5,247750.4,203544.0,191810.0,187443.2,199902.9,0.0
194318.1,205383.8,177234.2,247234.5,202869.0,191200.2,186820.7,199195.1,0.0
193819.4,204472.3,176061.2,246724.6,201467.6,190496.6,185882.5,198331.6,0.0
194072.3,204564.7,176030.6,246911.7,201258.6,190660.8,185913.3,198494.0,0.0
194726.1,205534.7,177177.7,247527.2,202530.9,191464.7,186866.8,199454.3,0.0
194890.1,206049.8,177922.1,247734.8,203530.0,191808.0,187434.9,199898.0,0.0
194328.6,205390.9,177224.6,247237.0,202869.3,191207.5,186827.6,199203.8,0.0
193827.5,204477.2,176051.8,246726.4,201469.1,190499.5,185887.7,198337.4,0.0
194077.6,204565.3,176014.2,246907.9,201257.7,190659.1,185910.5,198492.9,0.0
194732.5,205536.0,177160.5,247528.6,202526.0,191462.9,186863.2,199455.9,0.0
194889.7,206046.3,177900.0,247725.8,203522.6,191803.9,187427.7,199896.2,0.0
194325.3,205384.1,177200.3,247226.8,202860.0,191205.1,186818.1,199200.8,0.0
193817.2,204468.9,176025.3,246709.5,201457.5,190495.3,185880.4,198332.5,0.0
194060.2,204553.0,175985.0,246886.3,201239.3,190648.8,185903.2,198484.1,0.0
194718.5,205522.3,177139.7,247516.2,202516.9,191459.4,186863.8,199454.9,0.0
194878.7,206033.5,177884.8,247720.1,203520.1,191801.7,187436.0,199899.8,0.0
194319.4,205384.5,177191.3,247218.7,202865.4,191205.6,186829.1,199206.2,0.0
193821.0,204476.5,176021.9,246712.2,201470.1,190506.4,185892.3,198342.7,0.0
194074.8,204570.0,175986.0,246900.9,201256.7,190668.7,185918.5,198496.8,0.0
194733.1,205540.9,177133.6,247526.6,202526.9,191472.6,186872.8,199462.2,0.0
194886.3,206048.2,177875.7,247724.2,203528.6,191812.1,187438.6,199906.2,0.0
194320.5,205386.5,177178.5,247218.7,202874.1,191212.3,186829.1,199210.5,0.0
193814.1,204468.7,175996.0,246692.2,201464.2,190497.1,185878.4,198333.8,0.0
194054.5,204547.3,175949.4,246866.4,201241.3,190649.3,185895.7,198482.3,0.0
194718.0,205524.8,177105.5,247503.1,202520.4,191463.0,186860.0,199455.2,0.0
194886.9,206047.6,177861.5,247717.1,203532.2,191812.5,187437.4,199907.7,0.0
194328.4,205400.6,177176.4,247216.4,202888.9,191222.6,186839.2,199221.0,0.0
193813.1,204475.6,175996.3,246698.1,201483.3,190505.8,185896.7,198347.8,0.0
194057.2,204554.9,175944.3,246875.1,201252.5,190656.0,185908.9,198490.9,0.0
194718.9,205529.8,177094.3,247498.5,202524.6,191466.0,186864.9,199456.1,0.0
194887.9,206055.6,177849.1,247710.2,203535.9,191813.8,187441.2,199905.4,0.0
194318.8,205400.0,177158.1,247202.6,202891.1,191212.3,186834.0,199214.3,0.0
193807.6,204478.1,175979.9,246684.5,201486.3,190498.8,185886.9,198341.9,0.0
194052.9,204557.0,175928.6,246869.0,201250.6,190649.8,185899.9,198484.5,0.0
194714.4,205523.9,177071.3,247497.6,202509.1,191453.7,186852.0,199447.0,0.0
194879.9,206044.3,177822.8,247693.5,203518.5,191799.3,187426.5,199898.5,0.0
194324.2,205405.7,177145.5,247198.8,202885.8,191212.3,186836.3,199220.3,0.0
193812.3,204484.9,175967.8,246676.7,201481.8,190501.8,185893.1,198343.8,0.0
194053.5,204556.6,175911.6,246853.4,201243.4,190648.7,185901.4,198483.0,0.0
194713.6,205525.5,177056.9,247477.7,202505.1,191452.5,186852.7,199446.7,0.0
194879.3,206045.8,177813.0,247684.3,203517.2,191803.0,187431.1,199901.1,0.0
194325.5,205396.9,177133.7,247189.1,202882.1,191216.9,186839.8,199222.3,0.0
193812.3,204476.0,175953.0,246665.2,201477.5,190502.0,185893.6,198346.9,0.0
194044.7,204540.9,175886.0,246821.9,201232.0,190641.3,185893.8,198478.7,0.0
194715.7,205516.6,177040.9,247456.5,202505.4,191457.4,186856.8,199450.7,0.0
194890.2,206050.6,177807.5,247668.0,203532.5,191817.6,187447.8,199914.0,0.0
194336.7,205410.7,177132.4,247169.2,202903.2,191232.7,186854.8,199235.1,0.0
193826.8,204489.9,175953.8,246651.3,201496.7,190519.0,185910.0,198360.7,0.0
194061.9,204554.1,175887.0,246822.3,201247.8,190658.9,185910.9,198493.3,0.0
194722.2,205519.9,177028.3,247442.3,202508.1,191462.4,186861.9,199456.1,0.0
194899.1,206052.1,177796.3,247662.4,203532.2,191822.0,187450.1,199921.0,0.0
194335.2,205404.6,177117.0,247159.9,202895.4,191228.3,186850.8,199234.0,0.0
193821.9,204486.6,175939.8,246635.3,201493.0,190516.1,185905.9,198357.1,0.0
194055.0,204551.0,175872.3,246801.0,201242.0,190652.4,185904.9,198484.8,0.0
194717.2,205520.8,177015.9,247429.6,202504.8,191457.4,186859.3,199447.1,0.0
194884.4,206048.3,177777.5,247642.5,203526.0,191809.6,187442.8,199902.9,0.0
194329.3,205408.6,177101.9,247142.2,202898.3,191221.6,186852.0,199221.4,0.0
193814.5,204485.8,175921.2,246622.3,201491.5,190502.7,185905.2,198343.2,0.0
194045.2,204547.7,175851.5,246789.6,201238.9,190639.0,185901.9,198471.3,0.0
194707.7,205515.1,176992.8,247417.8,202498.1,191445.7,186854.8,199435.4,0.0
194880.7,206039.7,177755.3,247637.0,203517.9,191799.2,187438.2,199898.2,0.0
194326.4,205401.6,177084.9,247147.5,202895.2,191215.5,186848.8,199222.2,0.0
193813.9,204483.7,175908.0,246630.1,201495.2,190504.3,185902.6,198347.1,0.0
194044.2,204540.9,175833.8,246796.6,201235.5,190638.4,185893.4,198470.8,0.0
194699.8,205498.6,176969.6,247422.3,202486.4,191439.1,186839.9,199429.8,0.0
194880.7,206036.8,177742.3,247642.1,203517.3,191802.2,187431.5,199897.6,0.0
194333.3,205410.7,177078.8,247147.3,202903.3,191221.9,186846.6,199225.2,0.0
193822.5,204490.7,175897.4,246626.8,201500.4,190505.5,185898.2,198347.2,0.0
194059.9,204556.4,175827.1,246799.6,201244.6,190643.0,185894.8,198476.8,0.0
194723.3,205524.1,176966.6,247429.1,202495.0,191447.4,186840.1,199438.6,0.0
194907.6,206064.2,177747.7,247661.5,203533.1,191820.3,187441.2,199918.3,0.0
194355.0,205434.2,177089.8,247170.8,202926.9,191245.4,186866.0,199251.6,0.0
193835.6,204509.5,175905.9,246643.5,201516.7,190525.0,185915.5,198368.0,0.0
194059.7,204557.5,175822.7,246803.8,201247.2,190651.7,185901.5,198485.2,0.0
194708.6,205508.7,176948.9,247421.4,202489.5,191447.5,186841.9,199439.8,0.0
194890.1,206050.9,177723.7,247644.4,203525.3,191815.6,187436.7,199910.7,0.0
194346.4,205433.1,177067.3,247161.0,202919.7,191241.6,186861.5,199243.3,0.0
193830.8,204507.2,175885.3,246639.4,201515.2,190524.2,185913.6,198364.7,0.0
194049.5,204544.5,175792.5,246794.5,201235.5,190645.0,185891.4,198476.0,0.0
194715.3,205510.4,176931.4,247421.3,202484.5,191454.1,186840.3,199440.1,0.0
194895.2,206056.6,177709.3,247645.8,203524.2,191822.6,187436.4,199914.5,0.0
194338.1,205421.1,177048.8,247153.8,202916.8,191240.3,186855.5,199243.6,0.0
193818.5,204494.3,175866.8,246620.8,201512.3,190518.5,185908.9,198361.2,0.0
194046.1,204548.9,175781.6,246780.5,201243.0,190648.1,185894.7,198479.0,0.0
194706.9,205509.0,176914.3,247408.4,202492.8,191453.7,186842.4,199440.0,0.0
194894.6,206060.3,177701.7,247635.3,203539.2,191826.2,187448.7,199920.0,0.0
194341.8,205430.5,177050.4,247148.8,202936.5,191247.9,186878.6,199254.2,0.0
193818.8,204502.6,175868.5,246623.3,201529.2,190525.3,185930.1,198369.2,0.0
194037.0,204542.7,175776.5,246773.9,201251.6,190647.9,185912.5,198478.9,0.0
194698.4,205506.2,176906.4,247397.5,202491.8,191450.2,186857.1,199434.7,0.0
194878.3,206047.9,177684.3,247623.7,203524.8,191817.9,187455.4,199907.1,0.0
194332.6,205426.0,177034.4,247139.3,202929.3,191249.9,186886.3,199248.2,0.0
193809.6,204491.1,175841.5,246608.4,201517.3,190523.8,185929.3,198360.1,0.0
194034.4,204533.9,175746.0,246772.3,201234.6,190644.4,185903.5,198469.5,0.0
194700.5,205502.8,176884.3,247400.8,202482.9,191449.8,186849.2,199433.3,0.0
194891.5,206058.9,177675.6,247628.5,203533.1,191824.2,187453.7,199918.4,0.0
194344.3,205436.1,177025.6,247142.1,202933.8,191246.3,186877.2,199255.8,0.0
193820.4,204499.9,175832.6,246609.8,201519.2,190518.6,185919.1,198366.5,0.0
194037.3,204528.2,175727.2,246762.6,201222.6,190633.2,185884.7,198467.5,0.0
194705.7,205489.5,176858.5,247394.8,202458.9,191436.0,186825.6,199426.4,0.0
194892.1,206043.5,177645.5,247621.8,203503.6,191807.3,187427.0,199908.5,0.0
194346.5,205422.5,177000.4,247140.3,202910.8,191235.2,186861.6,199250.4,0.0
193825.3,204498.7,175821.2,246617.5,201509.6,190516.6,185916.7,198367.9,0.0
194034.5,204531.1,175714.3,246765.4,201217.8,190626.2,185882.8,198465.1,0.0
194695.2,205487.1,176837.0,247388.3,202453.6,191424.2,186820.0,199420.4,0.0
194888.1,206043.7,177632.5,247631.5,203510.3,191807.6,187434.0,199913.8,0.0
194344.2,205429.6,176994.3,247145.7,202923.5,191237.4,186869.7,199255.0,0.0
193823.8,204500.0,175810.3,246612.9,201516.5,190514.5,185920.3,198368.5,0.0
194031.8,204528.1,175700.5,246754.9,201220.2,190625.8,185887.2,198465.4,0.0
194684.1,205484.3,176822.2,247376.7,202453.9,191424.3,186824.7,199415.2,0.0
194872.7,206042.7,177616.2,247610.8,203507.0,191804.5,187437.7,199903.6,0.0
194328.8,205430.3,176982.0,247129.9,202926.0,191238.6,186878.0,199250.9,0.0
193803.8,204501.0,175797.2,246599.3,201520.1,190513.1,185923.1,198362.2,0.0
194015.8,204527.4,175684.9,246747.5,201219.1,190622.2,185882.6,198456.6,0.0
194675.1,205479.5,176803.7,247370.2,202446.3,191419.4,186815.0,199408.1,0.0
194870.8,206038.6,177602.0,247604.7,203501.1,191803.3,187430.9,199901.2,0.0
194329.6,205429.4,176969.5,247120.7,202924.7,191239.2,186876.1,199249.5,0.0
193806.6,204503.8,175787.2,246599.5,201524.0,190519.0,185927.7,198365.8,0.0
194014.0,204527.0,175670.2,246743.9,201218.8,190625.2,185885.7,198456.3,0.0
194676.5,205484.9,176792.7,247370.7,202452.1,191427.0,186825.1,199411.5,0.0
194878.2,206051.8,177595.1,247618.8,203516.5,191814.1,187445.2,199907.1,0.0
194334.4,205442.1,176960.1,247139.4,202943.4,191248.3,186889.8,199253.0,0.0
193811.2,204515.3,175778.1,246612.9,201544.4,190526.4,185942.0,198370.0,0.0
194014.4,204525.3,175650.7,246753.8,201228.3,190624.1,185888.6,198452.8,0.0
194680.7,205479.1,176770.8,247382.8,202454.3,191425.4,186827.1,199408.9,0.0
194872.7,206037.0,177566.4,247617.5,203510.6,191807.8,187443.0,199902.5,0.0
194331.3,205427.7,176934.9,247137.1,202935.6,191247.0,186886.4,199254.5,0.0
193801.5,204494.1,175744.0,246601.4,201525.0,190519.2,185929.3,198362.2,0.0
194009.3,204514.3,175623.4,246742.6,201217.4,190625.3,185884.9,198451.4,0.0
194678.9,205474.2,176747.3,247375.3,202448.4,191429.2,186824.6,199411.8,0.0
194882.5,206043.8,177550.0,247611.6,203510.0,191817.3,187445.8,199910.1,0.0
194343.9,205436.4,176924.9,247122.0,202938.7,191256.7,186895.7,199264.4,0.0
193821.4,204508.9,175745.8,246590.4,201540.2,190537.5,185951.8,198380.5,0.0
194020.8,204518.6,175616.1,246714.3,201218.5,190631.8,185899.0,198458.6,0.0
194686.1,205475.7,176739.3,247335.4,202445.8,191433.1,186832.8,199413.6,0.0
194884.7,206046.5,177547.0,247572.0,203512.1,191820.6,187449.6,199912.0,0.0
194345.7,205448.4,176927.8,247086.8,202950.3,191265.5,186900.6,199270.6,0.0
193816.8,204512.0,175737.7,246551.6,201540.5,190536.8,185944.0,198380.8,0.0
194019.1,204528.8,175611.5,246695.1,201223.5,190639.4,185895.3,198468.2,0.0
194679.9,205486.3,176730.2,247318.5,202445.4,191437.7,186829.8,199420.5,0.0
194887.6,206061.4,177544.9,247556.1,203516.4,191832.5,187460.0,199926.0,0.0
194353.3,205460.9,176931.2,247082.4,202960.8,191279.8,186917.5,199288.7,0.0
193819.0,204519.6,175740.7,246545.7,201552.2,190549.0,185958.7,198393.6,0.0
194014.7,204520.8,175597.7,246674.4,201216.0,190635.4,185895.4,198465.0,0.0
194673.1,205469.9,176705.2,247289.5,202427.5,191426.9,186823.7,199413.0,0.0
194879.0,206044.7,177517.7,247533.9,203504.5,191826.4,187455.4,199921.0,0.0
194344.7,205451.3,176901.8,247063.5,202950.8,191272.6,186911.1,199283.9,0.0
193807.0,204508.5,175704.2,246528.5,201534.9,190533.4,185945.3,198383.0,0.0
194015.0,204523.8,175574.4,246676.8,201213.0,190633.5,185896.9,198465.2,0.0
194693.5,205487.4,176699.8,247319.0,202440.9,191440.8,186838.2,199429.3,0.0
194894.8,206056.8,177510.8,247565.8,203511.5,191832.9,187461.9,199933.6,0.0
194355.6,205457.2,176896.2,247092.8,202958.8,191279.0,186921.6,199294.4,0.0
193814.9,204507.8,175696.0,246545.6,201539.3,190536.4,185956.2,198389.1,0.0
194011.4,204511.3,175552.7,246677.5,201202.4,190623.5,185891.0,198457.7,0.0
194681.6,205472.4,176673.9,247304.9,202425.8,191426.0,186827.4,199413.4,0.0
194893.6,206054.0,177495.6,247559.4,203506.2,191826.7,187459.9,199928.8,0.0
194356.3,205456.0,176881.5,247087.0,202958.3,191273.2,186918.4,199292.1,0.0
193821.2,204517.0,175689.9,246549.2,201548.9,190536.8,185960.4,198395.3,0.0
194014.8,204516.0,175544.7,246680.3,201211.3,190625.8,185895.4,198463.2,0.0
194682.9,205472.4,176660.4,247310.1,202429.8,191428.7,186826.5,199414.8,0.0
194898.8,206061.8,177489.6,247563.0,203521.5,191837.9,187466.3,199934.8,0.0
194363.4,205467.4,176881.3,247092.5,202973.4,191287.0,186927.4,199301.9,0.0
193822.7,204521.7,175688.1,246561.3,201561.0,190552.6,185969.4,198404.2,0.0
194020.0,204519.9,175546.9,246698.7,201222.1,190642.8,185908.0,198475.9,0.0
194682.3,205470.9,176658.0,247315.8,202432.6,191439.2,186835.6,199425.9,0.0
194888.7,206047.8,177472.8,247559.6,203504.1,191833.0,187460.0,199932.2,0.0
194361.5,205463.8,176878.1,247095.2,202967.9,191292.2,186929.5,199307.1,0.0
193822.2,204515.1,175684.8,246560.4,201555.9,190553.2,185967.6,198409.1,0.0
194012.0,204512.8,175531.7,246679.9,201207.2,190633.3,185893.1,198470.7,0.0
194669.1,205461.3,176636.0,247293.9,202412.6,191425.1,186815.5,199416.3,0.0
194882.7,206042.8,177460.8,247549.9,203499.6,191828.9,187451.2,199935.4,0.0
194361.5,205466.9,176871.5,247094.8,202976.5,191293.4,186926.2,199316.1,0.0
193819.0,204526.6,175670.2,246547.9,201565.0,190553.0,185958.8,198410.0,0.0
194009.0,204514.8,175514.3,246677.3,201216.9,190631.9,185884.5,198472.1,0.0
194674.7,205465.7,176625.2,247296.0,202430.4,191427.8,186814.5,199422.0,0.0
194890.8,206057.4,177456.0,247546.8,203522.8,191835.5,187459.1,199942.1,0.0
194362.8,205473.7,176863.2,247079.3,202993.1,191289.9,186931.3,199315.1,0.0
193818.2,204521.7,175662.9,246533.4,201576.8,190547.4,185965.4,198409.8,0.0
194006.8,204513.6,175505.8,246658.4,201224.4,190627.4,185891.5,198469.0,0.0
194669.6,205462.1,176610.8,247283.3,202427.8,191420.0,186815.5,199415.5,0.0
194892.1,206053.1,177443.0,247546.8,203523.0,191835.1,187460.6,199942.9,0.0
194367.7,205477.7,176851.0,247080.3,202998.5,191295.8,186933.3,199320.7,0.0
193818.8,204528.3,175649.2,246530.9,201582.7,190550.3,185967.2,198414.3,0.0
194001.4,204511.4,175486.0,246652.0,201225.1,190622.5,185889.1,198468.1,0.0
194665.6,205453.3,176584.8,247274.6,202421.3,191412.1,186807.9,199409.1,0.0
194894.5,206055.6,177422.0,247536.2,203514.7,191829.5,187456.0,199938.7,0.0
194375.3,205487.5,176841.5,247083.6,203000.3,191301.8,186940.1,199325.9,0.0
193832.9,204539.3,175643.1,246535.5,201587.1,190559.8,185973.8,198419.7,0.0
194007.4,204513.2,175469.5,246637.3,201219.3,190624.4,185884.7,198462.6,0.0
194674.9,205461.1,176576.2,247263.8,202422.1,191418.7,186807.9,199410.8,0.0
194903.3,206065.0,177420.2,247531.6,203523.6,191836.0,187460.3,199942.4,0.0
194380.5,205493.4,176840.4,247069.0,203010.5,191304.0,186948.6,199330.5,0.0
193829.2,204537.2,175634.4,246515.9,201591.4,190554.9,185979.0,198419.9,0.0
194002.3,204509.4,175454.3,246621.8,201220.6,190621.4,185890.9,198465.3,0.0
194660.1,205450.7,176553.6,247239.7,202419.8,191415.8,186814.1,199411.9,0.0
194889.6,206049.4,177394.5,247514.0,203521.0,191833.9,187466.9,199949.9,0.0
194362.8,205474.7,176809.0,247041.2,203001.3,191294.4,186944.9,199331.2,0.0
193815.4,204527.5,175609.4,246484.7,201585.6,190553.5,185980.5,198421.6,0.0
193994.9,204508.4,175438.2,246603.4,201214.8,190624.3,185895.1,198469.1,0.0
194657.9,205453.3,176538.5,247225.8,202413.7,191416.9,186817.4,199414.8,0.0
194887.4,206053.3,177381.6,247490.5,203518.7,191835.5,187469.4,199948.2,0.0
194366.8,205484.0,176801.2,247031.8,203008.5,191301.5,186951.3,199332.5,0.0
193818.5,204535.6,175595.3,246485.9,201590.0,190552.1,185977.2,198419.0,0.0
193995.1,204509.6,175417.3,246598.0,201214.8,190617.5,185886.3,198460.3,0.0
194658.9,205455.2,176520.8,247222.3,202416.0,191414.9,186814.0,199408.1,0.0
194891.5,206057.8,177368.4,247498.0,203525.3,191837.2,187471.2,199945.7,0.0
194373.0,205493.7,176795.5,247042.6,203023.9,191309.8,186959.4,199340.1,0.0
193819.9,204536.4,175587.7,246487.5,201602.4,190559.0,185983.0,198422.8,0.0
193995.6,204509.6,175407.4,246600.4,201222.6,190623.9,185889.9,198462.0,0.0
194661.8,205454.0,176507.2,247226.0,202415.5,191417.4,186812.5,199406.4,0.0
194897.0,206062.6,177361.8,247498.0,203526.2,191841.8,187474.3,199949.5,0.0
194377.0,205496.3,176790.3,247043.9,203023.8,191310.2,186964.0,199340.3,0.0
193825.1,204540.1,175583.5,246492.0,201603.9,190562.4,185992.9,198425.8,0.0
193991.9,204500.7,175392.2,246596.4,201214.3,190622.8,185891.2,198459.9,0.0
194652.0,205437.4,176482.2,247216.0,202400.2,191411.4,186803.4,199400.9,0.0
194891.8,206054.4,177341.0,247497.0,203519.8,191836.6,187466.6,199948.1,0.0
194371.0,205491.3,176774.2,247033.7,203023.4,191305.7,186958.8,199340.6,0.0
193822.8,204538.9,175571.0,246486.2,201607.3,190560.6,185988.5,198428.2,0.0
193994.0,204499.5,175376.8,246594.3,201213.4,190615.5,185883.3,198457.2,0.0
194652.2,205432.6,176460.4,247207.1,202395.5,191400.1,186793.2,199391.0,0.0
194887.4,206044.9,177314.5,247481.8,203515.0,191832.6,187458.5,199935.6,0.0
194373.8,205493.1,176752.9,247031.8,203026.5,191312.7,186958.6,199333.0,0.0
193823.5,204536.8,175545.9,246483.5,201605.9,190557.0,185983.3,198416.0,0.0
193992.7,204499.3,175355.3,246590.2,201213.5,190610.4,185882.3,198447.0,0.0
194669.8,205449.1,176462.0,247227.4,202409.8,191414.4,186809.8,199402.1,0.0
194904.9,206061.0,177320.0,247500.7,203526.6,191840.8,187471.3,199947.9,0.0
194385.3,205501.0,176753.8,247041.8,203034.1,191313.9,186965.2,199344.0,0.0
193835.2,204550.5,175552.3,246494.5,201620.3,190569.1,185997.2,198434.3,0.0
194004.5,204514.4,175357.6,246598.0,201225.4,190620.8,185891.2,198461.3,0.0
194666.8,205454.0,176451.8,247213.3,202414.5,191414.2,186808.5,199403.5,0.0
194904.5,206066.5,177307.5,247486.4,203529.0,191844.7,187470.6,199949.4,0.0
194393.8,205509.5,176745.6,247039.6,203038.3,191321.1,186969.3,199350.8,0.0
193843.8,204553.6,175538.8,246492.0,201620.3,190571.0,185995.4,198435.8,0.0
194010.8,204515.9,175343.2,246597.8,201225.3,190627.2,185889.3,198462.3,0.0
194670.2,205450.9,176432.9,247215.5,202402.5,191413.3,186799.3,199398.4,0.0
194912.0,206069.6,177298.3,247494.3,203523.2,191847.9,187471.2,199953.3,0.0
194408.4,205526.5,176751.0,247054.0,203051.1,191335.5,186983.6,199361.3,0.0
193854.4,204569.3,175545.4,246498.3,201635.6,190582.3,186008.5,198439.0,0.0
194016.8,204518.1,175336.4,246594.8,201225.4,190627.4,185892.8,198455.3,0.0
194685.0,205455.5,176425.6,247220.9,202407.2,191418.2,186807.2,199398.9,0.0
194921.0,206074.5,177292.5,247492.7,203533.5,191847.7,187476.3,199952.4,0.0
194409.2,205520.7,176740.4,247044.9,203051.1,191326.3,186976.7,199356.8,0.0
193854.5,204560.2,175532.6,246480.6,201630.4,190573.2,185999.5,198438.2,0.0
194011.2,204506.0,175322.4,246572.9,201219.2,190615.1,185878.5,198450.8,0.0
194668.9,205440.1,176407.5,247190.1,202392.2,191401.0,186786.7,199386.3,0.0
194910.0,206054.8,177270.3,247462.4,203512.7,191834.8,187456.1,199939.9,0.0
194408.9,205516.8,176731.0,247022.8,203047.1,191329.1,186975.0,199360.0,0.0
193852.9,204563.5,175527.2,246463.7,201631.9,190574.4,186001.9,198444.7,0.0
194008.1,204505.3,175310.4,246548.8,201211.2,190608.4,185877.0,198451.0,0.0
194670.7,205442.2,176396.8,247169.9,202387.5,191396.0,186790.1,199385.7,0.0
194917.2,206066.4,177268.0,247448.9,203519.4,191834.8,187467.3,199946.3,0.0
194406.0,205520.4,176722.3,246994.1,203050.7,191320.8,186981.3,199361.8,0.0
193842.0,204566.9,175517.3,246428.7,201636.4,190567.2,186010.4,198444.7,0.0
194002.7,204513.5,175306.3,246527.3,201222.8,190613.0,185895.1,198461.4,0.0
194657.1,205434.7,176376.1,247139.8,202381.2,191392.5,186795.4,199387.0,0.0
194903.0,206055.5,177245.4,247426.1,203512.4,191833.7,187472.5,199948.8,0.0
194401.5,205515.7,176706.5,246984.0,203054.1,191327.2,186989.2,199367.1,0.0
193841.8,204563.0,175503.3,246426.7,201641.4,190573.5,186014.2,198447.0,0.0
193995.6,204501.9,175280.7,246519.5,201213.4,190609.7,185885.7,198452.2,0.0
194652.5,205430.0,176353.0,247133.1,202374.3,191389.1,186788.0,199382.0,0.0
194896.1,206054.9,177227.2,247418.9,203510.9,191829.7,187468.0,199944.1,0.0
194391.1,205513.6,176692.3,246979.3,203052.0,191320.0,186985.1,199361.8,0.0
193834.5,204561.1,175487.0,246421.8,201635.5,190565.4,186010.5,198442.0,0.0
193993.1,204505.5,175270.0,246525.3,201217.0,190607.1,185890.4,198453.2,0.0
194644.9,205425.6,176338.8,247135.0,202375.6,191386.4,186789.9,199377.3,0.0
194899.3,206055.4,177212.1,247419.9,203509.3,191832.3,187468.5,199940.7,0.0
194402.4,205526.4,176684.7,246987.1,203060.0,191331.0,186993.3,199365.2,0.0
193844.3,204565.0,175478.4,246428.1,201644.4,190573.1,186018.5,198444.0,0.0
193994.5,204496.0,175250.5,246518.4,201210.7,190603.9,185884.2,198446.7,0.0
194656.0,205424.8,176328.1,247140.4,202371.1,191388.5,186789.3,199381.0,0.0
194904.8,206057.8,177205.0,247424.3,203505.8,191833.0,187469.2,199945.3,0.0
194413.9,205535.6,176682.3,246994.5,203062.2,191336.3,187000.0,199374.3,0.0
193857.0,204576.0,175476.5,246441.8,201648.6,190582.5,186025.9,198453.6,0.0
194002.2,204498.2,175241.5,246526.7,201208.9,190606.8,185887.4,198450.9,0.0
194669.9,205435.0,176327.4,247157.4,202382.0,191400.9,186798.8,199394.9,0.0
194923.2,206069.7,177205.7,247453.0,203522.4,191845.7,187479.3,199962.7,0.0
194412.6,205531.5,176669.0,246993.5,203064.6,191331.3,186993.1,199375.2,0.0
193846.9,204566.0,175458.3,246425.6,201642.8,190568.7,186013.3,198445.6,0.0
193997.0,204491.9,175225.0,246512.8,201199.4,190596.3,185877.3,198442.9,0.0
194661.7,205422.4,176302.9,247133.4,202360.5,191384.4,186783.5,199377.3,0.0
194919.8,206064.2,177192.9,247429.7,203513.2,191838.1,187476.3,199952.7,0.0
194418.0,205532.6,176665.8,246993.0,203069.3,191334.1,186999.5,199374.2,0.0
193848.1,204559.5,175447.3,246428.1,201645.2,190570.4,186013.5,198446.4,0.0
193987.8,204479.5,175202.4,246505.3,201196.4,190589.4,185868.0,198434.5,0.0
194643.4,205400.3,176268.6,247120.3,202346.5,191368.8,186766.6,199362.4,0.0
194908.5,206048.1,177169.0,247425.2,203504.3,191832.7,187470.4,199948.4,0.0
194415.6,205531.2,176657.7,247002.7,203074.8,191342.5,187009.4,199383.0,0.0
193843.8,204565.1,175443.2,246430.2,201654.9,190579.0,186027.1,198452.7,0.0
193986.6,204484.6,175202.2,246507.4,201207.1,190599.2,185881.5,198445.6,0.0
194647.3,205403.8,176268.8,247124.8,202359.1,191379.5,186777.2,199376.4,0.0
194913.8,206054.8,177162.4,247428.1,203512.5,191839.0,187472.9,199959.2,0.0
194413.0,205531.2,176645.8,246996.5,203079.3,191340.5,187008.2,199390.3,0.0
193834.2,204555.4,175425.3,246416.5,201651.5,190568.4,186022.2,198450.3,0.0
193969.1,204466.4,175173.0,246492.4,201187.3,190580.8,185869.2,198429.7,0.0
194630.2,205391.7,176244.8,247112.3,202336.6,191363.0,186771.0,199360.0,0.0
194893.1,206037.0,177139.2,247412.0,203489.5,191822.4,187468.4,199942.9,0.0
194401.4,205521.5,176629.6,246981.5,203060.1,191329.7,187005.7,199379.5,0.0
193835.3,204553.2,175415.0,246423.9,201639.0,190569.5,186022.7,198452.0,0.0
193972.1,204469.4,175167.0,246503.5,201183.7,190590.3,185873.2,198438.3,0.0
194629.0,205395.2,176234.8,247118.1,202332.2,191372.9,186770.5,199366.9,0.0
194898.7,206055.6,177140.8,247418.0,203500.8,191844.7,187477.4,199960.4,0.0
194406.0,205542.9,176635.5,246989.7,203080.3,191356.1,187018.4,199399.8,0.0
193835.2,204571.8,175417.3,246420.9,201654.9,190583.6,186031.0,198465.2,0.0
193961.8,204472.3,175154.1,246486.5,201183.0,190589.4,185870.2,198440.0,0.0
194615.8,205380.4,176209.4,247096.4,202318.4,191368.0,186759.2,199360.4,0.0
194883.5,206029.4,177107.5,247398.6,203475.0,191830.5,187458.0,199942.7,0.0
194398.4,205520.3,176607.0,246978.4,203057.8,191342.2,187003.5,199385.7,0.0
193825.5,204546.2,175387.0,246409.9,201633.7,190572.4,186014.3,198447.4,0.0
193959.9,204451.4,175126.7,246475.8,201164.6,190584.6,185858.7,198421.5,0.0
194625.8,205382.3,176196.4,247092.2,202315.0,191369.2,186759.0,199354.1,0.0
194900.7,206040.0,177102.5,247400.2,203481.9,191835.3,187465.7,199947.0,0.0
194407.9,205530.8,176603.0,246972.0,203066.2,191344.7,187011.2,199390.3,0.0
193838.7,204565.9,175393.3,246408.6,201648.8,190580.6,186030.5,198461.7,0.0
193962.5,204453.4,175114.5,246469.1,201158.6,190575.0,185852.9,198422.2,0.0
194618.3,205367.5,176166.0,247082.3,202291.3,191351.8,186739.2,199343.5,0.0
194895.3,206031.3,177078.0,247393.4,203465.1,191828.2,187453.1,199944.5,0.0
194409.5,205526.8,176588.0,246971.4,203060.0,191344.6,187006.1,199392.1,0.0
193840.6,204559.2,175379.1,246408.4,201644.9,190580.9,186026.1,198462.1,0.0
193972.4,204464.2,175115.6,246477.0,201171.8,190586.5,185863.2,198434.0,0.0
194628.2,205378.1,176169.1,247085.5,202304.8,191358.5,186750.2,199351.6,0.0
194909.5,206043.0,177085.2,247404.6,203479.5,191835.3,187467.6,199951.7,0.0
194425.1,205540.3,176590.6,246983.5,203068.5,191352.1,187019.7,199400.5,0.0
193846.2,204563.4,175367.0,246410.1,201637.6,190574.8,186024.9,198459.7,0.0
193976.7,204466.4,175103.7,246477.7,201161.5,190582.6,185859.7,198431.7,0.0
194628.8,205378.2,176157.1,247080.9,202293.0,191355.4,186745.6,199351.5,0.0
194902.8,206036.7,177067.0,247391.3,203462.6,191824.4,187454.5,199947.1,0.0
194421.5,205539.1,176581.1,246976.6,203064.8,191346.4,187010.3,199400.0,0.0
193844.3,204567.4,175364.2,246404.8,201648.1,190577.6,186022.8,198463.9,0.0
193971.2,204464.2,175092.8,246468.0,201164.7,190578.2,185853.0,198429.7,0.0
194631.2,205378.3,176147.2,247086.1,202296.4,191355.9,186740.1,199352.5,0.0
194918.3,206049.6,177067.7,247404.8,203477.6,191839.8,187458.3,199956.9,0.0
194435.3,205553.1,176580.9,246983.2,203082.1,191363.8,187016.7,199410.3,0.0
193861.9,204584.9,175370.5,246417.4,201670.5,190597.3,186036.6,198476.7,0.0
193986.7,204473.4,175092.9,246488.6,201181.8,190592.7,185861.9,198440.6,0.0
194648.2,205390.3,176147.4,247104.2,202314.7,191375.2,186754.1,199366.0,0.0
194933.7,206061.4,177068.7,247421.4,203491.5,191854.6,187472.4,199967.6,0.0
194445.7,205567.2,176590.0,246993.0,203096.5,191374.5,187031.2,199421.5,0.0
193856.9,204584.3,175366.2,246409.8,201667.4,190593.5,186032.3,198475.5,0.0
193973.2,204467.6,175084.7,246465.4,201172.4,190586.1,185854.1,198431.1,0.0
194633.7,205377.8,176138.5,247083.7,202298.4,191365.5,186743.9,199352.7,0.0
194915.2,206048.0,177056.9,247395.6,203476.6,191841.7,187459.4,199952.1,0.0
194431.0,205550.1,176579.3,246973.3,203089.9,191365.4,187019.9,199407.0,0.0
193857.2,204576.8,175365.2,246404.6,201674.9,190598.3,186033.2,198472.6,0.0
193977.8,204468.0,175081.6,246462.5,201177.3,190590.7,185850.7,198428.8,0.0
194633.3,205377.6,176128.0,247073.3,202298.0,191364.2,186732.8,199346.9,0.0
194916.7,206047.0,177049.8,247390.8,203479.4,191848.3,187454.1,199953.7,0.0
194433.3,205546.6,176565.6,246959.4,203080.6,191366.0,187012.5,199405.2,0.0
193857.5,204576.0,175347.5,246376.0,201657.6,190590.9,186023.2,198464.8,0.0
193977.5,204464.9,175067.0,246432.4,201162.0,190586.7,185843.3,198423.9,0.0
194641.8,205379.4,176121.8,247048.5,202287.0,191366.6,186730.5,199348.0,0.0
194920.8,206050.5,177044.1,247360.3,203471.0,191848.3,187452.2,199954.3,0.0
194442.0,205561.3,176569.3,246945.4,203090.7,191375.6,187021.4,199416.9,0.0
193859.0,204579.7,175350.4,246367.4,201670.1,190600.6,186033.8,198477.7,0.0
193976.1,204459.3,175057.4,246416.4,201164.4,190590.2,185846.5,198428.1,0.0
194638.5,205375.2,176103.2,247026.0,202283.8,191367.2,186729.8,199346.8,0.0
194930.7,206054.8,177038.4,247348.5,203475.9,191859.2,187461.1,199967.0,0.0
194449.1,205564.4,176564.8,246933.0,203092.3,191386.3,187029.8,199430.4,0.0
193866.6,204583.3,175343.5,246360.0,201671.7,190611.8,186043.0,198492.6,0.0
193971.8,204455.7,175040.2,246402.5,201155.4,190589.8,185847.9,198433.2,0.0
194629.0,205367.2,176081.7,247006.4,202272.2,191360.7,186729.3,199349.1,0.0
194916.4,206039.4,177009.5,247333.5,203459.3,191847.8,187456.4,199963.5,0.0
194441.0,205555.5,176543.5,246929.9,203084.7,191381.5,187030.1,199433.7,0.0
193860.5,204582.1,175328.2,246361.1,201669.7,190608.9,186041.5,198496.0,0.0
193967.0,204453.7,175029.2,246408.0,201155.5,190587.4,185848.4,198436.2,0.0
194624.5,205356.2,176064.6,247021.1,202265.1,191356.1,186722.4,199352.0,0.0
194916.2,206034.8,176990.1,247344.5,203452.8,191843.4,187443.9,199966.0,0.0
194450.0,205561.9,176533.6,246946.1,203088.2,191383.1,187024.5,199441.9,0.0
193873.7,204594.8,175320.8,246376.0,201673.2,190612.0,186042.2,198502.7,0.0
193986.1,204471.2,175022.8,246430.6,201159.5,190597.3,185855.4,198443.7,0.0
194643.6,205382.0,176065.5,247054.9,202274.4,191369.8,186735.8,199359.5,0.0
194925.1,206056.8,176989.9,247369.9,203464.4,191851.6,187459.7,199971.2,0.0
194448.3,205572.9,176523.8,246949.8,203093.2,191381.5,187033.1,199438.6,0.0
193867.7,204596.4,175303.4,246378.7,201677.4,190606.8,186040.0,198494.4,0.0
193975.3,204465.2,174996.7,246430.3,201160.9,190589.8,185843.4,198431.5,0.0
194629.6,205367.0,176032.4,247042.2,202269.2,191363.0,186720.5,199345.9,0.0
194923.9,206052.5,176969.0,247369.4,203464.5,191854.4,187455.0,199966.7,0.0
194452.2,205574.0,176512.5,246959.9,203100.9,191388.7,187031.3,199439.6,0.0
193868.0,204600.0,175295.4,246384.7,201686.3,190614.5,186040.6,198497.6,0.0
193977.2,204468.5,174991.5,246432.3,201167.0,190595.7,185845.5,198436.7,0.0
194633.2,205370.3,176029.7,247041.1,202272.9,191363.0,186723.4,199349.8,0.0
194924.9,206049.4,176964.8,247365.5,203469.4,191852.5,187453.5,199968.2,0.0
194454.9,205576.7,176512.2,246960.4,203114.4,191391.4,187038.3,199445.3,0.0
193869.7,204596.6,175294.2,246384.7,201695.1,190611.8,186048.0,198498.9,0.0
193965.0,204450.2,174976.8,246422.1,201160.5,190578.5,185838.8,198424.0,0.0
194620.3,205351.2,176011.8,247021.6,202265.3,191347.4,186713.6,199335.2,0.0
194917.0,206037.6,176950.8,247347.0,203467.0,191842.9,187448.5,199959.0,0.0
194450.3,205566.9,176502.3,246948.8,203114.7,191386.5,187036.5,199442.7,0.0
193876.8,204601.8,175297.4,246385.8,201709.2,190619.6,186056.9,198509.8,0.0
193975.3,204460.0,174985.5,246424.3,201176.6,190586.3,185845.4,198434.0,0.0
194625.7,205351.4,176012.9,247022.9,202269.8,191345.2,186707.8,199337.5,0.0
194926.1,206042.2,176951.0,247355.3,203470.5,191844.5,187445.4,199964.4,0.0
194459.9,205574.4,176504.0,246952.6,203119.7,191387.0,187034.0,199444.8,0.0
193877.3,204597.2,175287.3,246370.9,201706.7,190609.9,186048.8,198501.7,0.0
193966.7,204446.0,174960.9,246396.7,201162.8,190573.0,185833.3,198420.7,0.0
194619.4,205348.3,175993.5,247001.5,202262.1,191341.9,186704.5,199331.6,0.0
194924.1,206043.0,176942.1,247341.6,203471.4,191845.5,187449.6,199965.2,0.0
