EEG 1,EEG 2,EEG 3,EEG 4,EEG 5,EEG 6,EEG 7,EEG 8,TRIG
195338.7,204889.0,203655.4,261052.8,204478.1,189672.1,186755.5,196971.8,0.0
195503.8,205003.6,203602.1,261124.5,204515.2,189777.4,186825.5,197091.8,0.0
195752.1,205356.0,203855.8,261308.5,204964.2,190064.0,187162.4,197442.2,0.0
195739.4,205455.5,203853.5,261282.3,205206.6,190133.6,187302.2,197536.1,0.0
195485.3,205166.1,203387.1,261026.0,204907.0,189884.6,187046.9,197244.2,0.0
195344.8,204889.1,202899.7,260833.2,204485.0,189663.6,186755.0,196977.1,0.0
195505.8,204993.6,202851.1,260896.4,204520.3,189767.0,186819.6,197093.0,0.0
195759.3,205344.7,203113.8,261091.3,204973.4,190057.3,187156.0,197447.6,0.0
195742.7,205443.8,203111.0,261064.5,205210.3,190126.1,187288.9,197539.5,0.0
195485.4,205163.5,202651.5,260802.0,204911.4,189884.1,187038.8,197249.3,0.0
195336.2,204887.6,202164.9,260600.3,204488.0,189663.2,186744.3,196974.5,0.0
195506.7,205002.3,202132.0,260696.3,204532.4,189776.5,186818.6,197102.5,0.0
195755.3,205345.1,202396.9,260878.7,204981.0,190061.6,187155.5,197452.3,0.0
195740.9,205446.6,202401.0,260836.6,205216.4,190130.8,187290.0,197536.2,0.0
195481.2,205161.8,201945.8,260573.7,204914.4,189884.9,187035.2,197241.0,0.0
195333.5,204889.2,201471.3,260381.7,204493.8,189666.7,186745.3,196968.7,0.0
195495.8,205004.0,201445.5,260454.2,204538.0,189776.1,186823.4,197092.9,0.0
195745.7,205348.3,201719.9,260647.7,204987.9,190060.7,187159.9,197444.4,0.0
195735.3,205451.8,201733.7,260634.0,205223.4,190133.2,187294.7,197535.0,0.0
195476.9,205167.4,201281.8,260372.5,204918.6,189886.6,187038.6,197231.9,0.0
195319.5,204875.3,200797.8,260157.2,204484.6,189651.9,186736.0,196951.4,0.0
195489.1,204985.5,200777.0,260242.2,204529.0,189758.8,186809.1,197083.8,0.0
195751.3,205350.5,201080.1,260458.5,205004.0,190061.9,187166.9,197453.4,0.0
195727.4,205449.0,201095.4,260419.0,205236.2,190125.2,187295.8,197527.2,0.0
195465.8,205163.8,200646.3,260150.4,204924.3,189877.5,187037.8,197221.0,0.0
195334.3,204894.8,200188.2,259982.1,204506.0,189664.9,186754.6,196964.8,0.0
195497.4,205006.7,200170.3,260066.7,204546.5,189768.5,186824.7,197098.0,0.0
195741.5,205350.8,200458.8,260235.3,205002.7,190053.1,187165.0,197445.0,0.0
195733.0,205459.1,200491.2,260229.2,205248.7,190129.0,187307.0,197534.1,0.0
195468.3,205168.5,200045.5,259969.7,204936.7,189877.1,187044.7,197229.2,0.0
195328.7,204896.4,199592.0,259783.4,204518.1,189660.6,186757.0,196965.8,0.0
195497.8,205007.4,199584.5,259867.6,204565.5,189768.4,186832.1,197097.0,0.0
195744.9,205357.0,199880.0,260068.5,205021.7,190055.8,187171.5,197445.8,0.0
195721.8,205452.4,199901.0,260040.3,205243.6,190119.4,187299.2,197518.6,0.0
195461.4,205166.5,199464.2,259782.2,204930.0,189875.9,187042.1,197215.3,0.0
195318.8,204887.9,199011.8,259586.2,204508.7,189653.1,186749.1,196948.5,0.0
195488.5,204995.9,199008.7,259676.0,204555.6,189762.0,186826.5,197086.8,0.0
195739.5,205347.5,199309.4,259881.7,205012.7,190054.1,187168.0,197440.7,0.0
195715.0,205443.2,199337.7,259856.6,205239.3,190118.8,187295.3,197514.2,0.0
195451.4,205153.3,198905.5,259590.7,204922.5,189867.4,187033.5,197206.9,0.0
195322.5,204886.2,198468.9,259408.5,204508.9,189656.4,186748.3,196950.7,0.0
195495.0,205007.2,198475.7,259507.9,204560.3,189768.4,186824.9,197090.0,0.0
195734.9,205349.3,198776.9,259702.1,205011.9,190052.3,187163.5,197439.9,0.0
195713.9,205446.4,198808.9,259674.4,205241.2,190118.5,187293.7,197518.3,0.0
195446.7,205147.7,198371.1,259406.8,204921.6,189861.4,187024.1,197206.7,0.0
195310.6,204873.5,197936.2,259225.4,204506.9,189646.0,186739.4,196949.0,0.0
195478.4,204984.9,197940.5,259316.5,204548.6,189755.0,186814.3,197078.7,0.0
195728.9,205338.3,198248.4,259515.7,205000.9,190043.5,187153.3,197427.4,0.0
195716.3,205444.1,198289.7,259494.9,205234.9,190113.6,187284.7,197508.4,0.0
195459.1,205160.9,197868.3,259244.1,204929.0,189869.0,187027.0,197207.6,0.0
195327.1,204893.6,197438.6,259074.8,204515.8,189655.6,186744.3,196953.7,0.0
195490.1,205001.7,197445.4,259155.3,204557.6,189758.7,186817.3,197080.6,0.0
195734.1,205346.6,197753.4,259343.6,205004.3,190040.1,187148.8,197421.2,0.0
195719.8,205452.2,197804.1,259338.2,205240.3,190114.2,187286.0,197507.0,0.0
195460.1,205164.8,197389.3,259096.7,204931.4,189867.4,187030.6,197208.4,0.0
195311.3,204883.3,196946.7,258899.6,204503.6,189642.5,186733.3,196937.5,0.0
195475.0,204986.4,196954.5,258980.2,204541.9,189745.4,186800.7,197066.9,0.0
195727.3,205341.5,197279.1,259186.3,205001.9,190041.4,187145.4,197425.8,0.0
195715.5,205448.1,197331.0,259174.7,205235.6,190110.8,187280.7,197507.9,0.0
195455.5,205162.3,196917.5,258918.3,204924.7,189861.5,187020.1,197202.1,0.0
195314.6,204883.6,196487.6,258739.0,204503.7,189642.2,186729.4,196937.6,0.0
195493.8,205004.3,196515.5,258854.8,204561.1,189760.7,186816.6,197085.6,0.0
195726.9,205343.2,196818.2,259017.8,205001.1,190035.3,187140.3,197416.8,0.0
195713.9,205454.7,196870.7,259005.0,205235.9,190110.5,187276.0,197499.8,0.0
195456.5,205169.7,196463.3,258766.5,204930.5,189872.0,187023.0,197204.5,0.0
195309.4,204881.5,196026.8,258578.0,204500.9,189644.7,186724.5,196930.8,0.0
195494.5,205013.3,196060.0,258684.3,204558.3,189768.2,186814.9,197077.5,0.0
195746.6,205365.4,196386.7,258900.4,205014.3,190058.6,187159.5,197433.1,0.0
195723.3,205454.8,196437.6,258876.2,205241.2,190120.1,187286.4,197507.4,0.0
195456.1,205155.8,196021.5,258611.3,204918.8,189860.9,187015.4,197193.6,0.0
195322.3,204883.8,195602.3,258445.3,204500.5,189647.1,186728.2,196936.5,0.0
195490.6,204998.7,195628.8,258541.1,204550.6,189758.4,186809.7,197077.2,0.0
195738.5,205350.6,195955.2,258723.3,205005.6,190047.0,187151.0,197424.8,0.0
195722.4,205447.3,196012.1,258721.1,205236.3,190113.8,187280.2,197503.0,0.0
195460.6,205159.3,195603.4,258475.2,204922.7,189860.3,187015.3,197195.0,0.0
195312.7,204881.5,195178.7,258276.3,204494.7,189635.9,186722.8,196925.7,0.0
195486.7,205000.2,195208.2,258372.8,204541.4,189747.6,186799.3,197064.0,0.0
195736.1,205342.9,195538.5,258587.0,204994.5,190035.8,187139.5,197417.0,0.0
195718.1,205442.3,195600.0,258574.2,205223.7,190103.4,187272.0,197495.5,0.0
195460.5,205165.7,195202.2,258327.5,204914.4,189862.1,187015.2,197196.5,0.0
195319.5,204889.6,194788.9,258156.2,204498.6,189645.4,186730.6,196937.6,0.0
195493.1,205001.4,194824.6,258267.6,204548.7,189756.3,186812.7,197081.0,0.0
195735.1,205350.8,195154.3,258450.9,205003.8,190044.7,187149.0,197427.7,0.0
195717.3,205453.7,195220.2,258432.2,205237.6,190112.9,187278.1,197501.9,0.0
195464.5,205172.0,194830.2,258195.8,204936.1,189874.0,187026.3,197209.0,0.0
195324.2,204901.0,194415.7,258012.7,204520.6,189656.6,186741.2,196945.9,0.0
195492.8,205012.4,194448.6,258116.3,204567.0,189763.0,186819.4,197080.2,0.0
195736.5,205359.0,194782.0,258316.7,205018.1,190047.6,187156.3,197430.1,0.0
195715.8,205451.7,194843.9,258306.2,205244.2,190110.1,187285.5,197506.5,0.0
195457.9,205162.5,194444.8,258069.7,204931.4,189863.9,187026.4,197203.9,0.0
195303.0,204874.9,194021.3,257864.9,204500.9,189641.0,186725.0,196926.6,0.0
195480.8,204993.5,194061.3,257968.7,204548.3,189753.8,186803.3,197065.4,0.0
195729.0,205338.3,194393.2,258173.5,204993.6,190033.8,187136.5,197413.2,0.0
195713.5,205437.8,194459.4,258168.9,205216.8,190098.1,187263.2,197488.0,0.0
195466.8,205163.6,194077.6,257937.4,204916.6,189864.8,187015.4,197197.6,0.0
195328.2,204889.8,193671.5,257765.0,204497.1,189647.1,186729.1,196936.6,0.0
195492.1,204996.5,193713.7,257855.8,204546.5,189754.3,186811.3,197070.4,0.0
195742.5,205345.0,194055.7,258060.0,205002.8,190044.3,187154.9,197422.8,0.0
195720.7,205444.2,194121.5,258054.5,205228.4,190109.8,187283.3,197498.5,0.0
195463.4,205160.5,193728.9,257815.6,204916.2,189865.4,187022.3,197197.9,0.0
195321.7,204886.7,193323.4,257627.4,204497.2,189645.1,186733.7,196933.2,0.0
195494.3,205003.3,193368.8,257737.6,204547.2,189756.5,186815.5,197072.6,0.0
195743.3,205350.6,193710.4,257950.2,205000.0,190042.0,187152.9,197420.5,0.0
195719.4,205445.3,193776.5,257922.6,205223.8,190105.3,187275.1,197490.7,0.0
195459.7,205161.8,193390.8,257684.1,204917.3,189857.2,187018.1,197194.0,0.0
195304.9,204875.9,192977.0,257495.6,204486.8,189626.7,186720.5,196923.7,0.0
195482.2,204993.0,193025.5,257605.0,204536.3,189742.0,186799.3,197062.7,0.0
195733.4,205339.4,193368.2,257814.7,204988.0,190030.8,187135.2,197410.9,0.0
195708.3,205429.9,193437.5,257805.8,205216.1,190092.8,187262.3,197484.6,0.0
195439.0,205136.5,193044.3,257548.6,204901.0,189843.0,186998.4,197177.5,0.0
195298.5,204862.2,192644.0,257364.3,204479.4,189628.9,186711.1,196914.3,0.0
195478.2,204981.4,192700.3,257486.6,204537.3,189746.9,186797.0,197065.1,0.0
195722.2,205329.6,193045.7,257693.9,204990.9,190032.2,187133.6,197415.6,0.0
195701.7,205425.8,193121.1,257677.9,205219.7,190097.0,187257.7,197488.4,0.0
195438.4,205136.5,192735.0,257431.9,204906.9,189846.9,186994.0,197182.9,0.0
195294.7,204857.4,192332.7,257259.7,204483.0,189626.8,186704.0,196920.5,0.0
195463.2,204965.2,192378.0,257363.3,204526.3,189732.7,186779.3,197054.9,0.0
195710.6,205318.6,192726.9,257572.0,204980.6,190023.3,187122.8,197407.1,0.0
195700.9,205426.5,192815.4,257568.7,205219.5,190097.8,187263.4,197494.5,0.0
195445.8,205142.8,192439.3,257336.6,204915.1,189856.2,187009.5,197198.4,0.0
195304.6,204868.8,192044.9,257157.4,204498.2,189638.3,186722.2,196934.4,0.0
195467.7,204975.4,192089.7,257247.6,204540.6,189742.3,186796.3,197063.4,0.0
195719.0,205329.6,192440.8,257460.2,204992.8,190033.7,187136.8,197413.1,0.0
195711.5,205445.5,192536.1,257468.2,205238.6,190116.6,187279.2,197504.3,0.0
195454.8,205158.6,192157.6,257233.2,204931.8,189869.9,187023.2,197205.3,0.0
195301.4,204874.4,191749.2,257042.3,204498.7,189642.3,186724.8,196931.8,0.0
195469.0,204983.0,191801.0,257143.3,204546.9,189751.9,186801.4,197070.7,0.0
195716.7,205328.3,192150.3,257350.0,204998.5,190038.7,187135.7,197419.9,0.0
195703.0,205438.7,192237.9,257346.7,205232.8,190112.9,187269.1,197499.6,0.0
195444.4,205150.6,191862.3,257110.8,204924.3,189866.2,187012.9,197201.8,0.0
195305.9,204872.6,191469.0,256939.2,204501.8,189648.4,186723.4,196938.8,0.0
195474.0,204982.5,191519.4,257043.4,204542.4,189757.6,186797.2,197071.1,0.0
195726.3,205339.4,191879.9,257262.4,204998.0,190053.0,187142.0,197427.7,0.0
195718.0,205451.5,191977.8,257279.4,205238.7,190126.3,187281.3,197520.0,0.0
195447.8,205157.4,191592.5,257012.2,204923.6,189868.6,187014.0,197205.2,0.0
195317.2,204889.5,191205.0,256853.8,204509.0,189655.4,186730.0,196945.1,0.0
195483.9,204998.2,191254.9,256965.8,204549.3,189762.5,186801.5,197079.2,0.0
195725.7,205345.4,191606.0,257153.3,204996.5,190047.0,187135.0,197425.5,0.0
195726.0,205459.3,191707.0,257168.4,205245.5,190127.9,187277.1,197526.3,0.0
195469.7,205180.0,191336.8,256929.7,204946.6,189886.5,187024.1,197231.4,0.0
195313.5,204893.4,190935.1,256732.0,204513.9,189651.7,186720.0,196946.9,0.0
195469.4,204989.1,190978.3,256824.5,204544.4,189750.6,186780.4,197065.1,0.0
195728.3,205341.2,191339.0,257047.3,204999.0,190041.7,187123.5,197427.3,0.0
195729.9,205459.0,191444.8,257069.6,205246.3,190123.6,187272.0,197534.8,0.0
195457.6,205165.7,191066.6,256806.9,204933.4,189870.4,187010.4,197228.0,0.0
195313.2,204896.5,190680.5,256619.1,204516.5,189655.7,186724.3,196957.5,0.0
195472.4,204999.3,190728.2,256714.2,204548.6,189758.0,186790.2,197077.0,0.0
195717.2,205340.0,191076.6,256925.3,204986.6,190041.1,187119.0,197421.3,0.0
195702.0,205442.8,191167.6,256919.1,205216.7,190110.2,187253.8,197510.6,0.0
195457.3,205169.6,190816.8,256698.4,204928.8,189877.3,187015.9,197232.2,0.0
195318.3,204898.7,190434.5,256524.4,204516.9,189660.2,186730.1,196963.0,0.0
195482.0,205008.1,190488.4,256626.2,204555.4,189762.7,186799.0,197084.3,0.0
195725.0,205349.6,190837.5,256828.3,204996.5,190044.8,187127.7,197427.3,0.0
195713.7,205445.7,190927.3,256836.3,205229.3,190116.3,187261.8,197516.9,0.0
195452.3,205162.0,190558.2,256594.5,204924.2,189874.8,187007.6,197223.2,0.0
195313.5,204896.0,190183.5,256419.6,204514.3,189659.8,186728.3,196962.5,0.0
195473.4,204992.8,190231.7,256515.0,204544.1,189757.8,186792.9,197079.2,0.0
195723.4,205332.2,190584.2,256732.6,204984.6,190043.3,187122.8,197425.7,0.0
195710.5,205429.5,190676.3,256739.4,205215.6,190110.4,187253.9,197511.3,0.0
195458.1,205151.7,190317.6,256504.7,204920.2,189872.9,187005.5,197223.6,0.0
195322.8,204889.8,189943.3,256335.5,204514.7,189666.8,186725.7,196964.5,0.0
195481.6,204998.5,189994.4,256433.4,204548.7,189768.2,186789.8,197080.6,0.0
195727.7,205345.0,190351.6,256644.9,204994.3,190050.6,187122.8,197427.3,0.0
195726.3,205454.6,190455.0,256664.9,205237.4,190127.5,187267.0,197531.0,0.0
195474.2,205176.0,190099.2,256434.3,204943.9,189891.8,187022.3,197247.9,0.0
195324.9,204902.0,189714.3,256250.8,204522.8,189668.0,186729.1,196970.2,0.0
195478.5,205007.1,189765.7,256337.8,204552.3,189765.7,186792.0,197081.8,0.0
195719.1,205340.7,190117.5,256545.6,204990.2,190044.5,187122.1,197424.8,0.0
195715.2,205450.9,190222.6,256559.4,205232.7,190121.1,187264.5,197524.6,0.0
195468.2,205180.3,189874.9,256334.0,204944.9,189889.0,187022.2,197244.6,0.0
195322.6,204908.2,189493.7,256164.1,204526.5,189668.2,186732.8,196972.2,0.0
195481.0,205012.2,189543.6,256252.3,204556.4,189763.5,186795.4,197082.0,0.0
195723.2,205354.3,189899.3,256463.9,204999.1,190044.3,187126.0,197422.6,0.0
195709.9,205457.3,190003.9,256477.4,205241.4,190116.3,187268.2,197517.6,0.0
195454.9,205179.0,189649.3,256236.3,204949.2,189878.2,187023.1,197230.8,0.0
195309.0,204901.9,189263.4,256061.9,204530.6,189660.9,186730.9,196960.6,0.0
195478.5,205012.7,189323.8,256175.0,204567.9,189768.5,186800.2,197083.2,0.0
195724.8,205358.8,189683.0,256371.2,205005.8,190048.5,187131.4,197426.5,0.0
195709.7,205454.7,189785.4,256361.8,205242.4,190116.0,187265.4,197517.6,0.0
195454.6,205169.7,189429.5,256132.6,204948.3,189870.8,187012.2,197225.5,0.0
195316.4,204900.1,189055.9,255970.3,204535.5,189653.0,186723.2,196957.4,0.0
195472.5,205005.6,189109.5,256064.8,204562.5,189749.0,186782.2,197067.0,0.0
195719.0,205353.4,189469.6,256279.4,205005.1,190037.3,187114.9,197415.9,0.0
195708.3,205449.0,189568.5,256294.3,205238.0,190103.9,187251.2,197510.8,0.0
195456.1,205169.7,189215.2,256064.7,204942.4,189867.2,187003.5,197224.4,0.0
195314.5,204896.5,188839.8,255901.5,204525.7,189653.5,186719.5,196958.0,0.0
195473.3,205003.1,188897.3,255986.0,204559.2,189756.0,186785.0,197074.8,0.0
195719.8,205348.3,189261.1,256197.3,205006.7,190041.9,187118.8,197422.5,0.0
195708.4,205451.3,189372.3,256217.2,205247.9,190114.2,187261.0,197521.3,0.0
195468.3,205179.3,189033.4,256010.3,204962.0,189884.5,187023.6,197249.4,0.0
195318.7,204899.9,188648.8,255817.4,204534.0,189657.7,186721.7,196964.1,0.0
195477.5,205004.7,188708.1,255916.3,204565.0,189757.7,186784.9,197076.8,0.0
195719.9,205347.1,189071.6,256126.6,205006.0,190041.0,187116.3,197423.9,0.0
195709.7,205451.5,189180.3,256131.1,205245.3,190111.3,187252.8,197518.7,0.0
195462.8,205175.7,188833.2,255907.2,204952.8,189875.4,187005.5,197232.7,0.0
195320.0,204903.1,188458.8,255736.4,204537.8,189659.8,186715.5,196962.3,0.0
195480.1,205002.4,188515.6,255843.4,204565.9,189754.2,186774.0,197073.8,0.0
195727.3,205346.3,188878.6,256050.8,205006.5,190037.4,187105.4,197415.9,0.0
195716.9,205446.9,188983.2,256055.3,205244.9,190109.9,187241.5,197509.0,0.0
195466.4,205169.2,188636.0,255828.3,204954.8,189873.0,186996.6,197226.2,0.0
195338.2,204911.7,188278.6,255687.9,204550.0,189670.0,186723.9,196975.9,0.0
195481.3,205007.6,188325.3,255761.5,204567.3,189759.4,186776.6,197074.5,0.0
195723.5,205350.0,188689.3,255973.6,205010.9,190041.4,187111.8,197418.0,0.0
195708.4,205447.3,188795.5,255978.3,205250.0,190113.5,187251.2,197514.6,0.0
195461.7,205178.0,188455.7,255752.3,204964.0,189883.1,187013.8,197236.8,0.0
195320.4,204906.5,188081.1,255587.2,204546.0,189664.0,186721.9,196964.8,0.0
195477.5,205007.9,188138.3,255676.3,204575.1,189762.9,186780.3,197074.9,0.0
195731.3,205357.4,188508.2,255896.7,205019.0,190053.0,187115.8,197427.1,0.0
195724.2,205466.5,188621.4,255917.1,205256.8,190132.9,187258.0,197528.5,0.0
195463.6,205178.0,188270.4,255680.8,204957.4,189885.1,187008.4,197236.9,0.0
195324.8,204909.7,187903.4,255512.5,204545.7,189669.8,186725.2,196971.1,0.0
195486.9,205021.0,187969.2,255620.7,204581.5,189771.7,186793.4,197090.9,0.0
195737.3,205370.2,188335.5,255848.6,205028.1,190060.0,187128.7,197442.0,0.0
195727.4,205471.0,188443.4,255857.8,205262.7,190132.3,187265.3,197534.3,0.0
195466.3,205180.8,188084.8,255616.3,204957.4,189882.1,187006.6,197235.3,0.0
195321.1,204910.5,187715.2,255445.4,204544.5,189665.0,186721.0,196965.7,0.0
195487.1,205021.9,187784.7,255544.7,204582.3,189772.6,186791.1,197085.1,0.0
195728.3,205360.3,188149.0,255750.4,205021.1,190053.9,187120.2,197427.7,0.0
195710.5,205454.8,188255.3,255748.5,205257.2,190121.4,187255.2,197517.5,0.0
195466.4,205177.6,187912.3,255524.8,204963.8,189884.3,187008.7,197230.4,0.0
195327.5,204909.7,187548.2,255368.7,204550.8,189668.2,186722.8,196961.6,0.0
195490.8,205017.0,187615.7,255481.8,204588.0,189771.3,186790.8,197084.5,0.0
195729.9,205351.5,187975.3,255688.4,205024.4,190047.5,187120.0,197426.2,0.0
195718.8,205450.9,188081.8,255696.2,205256.2,190116.4,187254.9,197517.8,0.0
195473.6,205177.9,187739.5,255475.0,204963.1,189882.5,187010.7,197233.5,0.0
195330.9,204911.3,187373.4,255308.2,204550.8,189664.1,186722.2,196963.9,0.0
195489.3,205019.0,187437.9,255405.9,204581.7,189762.6,186786.3,197080.3,0.0
195730.6,205355.2,187801.9,255606.3,205017.6,190039.1,187112.8,197418.5,0.0
195715.8,205459.3,187910.6,255609.0,205252.1,190110.0,187248.0,197510.9,0.0
195464.0,205175.3,187568.9,255391.4,204961.1,189872.3,187005.7,197228.6,0.0
195335.7,204910.6,187211.2,255257.7,204554.3,189664.8,186729.4,196972.4,0.0
195487.5,205013.9,187272.4,255337.7,204585.0,189763.7,186791.7,197084.0,0.0
195726.0,205357.6,187633.9,255534.7,205018.6,190043.4,187115.7,197424.0,0.0
195711.8,205457.3,187747.4,255549.9,205255.5,190116.6,187254.1,197520.7,0.0
195466.0,205178.6,187410.7,255343.5,204967.6,189880.6,187011.2,197241.5,0.0
195334.0,204915.3,187047.6,255192.7,204552.1,189666.8,186724.3,196976.4,0.0
195484.3,205017.0,187105.8,255272.0,204575.7,189758.6,186782.6,197081.9,0.0
195729.5,205358.5,187472.8,255468.7,205013.3,190036.8,187111.2,197420.5,0.0
195720.7,205461.7,187587.6,255483.3,205250.1,190111.3,187249.4,197516.0,0.0
195467.0,205183.0,187246.5,255261.9,204958.4,189875.2,187003.7,197232.3,0.0
195323.9,204907.2,186878.5,255101.0,204539.8,189656.5,186713.9,196962.5,0.0
195488.3,205019.9,186947.9,255206.2,204570.9,189760.4,186778.6,197077.4,0.0
195730.9,205363.5,187321.5,255415.3,205018.1,190045.5,187114.0,197425.7,0.0
195711.3,205450.2,187424.8,255428.5,205244.6,190111.7,187243.6,197513.9,0.0
195471.1,205183.7,187088.4,255212.0,204955.8,189879.9,187004.0,197234.8,0.0
195333.2,204918.9,186730.4,255057.3,204547.3,189668.5,186723.2,196972.3,0.0
195482.3,205011.1,186786.9,255140.2,204568.5,189759.4,186774.0,197074.6,0.0
195723.3,205350.1,187153.4,255345.5,205007.2,190037.5,187100.7,197418.0,0.0
195716.9,205458.7,187273.0,255356.5,205247.0,190110.5,187241.3,197516.0,0.0
195471.7,205184.8,186939.5,255137.0,204962.9,189878.7,187003.0,197235.8,0.0
195333.8,204915.2,186577.1,254980.6,204553.9,189666.4,186720.3,196970.6,0.0
195497.1,205031.9,186651.7,255080.3,204595.9,189772.7,186791.0,197090.9,0.0
195734.1,205367.7,187022.9,255293.0,205040.3,190055.1,187124.7,197435.0,0.0
195715.1,205457.3,187131.1,255298.0,205271.5,190121.6,187259.6,197522.6,0.0
195467.7,205184.7,186789.5,255078.8,204976.9,189882.6,187011.3,197234.0,0.0
195325.5,204911.8,186419.5,254913.8,204554.2,189662.1,186714.2,196961.7,0.0
195481.1,205012.4,186484.3,255024.8,204581.9,189761.0,186775.6,197077.2,0.0
195721.6,205349.1,186852.2,255231.2,205016.7,190037.0,187102.7,197417.9,0.0
195711.3,205455.8,186966.4,255248.3,205247.9,190107.7,187234.8,197510.2,0.0
195460.1,205177.0,186628.7,255015.4,204955.2,189868.8,186990.1,197226.3,0.0
195317.9,204897.0,186262.5,254840.8,204534.2,189645.9,186697.4,196951.3,0.0
195474.7,204998.0,186330.0,254937.6,204563.6,189745.0,186758.3,197062.9,0.0
195728.2,205349.0,186707.4,255164.2,205005.4,190032.1,187092.5,197413.1,0.0
195713.2,205456.3,186824.2,255171.8,205237.6,190104.2,187227.8,197506.4,0.0
195462.5,205179.5,186490.0,254947.5,204948.6,189870.9,186984.8,197223.2,0.0
195331.7,204917.0,186136.8,254796.6,204544.7,189665.3,186705.7,196963.4,0.0
195491.3,205024.4,186209.2,254895.4,204576.6,189764.9,186771.8,197077.0,0.0
195728.8,205365.5,186576.3,255108.4,205010.6,190042.2,187101.2,197418.2,0.0
195721.2,205479.0,186697.8,255137.1,205253.7,190122.1,187248.1,197519.3,0.0
195469.0,205197.4,186360.0,254910.4,204961.9,189882.0,187003.1,197228.3,0.0
195319.8,204915.3,185993.9,254725.2,204540.8,189658.4,186711.2,196952.0,0.0
195487.8,205029.1,186075.5,254833.2,204582.4,189768.5,186785.9,197078.5,0.0
195738.0,205371.4,186452.8,255062.0,205029.2,190055.5,187120.1,197430.5,0.0
195717.8,205465.7,186564.3,255065.3,205257.5,190121.5,187249.2,197519.2,0.0
195460.6,205180.6,186225.0,254831.5,204961.1,189882.2,187001.0,197230.5,0.0
195325.6,204918.1,185870.0,254686.0,204551.3,189669.2,186719.2,196969.2,0.0
195484.6,205028.5,185939.5,254789.5,204584.6,189768.8,186782.7,197082.8,0.0
195724.5,205370.1,186305.2,255003.5,205020.0,190046.6,187109.9,197422.6,0.0
195699.3,205462.8,186413.2,254992.2,205250.6,190109.3,187243.5,197507.9,0.0
195442.9,205174.8,186071.6,254757.8,204949.0,189863.7,186992.9,197215.1,0.0
195303.7,204898.5,185714.6,254605.1,204535.1,189647.6,186704.7,196949.2,0.0
195470.1,205010.0,185791.0,254718.3,204570.0,189755.0,186771.9,197072.1,0.0
195712.2,205351.0,186162.8,254922.6,205008.3,190034.3,187101.2,197412.5,0.0
195706.2,205456.6,186286.1,254942.1,205248.8,190109.9,187243.5,197508.5,0.0
195459.2,205186.0,185955.4,254728.1,204960.5,189880.6,187001.0,197228.6,0.0
195319.0,204912.4,185595.6,254571.1,204546.2,189666.0,186711.8,196962.1,0.0
195472.8,205009.9,185663.1,254668.5,204575.1,189761.8,186770.3,197075.3,0.0
195714.7,205343.6,186030.5,254868.4,205009.1,190038.3,187092.4,197412.5,0.0
195715.1,205452.1,186156.7,254895.4,205249.6,190116.7,187233.2,197514.4,0.0
195463.7,205175.3,185823.1,254674.3,204960.0,189880.6,186988.7,197230.4,0.0
195320.7,204900.8,185462.5,254517.8,204546.8,189660.6,186699.5,196961.9,0.0
195484.7,205009.1,185535.8,254625.8,204578.5,189763.8,186765.9,197080.3,0.0
195728.9,205349.4,185909.6,254825.6,205015.0,190048.2,187097.4,197421.6,0.0
195721.5,205453.0,186035.2,254854.1,205255.5,190125.6,187241.1,197524.4,0.0
195460.1,205164.7,185691.2,254621.9,204951.6,189878.1,186987.1,197231.9,0.0
195314.6,204889.8,185329.5,254434.8,204531.0,189656.3,186693.3,196957.0,0.0
195479.2,205003.9,185410.0,254543.7,204567.6,189764.4,186759.0,197079.2,0.0
195726.3,205353.9,185791.4,254770.0,205014.9,190055.2,187095.3,197433.1,0.0
195718.9,205457.9,185913.0,254795.4,205252.9,190130.4,187233.9,197530.1,0.0
195462.3,205177.7,185573.0,254557.3,204955.3,189890.1,186982.4,197239.7,0.0
195317.2,204910.8,185214.0,254380.4,204542.6,189674.2,186692.2,196971.5,0.0
195480.5,205022.3,185295.4,254494.8,204580.3,189778.4,186761.2,197095.0,0.0
195725.9,205362.1,185672.6,254711.1,205022.3,190060.0,187092.3,197437.5,0.0
195709.7,205458.7,185786.0,254723.1,205252.4,190124.9,187222.5,197523.0,0.0
195453.8,205174.5,185446.4,254499.1,204947.8,189879.9,186966.5,197229.5,0.0
195327.7,204917.3,185104.5,254340.3,204547.4,189679.8,186693.0,196975.1,0.0
195478.6,205015.2,185173.0,254436.3,204574.7,189774.6,186752.2,197085.2,0.0
195728.1,205360.6,185549.3,254656.2,205015.8,190057.1,187084.2,197430.8,0.0
195721.2,205468.5,185669.3,254675.3,205252.3,190126.6,187220.3,197525.9,0.0
195472.5,205193.1,185337.4,254471.0,204959.3,189888.7,186973.8,197243.1,0.0
195323.1,204919.1,184974.8,254279.5,204538.1,189666.5,186680.3,196963.0,0.0
195477.7,205018.6,185045.1,254376.5,204565.3,189764.8,186741.0,197073.7,0.0
195719.8,205354.3,185414.5,254589.1,205000.5,190043.8,187068.3,197414.4,0.0
195707.8,205449.4,185532.7,254601.4,205232.4,190109.3,187202.9,197509.7,0.0
195459.6,205172.8,185204.8,254387.8,204941.9,189875.2,186961.3,197228.9,0.0
195317.2,204900.8,184845.0,254227.9,204522.4,189659.3,186673.1,196961.4,0.0
195476.8,205008.7,184918.8,254331.1,204553.0,189764.6,186736.1,197078.6,0.0
195720.7,205348.4,185294.5,254552.4,204992.7,190044.3,187067.9,197423.1,0.0
195709.1,205452.2,185415.9,254564.8,205228.2,190113.8,187204.1,197516.9,0.0
195463.0,205179.5,185088.5,254342.6,204940.9,189878.6,186961.9,197238.4,0.0
195319.8,204910.9,184733.9,254183.2,204529.0,189665.8,186676.0,196972.4,0.0
195487.6,205024.3,184819.5,254308.2,204569.5,189774.3,186750.6,197102.0,0.0
195731.7,205363.7,185199.1,254529.6,205008.8,190058.0,187085.1,197451.1,0.0
195714.1,205459.6,185314.6,254526.5,205239.5,190126.1,187220.3,197535.7,0.0
195462.5,205179.5,184979.6,254302.8,204943.0,189885.8,186971.4,197243.9,0.0
195313.0,204903.5,184615.0,254118.1,204518.9,189660.6,186673.7,196963.8,0.0
195476.1,205013.9,184693.4,254223.9,204552.7,189761.7,186743.1,197082.5,0.0
195723.7,205357.9,185074.4,254447.7,204997.2,190043.3,187077.0,197429.7,0.0
195712.4,205460.5,185197.5,254469.3,205233.1,190115.0,187211.9,197525.4,0.0
195462.5,205189.3,184867.0,254239.6,204941.4,189880.0,186969.1,197238.8,0.0
195330.4,204924.1,184522.9,254090.3,204535.0,189672.1,186689.9,196977.9,0.0
195495.8,205034.7,184599.6,254201.6,204566.8,189772.2,186747.8,197091.6,0.0
195733.8,205371.6,184970.6,254408.4,205001.5,190050.9,187069.8,197430.4,0.0
195712.7,205465.6,185088.8,254422.6,205233.6,190120.7,187203.3,197522.3,0.0
195464.6,205187.7,184762.7,254201.9,204944.7,189885.3,186962.6,197238.3,0.0
195322.3,204917.7,184406.3,254036.6,204525.0,189667.3,186670.8,196965.9,0.0
195478.0,205023.6,184482.0,254132.4,204557.5,189765.8,186734.6,197079.8,0.0
195719.8,205358.5,184854.0,254349.3,204992.6,190042.0,187061.8,197416.3,0.0
195711.9,205463.0,184981.4,254367.5,205235.0,190119.9,187204.4,197515.5,0.0
195461.5,205186.9,184649.6,254145.1,204941.6,189878.0,186956.2,197226.7,0.0
195317.4,204913.6,184298.0,253983.9,204529.6,189663.1,186673.5,196960.9,0.0
195472.9,205012.4,184369.2,254090.4,204555.4,189760.0,186733.3,197073.6,0.0
195721.4,205360.1,184750.9,254307.1,204999.1,190047.1,187067.0,197420.9,0.0
195703.8,205459.3,184871.8,254317.4,205232.8,190109.8,187199.4,197509.5,0.0
195446.2,205174.2,184539.9,254085.1,204935.6,189864.2,186953.1,197220.8,0.0
195313.7,204911.9,184194.6,253932.1,204527.5,189652.9,186675.9,196963.9,0.0
195468.3,205010.3,184265.9,254035.6,204552.9,189750.1,186734.6,197075.3,0.0
195712.4,205348.5,184642.9,254246.5,204992.2,190030.3,187063.4,197415.2,0.0
195708.0,205454.7,184769.5,254275.2,205231.4,190106.3,187205.2,197514.2,0.0
195458.0,205178.9,184438.2,254055.8,204937.5,189869.3,186957.7,197230.8,0.0
195315.2,204907.7,184086.1,253881.0,204525.3,189652.7,186671.6,196959.6,0.0
195476.4,205012.3,184169.7,253991.6,204560.6,189755.8,186740.3,197079.5,0.0
195719.2,205353.7,184548.0,254210.6,204998.7,190040.9,187074.2,197424.6,0.0
195710.7,205462.0,184676.6,254229.0,205240.3,190119.2,187218.7,197522.5,0.0
195454.7,205179.5,184341.6,254003.7,204942.8,189877.1,186968.3,197231.7,0.0
195318.8,204912.7,183995.2,253851.7,204532.2,189662.1,186685.1,196971.0,0.0
195476.4,205016.1,184076.3,253949.2,204565.0,189760.4,186749.2,197081.7,0.0
195720.5,205356.4,184451.8,254170.5,205002.5,190042.0,187078.5,197423.9,0.0
195707.7,205463.7,184572.5,254173.4,205236.9,190114.8,187213.8,197514.8,0.0
195460.5,205187.1,184250.4,253959.7,204954.0,189878.9,186973.7,197233.5,0.0
195314.8,204908.5,183892.4,253788.6,204537.1,189657.6,186679.7,196960.9,0.0
195480.1,205023.9,183976.2,253901.7,204571.7,189762.4,186748.7,197079.2,0.0
195723.6,205362.0,184354.4,254123.3,205011.0,190043.1,187079.5,197421.6,0.0
195712.5,205461.6,184475.5,254138.7,205243.5,190115.1,187213.9,197514.2,0.0
195461.3,205176.9,184138.7,253919.5,204941.2,189870.8,186961.2,197225.9,0.0
195320.5,204906.1,183784.0,253763.7,204524.9,189653.9,186673.6,196958.8,0.0
195472.1,205006.0,183857.3,253854.2,204555.3,189754.1,186735.5,197068.3,0.0
195721.5,205357.6,184243.2,254084.1,205000.4,190042.0,187074.0,197422.3,0.0
195710.1,205459.6,184369.6,254100.1,205238.0,190112.8,187213.5,197518.3,0.0
195460.6,205181.8,184038.0,253879.1,204944.2,189872.9,186965.6,197230.8,0.0
195315.8,204908.4,183686.2,253712.4,204527.3,189654.2,186678.3,196964.7,0.0
195477.3,205017.0,183771.3,253825.9,204562.2,189758.7,186748.6,197084.9,0.0
195718.9,205352.3,184151.3,254041.8,205003.1,190041.3,187081.9,197426.3,0.0
195711.3,205457.8,184280.1,254063.8,205238.6,190114.4,187222.3,197521.6,0.0
195459.2,205183.8,183950.0,253846.0,204943.1,189878.2,186977.5,197231.9,0.0
195315.7,204918.5,183599.8,253683.2,204530.5,189663.8,186694.8,196964.3,0.0
195469.9,205016.6,183676.0,253781.1,204559.5,189758.1,186757.8,197077.9,0.0
195713.9,205355.5,184055.0,253999.5,204996.0,190037.1,187088.4,197419.6,0.0
195707.1,205459.2,184183.3,254013.6,205232.8,190112.0,187229.7,197515.3,0.0
195462.7,205189.0,183863.2,253804.0,204946.4,189878.6,186989.0,197236.5,0.0
195325.5,204926.2,183515.1,253641.2,204534.0,189665.8,186704.4,196969.9,0.0
195479.3,205029.4,183593.9,253746.0,204562.0,189762.7,186765.5,197077.8,0.0
195711.7,205357.3,183967.1,253955.8,204995.5,190035.7,187088.2,197413.6,0.0
195702.3,205459.4,184095.3,253977.7,205236.0,190108.8,187228.8,197510.6,0.0
195452.3,205181.8,183766.5,253753.2,204942.6,189870.1,186980.5,197223.3,0.0
195305.2,204901.8,183407.5,253591.8,204518.2,189645.4,186684.3,196949.8,0.0
195466.3,205011.2,183490.8,253694.9,204551.8,189747.5,186753.2,197067.2,0.0
195712.2,205353.1,183870.7,253914.6,204992.6,190029.5,187085.1,197409.7,0.0
195701.6,205456.1,183992.8,253935.1,205226.9,190101.0,187221.4,197498.6,0.0
195456.0,205188.5,183674.6,253712.0,204942.3,189872.5,186988.1,197223.1,0.0
195317.7,204918.4,183326.3,253553.5,204530.5,189655.3,186705.9,196959.0,0.0
195465.8,205011.2,183393.3,253649.7,204548.4,189745.8,186759.4,197063.2,0.0
195708.9,205348.0,183772.6,253870.0,204986.3,190028.1,187087.2,197404.2,0.0
195695.9,205446.5,183896.3,253876.8,205220.9,190097.0,187220.1,197495.5,0.0
195451.4,205176.1,183573.7,253666.3,204933.2,189863.7,186979.1,197219.5,0.0
195309.5,204903.5,183221.0,253513.0,204514.5,189645.4,186689.5,196955.0,0.0
195459.6,204998.4,183289.8,253597.3,204529.6,189732.9,186739.7,197055.0,0.0
195710.3,205349.1,183678.5,253822.9,204975.1,190024.4,187078.4,197405.8,0.0
195699.3,205450.2,183805.9,253846.6,205214.0,190101.4,187219.0,197503.7,0.0
195453.8,205171.5,183480.8,253631.8,204921.1,189864.8,186976.5,197220.1,0.0
195317.1,204904.1,183136.7,253479.0,204511.0,189651.9,186697.5,196957.9,0.0
195476.6,205010.7,183215.3,253585.2,204539.9,189751.1,186761.9,197070.5,0.0
195719.8,205357.3,183598.5,253798.3,204982.1,190036.4,187095.1,197413.8,0.0
195704.5,205454.7,183724.0,253812.8,205217.3,190105.8,187229.7,197501.3,0.0
195465.2,205188.4,183407.4,253603.1,204934.1,189877.5,186993.2,197224.5,0.0
195326.3,204924.5,183058.7,253446.2,204524.0,189665.4,186706.7,196956.4,0.0
195476.1,205021.0,183131.4,253536.2,204548.5,189755.9,186764.4,197060.2,0.0
195721.5,205365.1,183515.3,253760.6,204988.0,190036.4,187093.3,197404.3,0.0
195709.3,205466.3,183640.3,253779.1,205224.7,190106.9,187226.4,197498.5,0.0
195457.9,205180.8,183313.9,253556.3,204931.5,189866.4,186979.4,197210.2,0.0
195321.4,204912.1,182968.1,253408.0,204516.1,189649.7,186694.0,196947.0,0.0
195480.8,205018.3,183049.5,253509.3,204544.8,189748.5,186758.5,197062.6,0.0
195718.7,205350.9,183427.0,253717.2,204977.9,190025.0,187086.6,197401.7,0.0
195704.5,205448.7,183554.0,253731.2,205213.8,190099.5,187223.9,197496.9,0.0
195465.9,205189.4,183241.7,253531.4,204934.2,189875.5,186990.0,197225.7,0.0
195320.4,204915.3,182889.0,253367.9,204518.9,189656.7,186701.1,196956.3,0.0
195475.0,205019.2,182969.0,253461.0,204551.2,189750.9,186760.5,197063.6,0.0
195711.0,205353.1,183345.2,253670.8,204983.3,190025.4,187082.9,197400.3,0.0
195700.3,205461.4,183473.5,253687.3,205221.5,190101.3,187218.1,197493.5,0.0
195454.5,205181.3,183153.7,253477.5,204937.8,189866.4,186979.0,197214.9,0.0
195315.0,204908.4,182804.0,253329.9,204521.0,189647.9,186689.7,196948.5,0.0
195466.1,205004.8,182878.4,253417.7,204543.7,189740.0,186745.7,197052.9,0.0
195714.3,205347.6,183266.1,253643.4,204983.0,190023.6,187081.0,197399.1,0.0
195706.5,205451.0,183398.7,253657.3,205221.8,190101.9,187223.5,197497.0,0.0
195450.1,205175.3,183074.2,253432.0,204930.0,189862.2,186977.6,197211.1,0.0
195303.2,204900.6,182721.4,253270.1,204512.8,189642.8,186688.3,196939.2,0.0
195469.0,205016.6,182812.3,253386.9,204551.5,189755.4,186763.4,197063.1,0.0
195711.5,205357.4,183197.3,253607.7,204992.2,190042.4,187095.1,197407.3,0.0
195699.2,205462.0,183330.2,253629.2,205233.5,190117.1,187232.8,197504.6,0.0
195448.8,205179.3,183003.4,253411.7,204941.4,189875.9,186985.7,197219.8,0.0
195313.9,204913.3,182652.8,253254.1,204520.6,189656.8,186693.8,196949.4,0.0
195467.3,205012.3,182727.7,253359.0,204541.1,189749.4,186748.4,197061.0,0.0
195711.3,205351.8,183109.0,253585.7,204978.5,190032.8,187080.4,197406.5,0.0
195704.1,205454.3,183242.8,253602.6,205217.5,190108.2,187223.5,197504.6,0.0
195446.2,205167.9,182911.7,253372.1,204915.7,189861.4,186968.5,197213.6,0.0
195304.5,204898.8,182562.9,253217.2,204501.8,189644.4,186679.7,196949.4,0.0
195461.2,205004.0,182641.1,253313.8,204527.7,189739.9,186742.9,197058.5,0.0
195706.0,205345.3,183025.8,253533.6,204967.2,190024.8,187079.1,197401.6,0.0
195706.3,205457.0,183165.3,253570.5,205214.9,190110.1,187229.8,197508.5,0.0
195455.6,205183.7,182843.1,253352.0,204925.6,189877.0,186988.4,197228.8,0.0
195306.1,204908.5,182489.1,253172.8,204507.3,189650.9,186695.4,196949.5,0.0
195469.0,205019.1,182577.5,253288.2,204543.4,189754.3,186765.1,197070.5,0.0
195709.1,205355.7,182959.6,253508.8,204982.3,190032.6,187094.7,197411.9,0.0
195695.9,205451.1,183087.1,253524.9,205217.3,190104.6,187231.9,197504.1,0.0
195442.2,205170.5,182759.3,253312.6,204925.6,189870.0,186985.7,197219.2,0.0
195295.2,204898.3,182404.4,253128.3,204504.7,189646.8,186691.2,196941.8,0.0
195458.8,205007.4,182490.9,253243.2,204535.4,189748.3,186756.2,197058.5,0.0
195699.5,205346.9,182874.0,253448.9,204976.8,190029.3,187084.2,197399.9,0.0
195693.3,205452.7,183012.0,253474.6,205222.4,190103.5,187226.0,197501.0,0.0
195453.4,205185.8,182698.8,253268.4,204939.5,189871.6,186986.1,197221.4,0.0
195318.5,204917.9,182353.9,253124.0,204525.5,189659.8,186699.6,196955.2,0.0
195467.3,205011.2,182423.8,253224.4,204543.3,189751.4,186752.5,197059.6,0.0
195715.3,205360.5,182812.7,253443.6,204992.0,190041.2,187088.7,197406.7,0.0
195705.9,205463.0,182946.0,253469.8,205232.0,190112.0,187227.5,197502.5,0.0
195451.6,205180.6,182619.6,253255.1,204933.7,189866.4,186980.2,197216.3,0.0
195299.6,204898.7,182258.5,253076.2,204502.2,189637.6,186681.9,196934.8,0.0
195454.5,204997.7,182338.9,253178.5,204524.6,189732.3,186741.5,197046.1,0.0
195697.3,205339.8,182728.2,253400.2,204968.0,190017.4,187074.5,197393.2,0.0
195690.7,205447.3,182867.9,253425.8,205211.5,190095.9,187214.5,197496.3,0.0
195446.8,205179.3,182554.7,253207.5,204926.5,189863.9,186972.7,197216.3,0.0
195302.9,204908.8,182205.6,253041.8,204511.0,189648.0,186682.9,196947.1,0.0
195456.3,205010.9,182283.0,253146.0,204537.6,189746.7,186739.7,197056.1,0.0
195697.7,205343.2,182665.3,253363.8,204977.8,190025.1,187068.5,197396.0,0.0
195697.9,205455.1,182803.9,253393.5,205222.1,190105.1,187216.7,197499.0,0.0
195442.1,205174.1,182480.9,253170.1,204929.1,189866.3,186972.7,197213.5,0.0
195296.8,204898.8,182124.3,253005.6,204507.2,189643.5,186677.9,196937.4,0.0
195451.4,204996.9,182201.1,253107.3,204532.6,189743.3,186738.0,197048.5,0.0
195701.2,205338.4,182592.0,253344.4,204976.2,190032.4,187076.2,197401.2,0.0
195699.0,205456.3,182735.6,253362.9,205228.5,190116.2,187226.1,197508.7,0.0
195443.5,205180.4,182412.9,253142.8,204938.6,189875.2,186978.5,197222.6,0.0
195297.8,204903.3,182061.3,252989.3,204519.3,189656.1,186686.2,196952.5,0.0
195446.3,204999.5,182131.4,253084.0,204537.1,189745.8,186736.3,197058.0,0.0
195682.8,205338.3,182507.5,253280.3,204965.9,190022.8,187058.1,197393.0,0.0
195678.9,205445.2,182647.7,253309.9,205209.1,190103.8,187205.2,197497.6,0.0
195441.3,205177.3,182339.9,253108.3,204929.8,189875.0,186972.8,197226.2,0.0
195291.6,204897.6,181985.4,252939.8,204506.8,189650.8,186679.9,196947.8,0.0
195448.9,205000.1,182064.1,253042.0,204532.2,189751.0,186738.5,197056.5,0.0
195701.2,205345.4,182455.5,253272.7,204978.8,190038.9,187073.7,197407.5,0.0
195700.3,205454.2,182593.3,253306.3,205221.0,190117.2,187216.8,197511.0,0.0
195434.4,205166.8,182261.3,253062.7,204920.3,189872.1,186963.0,197217.8,0.0
195296.6,204897.5,181911.6,252904.9,204505.4,189656.4,186674.5,196948.0,0.0
195461.2,205008.3,181994.3,253025.2,204537.1,189758.5,186738.8,197067.4,0.0
195699.3,205342.2,182372.5,253232.2,204971.2,190033.3,187066.1,197404.6,0.0
195690.5,205449.6,182509.1,253243.8,205217.0,190111.7,187210.5,197501.9,0.0
195449.5,205179.0,182195.4,253045.7,204935.5,189883.7,186976.5,197228.1,0.0
195310.4,204906.1,181846.4,252887.3,204519.4,189669.3,186689.2,196962.0,0.0
195463.9,204999.8,181919.0,252993.9,204535.7,189759.5,186741.6,197070.4,0.0
195700.3,205337.9,182303.7,253201.8,204970.8,190038.9,187067.7,197409.7,0.0
195694.5,205446.3,182442.3,253224.0,205214.3,190116.3,187208.3,197509.0,0.0
195447.4,205173.9,182124.9,253015.1,204928.7,189880.8,186965.5,197228.6,0.0
195306.3,204903.7,181776.7,252857.5,204511.4,189660.2,186678.7,196960.9,0.0
195453.1,204993.9,181845.3,252949.2,204523.3,189746.1,186729.3,197061.9,0.0
195699.2,205334.7,182230.0,253164.7,204962.7,190027.8,187056.8,197404.0,0.0
195697.2,205449.6,182370.9,253191.2,205207.6,190109.0,187198.9,197505.2,0.0
195452.0,205179.7,182059.4,252977.1,204925.8,189878.9,186960.7,197227.3,0.0
195306.5,204903.3,181707.5,252824.0,204507.3,189657.1,186672.6,196958.0,0.0
195466.5,205009.6,181786.9,252941.4,204535.5,189756.6,186739.1,197075.3,0.0
195709.4,205349.7,182171.0,253150.1,204975.3,190040.3,187068.4,197417.5,0.0
195701.9,205456.6,182310.5,253168.4,205220.9,190118.8,187211.0,197516.9,0.0
195451.8,205183.6,181991.3,252953.5,204931.3,189884.4,186969.0,197234.4,0.0
195304.5,204910.9,181634.4,252788.4,204509.3,189661.2,186673.7,196957.1,0.0
195460.4,205005.8,181713.3,252892.3,204536.7,189754.6,186731.2,197066.7,0.0
195712.3,205349.6,182104.4,253124.0,204978.4,190041.2,187062.6,197417.8,0.0
195704.3,205456.5,182243.3,253141.8,205220.1,190119.6,187205.4,197516.5,0.0
195449.5,205177.2,181916.8,252910.9,204922.4,189877.4,186955.9,197224.7,0.0
195308.1,204903.5,181566.6,252755.6,204500.0,189655.1,186663.8,196954.7,0.0
195462.2,205002.6,181645.6,252863.6,204524.1,189749.1,186720.6,197067.1,0.0
195708.4,205345.0,182032.9,253080.7,204964.2,190034.5,187051.4,197412.3,0.0
195705.8,205460.1,182175.0,253110.6,205208.5,190111.0,187199.5,197515.8,0.0
195455.6,205186.8,181856.9,252892.8,204921.3,189875.0,186958.4,197232.5,0.0
195316.3,204917.7,181513.5,252741.7,204511.6,189663.3,186674.3,196968.3,0.0
195473.7,205017.3,181592.6,252853.7,204537.3,189759.3,186731.1,197078.6,0.0
195712.0,205355.2,181974.9,253060.0,204973.8,190038.8,187060.1,197418.0,0.0
195698.1,205456.6,182106.7,253075.1,205212.5,190111.5,187197.5,197512.6,0.0
195451.9,205183.0,181792.8,252859.0,204928.8,189877.6,186953.4,197230.3,0.0
195312.3,204915.3,181451.6,252701.1,204517.8,189662.5,186669.2,196963.4,0.0
195466.1,205017.5,181529.8,252799.4,204540.2,189758.3,186727.2,197071.4,0.0
195709.0,205350.3,181909.4,253022.6,204973.0,190037.8,187049.8,197412.2,0.0
195698.1,205450.9,182041.5,253036.7,205210.3,190105.9,187185.7,197506.1,0.0
195454.0,205183.7,181731.2,252831.7,204927.9,189876.2,186949.4,197228.8,0.0
195315.9,204920.3,181391.4,252678.2,204516.4,189664.4,186666.8,196963.6,0.0
195463.9,205016.9,181464.7,252770.7,204538.1,189756.0,186721.8,197066.5,0.0
195713.1,205362.1,181853.4,252995.5,204979.0,190042.0,187053.8,197412.4,0.0
195706.0,205472.4,181989.8,253018.2,205220.2,190118.5,187193.7,197511.5,0.0
195459.4,205202.1,181678.2,252811.8,204935.4,189887.7,186955.6,197234.3,0.0
195308.0,204916.7,181324.4,252649.1,204510.8,189663.0,186661.8,196959.9,0.0
195459.7,205012.4,181397.7,252744.2,204525.5,189755.1,186719.2,197062.4,0.0
195703.3,205354.3,181787.5,252960.3,204963.5,190036.6,187051.4,197405.1,0.0
195697.0,205463.6,181923.9,252983.1,205202.3,190107.4,187189.0,197500.4,0.0
195449.2,205190.3,181608.6,252776.7,204917.1,189876.6,186950.2,197222.9,0.0
195302.8,204913.3,181261.4,252611.3,204499.4,189661.0,186661.0,196955.4,0.0
195457.0,205021.0,181345.0,252706.5,204525.6,189756.7,186719.3,197064.1,0.0
195699.6,205353.0,181726.5,252926.9,204957.7,190033.0,187043.2,197404.4,0.0
195698.8,205461.9,181867.0,252963.7,205198.5,190114.4,187188.4,197509.5,0.0
195455.1,205198.5,181560.0,252751.5,204921.3,189887.7,186956.2,197234.8,0.0
195309.4,204922.1,181212.2,252576.4,204506.3,189659.6,186665.1,196959.6,0.0
195454.5,205005.8,181283.6,252669.7,204520.8,189743.6,186712.5,197059.7,0.0
195700.8,205348.7,181671.0,252892.8,204957.8,190025.2,187037.1,197398.6,0.0
195701.0,205463.3,181815.9,252933.6,205205.7,190108.8,187185.4,197507.1,0.0
195452.9,205192.7,181505.3,252732.2,204923.1,189878.3,186947.7,197234.1,0.0
195303.8,204915.8,181155.6,252550.9,204504.5,189654.8,186657.0,196955.7,0.0
195456.2,205011.8,181229.1,252649.9,204523.6,189747.9,186711.1,197059.4,0.0
195704.4,205352.6,181616.2,252880.9,204961.8,190033.9,187043.5,197406.6,0.0
195695.4,205458.3,181753.5,252890.6,205201.6,190108.8,187185.0,197503.5,0.0
195446.7,205186.3,181443.1,252681.6,204921.2,189878.8,186949.8,197228.8,0.0
195306.5,204919.1,181101.4,252532.4,204511.1,189666.3,186669.4,196965.9,0.0
195455.1,205014.6,181171.3,252621.3,204528.0,189755.8,186720.8,197066.1,0.0
195705.5,205359.0,181561.7,252848.6,204970.4,190040.0,187050.9,197409.5,0.0
195688.6,205452.6,181692.2,252867.2,205207.3,190108.8,187184.4,197499.8,0.0
195436.2,205175.2,181373.3,252644.7,204916.7,189871.7,186938.6,197215.5,0.0
195293.6,204906.6,181025.1,252488.5,204497.3,189650.1,186646.3,196942.2,0.0
195448.8,205004.8,181102.6,252591.4,204516.8,189743.8,186702.3,197049.0,0.0
195693.0,205351.8,181490.9,252810.8,204952.6,190026.9,187034.6,197393.3,0.0
195687.8,205464.8,181637.3,252835.9,205199.7,190107.0,187184.2,197499.1,0.0
195446.8,205191.0,181328.5,252632.5,204919.1,189878.0,186949.2,197224.8,0.0
195298.0,204907.9,180974.2,252475.8,204497.2,189657.1,186656.6,196951.0,0.0
195449.8,205008.8,181050.6,252570.4,204517.1,189750.6,186711.0,197056.2,0.0
195689.5,205346.9,181435.7,252780.4,204958.0,190032.5,187039.1,197394.6,0.0
195686.5,205456.6,181579.6,252817.4,205207.0,190113.6,187187.9,197502.4,0.0
195443.3,205183.1,181268.5,252606.4,204920.4,189882.1,186949.2,197227.9,0.0
195297.0,204906.0,180925.0,252440.4,204501.0,189661.4,186662.6,196958.8,0.0
195450.9,204998.9,181002.6,252547.1,204517.7,189750.9,186719.2,197066.4,0.0
195694.9,205340.2,181386.9,252770.8,204951.6,190032.3,187046.7,197407.2,0.0
195689.0,205453.2,181530.1,252795.0,205198.7,190111.8,187195.8,197510.7,0.0
195451.1,205187.3,181227.0,252594.8,204917.8,189879.3,186962.4,197237.0,0.0
195304.8,204914.4,180884.4,252427.1,204503.9,189660.5,186674.6,196966.3,0.0
195449.0,205003.7,180953.1,252518.5,204517.5,189749.4,186722.4,197063.4,0.0
195697.2,205349.0,181341.6,252756.7,204954.4,190034.1,187054.0,197412.4,0.0
195696.1,205457.6,181483.3,252786.7,205198.0,190109.7,187197.6,197515.3,0.0
195440.0,205176.0,181162.1,252556.8,204909.8,189869.7,186949.9,197226.4,0.0
195299.5,204908.4,180823.3,252397.2,204502.9,189656.8,186669.1,196965.1,0.0
195450.3,205000.6,180895.7,252495.0,204517.8,189747.0,186720.1,197070.5,0.0
195694.0,205335.0,181279.0,252719.4,204949.3,190027.0,187044.0,197412.9,0.0
195687.9,205443.9,181421.7,252744.9,205197.2,190105.9,187188.1,197511.7,0.0
195444.6,205175.9,181111.7,252539.8,204917.4,189876.6,186956.2,197234.2,0.0
195304.5,204906.9,180767.3,252376.6,204504.3,189660.1,186673.6,196964.6,0.0
195457.3,205005.9,180844.9,252481.3,204526.4,189752.9,186728.6,197067.9,0.0
195695.5,205342.2,181225.4,252691.8,204956.7,190025.9,187048.2,197403.0,0.0
195684.9,205445.4,181360.5,252702.6,205192.4,190093.3,187185.6,197494.9,0.0
195443.6,205177.8,181053.3,252506.2,204912.4,189864.6,186953.7,197224.4,0.0
195300.5,204908.4,180706.6,252342.5,204493.9,189649.0,186664.6,196953.6,0.0
195446.0,204997.3,180777.4,252433.9,204506.9,189735.8,186713.6,197051.6,0.0
195688.1,205335.5,181159.6,252651.1,204943.0,190017.5,187041.7,197393.3,0.0
195676.7,205442.3,181298.0,252674.5,205185.3,190093.3,187184.7,197495.4,0.0
195431.1,205174.9,180991.0,252466.5,204901.4,189863.8,186949.2,197222.6,0.0
195290.3,204903.0,180650.0,252312.0,204487.9,189648.8,186663.4,196957.5,0.0
195446.7,205003.6,180729.8,252423.6,204510.1,189743.8,186719.4,197065.5,0.0
195690.9,205347.5,181116.1,252633.4,204947.3,190025.6,187046.1,197404.9,0.0
195684.3,205450.5,181257.1,252653.9,205193.1,190104.4,187189.3,197502.0,0.0
195434.2,205178.2,180938.6,252438.6,204904.4,189869.2,186946.5,197216.0,0.0
195300.0,204914.5,180599.4,252296.8,204495.1,189657.5,186665.0,196954.0,0.0
195458.1,205014.3,180683.1,252404.0,204522.3,189752.6,186728.0,197069.1,0.0
195696.5,205350.0,181067.3,252616.8,204953.1,190028.6,187051.9,197404.0,0.0
195681.7,205455.3,181202.3,252618.9,205191.3,190097.0,187189.0,197491.6,0.0
195428.7,205177.5,180885.7,252403.8,204903.6,189856.5,186946.1,197210.8,0.0
195281.0,204896.9,180533.9,252245.5,204479.6,189631.5,186647.9,196937.8,0.0
195438.4,204987.7,180614.5,252361.0,204501.9,189729.0,186702.7,197047.0,0.0
195686.1,205328.9,181008.1,252591.2,204943.5,190015.0,187034.1,197393.7,0.0
195680.8,205443.6,181152.6,252605.3,205189.5,190089.4,187176.7,197493.0,0.0
195428.5,205173.3,180839.7,252384.2,204906.8,189852.9,186938.1,197212.2,0.0
195287.1,204899.3,180494.3,252239.0,204489.8,189635.3,186652.2,196943.0,0.0
195448.0,205003.7,180579.0,252350.4,204516.0,189735.2,186714.2,197054.9,0.0
195696.0,205354.4,180977.5,252574.4,204960.5,190023.5,187052.1,197401.3,0.0
195684.9,205456.9,181117.5,252602.9,205202.8,190099.1,187192.4,197499.4,0.0
195430.5,205180.3,180799.6,252371.7,204912.1,189858.8,186946.3,197213.8,0.0
195283.5,204904.8,180450.9,252209.6,204489.9,189638.3,186657.9,196942.8,0.0
195428.2,204987.8,180518.8,252305.5,204499.5,189723.4,186705.6,197040.8,0.0
195675.0,205327.9,180905.8,252525.7,204934.8,190004.2,187034.3,197382.5,0.0
195675.0,205438.6,181049.7,252548.3,205180.6,190082.8,187179.2,197484.4,0.0
195430.8,205163.8,180737.7,252339.6,204899.5,189852.1,186941.0,197204.9,0.0
195292.5,204897.6,180395.3,252186.7,204489.1,189642.8,186660.1,196936.8,0.0
195445.5,204993.1,180470.0,252289.4,204504.9,189732.9,186715.0,197041.1,0.0
195691.0,205336.8,180862.7,252514.3,204944.3,190016.7,187046.7,197387.3,0.0
195687.8,205452.7,181009.4,252548.3,205192.3,190096.1,187191.5,197493.1,0.0
195435.1,205179.5,180694.1,252328.7,204903.5,189856.5,186944.5,197209.5,0.0
195286.8,204906.8,180347.7,252167.3,204484.8,189637.2,186653.7,196939.7,0.0
195431.2,204998.0,180419.8,252268.1,204494.2,189725.7,186702.2,197042.2,0.0
195678.3,205332.3,180810.7,252491.5,204934.6,190011.9,187034.8,197388.1,0.0
195687.0,205444.7,180961.8,252531.6,205188.6,190098.9,187189.0,197499.9,0.0
195446.7,205181.9,180655.1,252330.7,204907.4,189870.6,186953.7,197226.5,0.0
195305.3,204909.7,180308.3,252176.8,204488.3,189651.3,186665.1,196954.6,0.0
195444.8,204994.2,180369.9,252255.2,204493.6,189732.9,186708.1,197044.4,0.0
195686.8,205333.7,180754.6,252471.7,204927.4,190014.3,187035.7,197383.4,0.0
195679.5,205439.0,180898.8,252499.2,205173.8,190091.9,187179.3,197486.3,0.0
195435.5,205170.9,180589.2,252290.8,204891.4,189859.9,186942.3,197211.5,0.0
195290.2,204899.3,180246.1,252132.3,204476.5,189640.9,186660.0,196943.7,0.0
195443.8,205001.5,180323.9,252238.0,204497.5,189733.0,186718.1,197046.3,0.0
195687.8,205338.6,180715.5,252444.9,204937.1,190014.7,187049.9,197384.8,0.0
195690.7,205450.5,180871.1,252486.3,205188.4,190099.0,187200.3,197495.8,0.0
195433.0,205167.9,180552.2,252264.3,204894.9,189857.1,186951.4,197209.8,0.0
195284.5,204891.0,180202.8,252098.8,204473.7,189638.8,186659.5,196938.5,0.0
195435.3,204982.8,180276.9,252202.9,204490.6,189731.2,186710.8,197042.5,0.0
195685.2,205327.4,180668.1,252432.7,204930.5,190016.9,187043.1,197391.3,0.0
195686.1,205443.7,180817.7,252465.5,205180.3,190097.2,187191.8,197496.8,0.0
195437.2,205177.0,180510.8,252247.1,204902.4,189867.8,186958.0,197219.7,0.0
195289.5,204897.8,180162.1,252092.2,204484.3,189646.8,186669.0,196945.5,0.0
195431.2,204980.8,180227.1,252179.6,204491.0,189727.3,186710.9,197039.4,0.0
195683.8,205331.3,180621.4,252400.7,204935.9,190016.1,187046.3,197389.3,0.0
195681.0,205442.8,180768.5,252427.1,205183.8,190095.2,187195.0,197493.2,0.0
195435.7,205175.5,180459.8,252217.0,204902.2,189864.7,186958.4,197214.0,0.0
195284.2,204894.1,180109.3,252053.6,204479.2,189639.7,186666.0,196939.1,0.0
195435.7,204986.5,180183.5,252157.7,204494.0,189729.8,186720.0,197045.7,0.0
195685.2,205330.3,180576.9,252390.0,204937.6,190020.7,187056.0,197396.6,0.0
195681.4,205444.9,180729.7,252420.9,205194.2,190106.9,187209.7,197506.9,0.0
195421.3,205160.8,180412.5,252196.6,204905.4,189864.7,186964.3,197218.8,0.0
195271.6,204879.5,180058.8,252025.1,204478.3,189637.8,186664.3,196935.7,0.0
195433.2,204982.3,180139.8,252131.6,204498.5,189736.0,186721.7,197044.3,0.0
195687.7,205338.9,180539.8,252362.2,204944.0,190031.3,187060.3,197394.9,0.0
195684.2,205447.7,180692.2,252396.5,205194.7,190112.3,187210.3,197503.0,0.0
195437.2,205175.5,180383.8,252182.0,204914.8,189877.9,186974.0,197226.3,0.0
195284.8,204893.1,180030.3,252010.5,204491.8,189655.3,186680.6,196950.1,0.0
195439.7,204987.2,180103.9,252117.1,204506.7,189750.0,186733.0,197054.2,0.0
195681.0,205327.0,180490.4,252334.2,204939.5,190030.2,187056.5,197392.6,0.0
195673.8,205435.1,180633.3,252356.4,205182.9,190107.1,187198.9,197493.0,0.0
195436.4,205174.4,180329.4,252161.8,204906.2,189883.7,186964.7,197222.2,0.0
195286.9,204896.9,179977.4,251994.4,204485.6,189659.6,186669.3,196947.2,0.0
195437.2,204990.4,180054.8,252083.6,204504.3,189750.5,186724.4,197053.8,0.0
195690.9,205335.7,180449.1,252316.0,204944.9,190036.6,187053.8,197401.8,0.0
195687.2,205446.9,180591.5,252358.4,205188.3,190114.8,187192.0,197501.3,0.0
195439.8,205180.2,180282.6,252135.6,204908.7,189884.0,186953.0,197224.7,0.0
195290.7,204902.8,179933.3,251968.6,204489.5,189660.9,186658.0,196951.6,0.0
195439.0,204994.2,180009.0,252064.5,204506.0,189750.9,186712.4,197057.4,0.0
195684.1,205330.6,180395.5,252284.2,204936.0,190025.9,187036.1,197394.8,0.0
195681.3,205443.3,180545.2,252315.5,205185.0,190105.7,187183.0,197502.6,0.0
195435.4,205178.2,180237.1,252103.9,204903.9,189874.4,186946.2,197225.2,0.0
195283.3,204892.8,179882.4,251945.1,204479.7,189647.5,186653.3,196949.5,0.0
195436.8,204989.6,179960.4,252053.6,204499.2,189739.6,186710.8,197059.1,0.0
195683.6,205334.7,180350.2,252272.9,204937.8,190026.4,187040.7,197405.6,0.0
195677.9,205443.2,180494.6,252289.3,205186.0,190110.4,187185.0,197508.8,0.0
195434.0,205174.5,180188.9,252088.5,204905.5,189882.1,186946.7,197233.0,0.0
195287.3,204904.4,179846.9,251929.0,204491.6,189665.6,186662.4,196963.5,0.0
195436.4,204997.8,179922.3,252026.3,204505.8,189751.5,186713.9,197066.4,0.0
195681.6,205338.3,180310.3,252247.4,204941.3,190031.8,187040.8,197407.7,0.0
195675.3,205448.6,180454.4,252267.2,205186.7,190108.7,187180.9,197506.2,0.0
195429.1,205184.1,180148.4,252057.3,204908.1,189877.5,186944.9,197230.5,0.0
195285.1,204908.5,179803.0,251899.0,204493.6,189654.9,186660.0,196961.4,0.0
195436.6,205004.0,179882.6,252001.3,204513.1,189747.0,186717.5,197068.3,0.0
195684.3,205342.5,180276.2,252233.2,204952.5,190030.3,187049.6,197415.4,0.0
195674.3,205444.5,180414.0,252246.5,205193.1,190102.9,187185.9,197506.2,0.0
195428.7,205172.6,180103.9,252047.1,204910.3,189869.4,186945.9,197226.8,0.0
195271.2,204887.5,179745.1,251872.8,204481.3,189638.4,186647.3,196945.6,0.0
195424.8,204985.0,179819.0,251961.5,204495.0,189729.4,186701.7,197047.5,0.0
195686.4,205342.2,180223.9,252210.9,204944.6,190029.1,187043.5,197406.9,0.0
195687.8,205457.0,180379.3,252240.2,205196.4,190116.3,187193.9,197515.0,0.0
195432.4,205181.7,180065.2,252020.4,204909.1,189878.6,186948.0,197230.3,0.0
195272.4,204895.2,179707.7,251846.3,204482.6,189648.7,186651.1,196948.7,0.0
195427.7,204990.0,179787.3,251955.2,204498.5,189738.9,186707.2,197056.2,0.0
195676.5,205331.5,180180.3,252181.4,204934.8,190022.7,187036.8,197401.8,0.0
195675.6,205446.5,180330.6,252207.7,205185.7,190106.6,187185.4,197504.6,0.0
195428.3,205171.7,180021.9,251994.3,204905.9,189869.5,186945.9,197223.1,0.0
195289.3,204900.1,179677.9,251848.7,204491.3,189651.3,186658.9,196955.9,0.0
195450.8,205008.6,179763.8,251978.2,204517.0,189752.3,186719.1,197071.7,0.0
195692.9,205347.4,180151.0,252186.8,204953.1,190030.3,187047.3,197409.0,0.0
195682.7,205449.6,180290.4,252182.5,205194.3,190100.9,187183.4,197500.7,0.0
195439.8,205184.5,179984.8,251987.4,204914.2,189868.6,186940.7,197224.0,0.0
195287.8,204907.8,179633.0,251822.2,204491.4,189644.0,186642.7,196947.2,0.0
195438.8,205001.3,179706.5,251921.9,204506.7,189736.1,186695.4,197052.9,0.0
195679.1,205337.8,180090.4,252135.6,204939.2,190015.1,187022.8,197391.0,0.0
195679.2,205455.1,180244.6,252168.2,205194.0,190101.9,187176.6,197499.0,0.0
195435.2,205188.5,179944.9,251970.5,204920.7,189874.9,186945.9,197226.3,0.0
195284.2,204906.2,179590.5,251805.0,204497.1,189646.1,186647.6,196944.9,0.0
195440.9,205006.2,179668.6,251909.0,204514.0,189739.8,186698.6,197050.0,0.0
195690.5,205353.9,180068.6,252136.1,204953.7,190027.9,187034.9,197400.2,0.0
195680.4,205464.8,180220.4,252156.8,205202.0,190105.4,187184.2,197501.6,0.0
195430.0,205190.6,179910.5,251942.3,204920.4,189871.9,186946.8,197222.1,0.0
195280.7,204907.9,179557.9,251786.6,204498.9,189649.3,186654.9,196948.2,0.0
195431.2,205001.4,179631.4,251886.5,204512.5,189736.9,186703.5,197050.8,0.0
195675.9,205342.5,180015.6,252098.5,204944.0,190014.5,187023.2,197389.1,0.0
195673.4,205455.3,180162.5,252128.7,205191.8,190097.7,187169.0,197495.1,0.0
195434.4,205192.5,179862.2,251923.0,204920.0,189874.4,186939.6,197224.2,0.0
195286.0,204911.2,179514.9,251766.0,204500.2,189652.1,186651.6,196950.5,0.0
195437.1,205005.7,179593.2,251871.6,204517.4,189743.7,186706.5,197056.8,0.0
195685.6,205353.6,179984.4,252089.0,204951.4,190025.1,187032.3,197394.0,0.0
195679.8,205469.1,180132.0,252109.0,205200.0,190107.5,187176.8,197492.9,0.0
195432.3,205193.2,179825.9,251902.5,204919.5,189875.2,186943.2,197215.6,0.0
195282.3,204907.9,179473.3,251744.8,204492.9,189648.2,186648.1,196940.0,0.0
195443.5,205009.7,179556.1,251860.9,204515.7,189747.4,186704.9,197053.3,0.0
195693.8,205351.1,179948.1,252104.1,204952.5,190033.1,187035.9,197401.6,0.0
195678.2,205459.6,180088.1,252086.3,205195.7,190105.3,187177.8,197492.8,0.0
195437.6,205192.3,179789.6,251883.4,204925.7,189879.2,186949.9,197222.9,0.0
195285.6,204904.1,179434.5,251713.6,204498.3,189648.2,186653.9,196943.3,0.0
195440.9,204999.2,179512.8,251818.7,204517.5,189742.5,186709.3,197051.5,0.0
195694.4,205349.0,179911.4,252046.2,204963.3,190032.5,187045.1,197398.8,0.0
195692.0,205463.6,180063.5,252077.5,205213.9,190116.2,187193.2,197506.7,0.0
195443.2,205192.8,179757.1,251870.5,204930.3,189884.2,186956.6,197228.6,0.0
195286.8,204908.2,179402.2,251704.2,204499.5,189656.7,186658.4,196946.1,0.0
195442.6,205006.9,179482.6,251815.7,204518.2,189753.9,186715.8,197054.6,0.0
195691.2,205346.7,179876.8,252050.7,204956.0,190039.8,187050.2,197404.3,0.0
195693.8,205462.3,180027.8,252087.5,205204.7,190119.3,187198.8,197510.0,0.0
195449.9,205202.1,179723.5,251858.0,204928.7,189891.5,186964.6,197232.6,0.0
195296.9,204919.1,179372.8,251688.2,204506.7,189664.8,186669.5,196956.9,0.0
195440.4,205003.1,179445.5,251793.0,204514.6,189746.7,186715.8,197056.8,0.0
195683.8,205343.3,179833.0,252021.6,204947.5,190029.1,187041.5,197400.5,0.0
195672.2,205450.0,179976.6,252030.7,205193.8,190104.2,187183.4,197497.5,0.0
195430.1,205186.4,179674.6,251828.1,204918.2,189876.6,186951.7,197226.1,0.0
195289.5,204923.4,179335.4,251676.8,204506.8,189661.5,186667.3,196959.9,0.0
195437.3,205011.0,179402.9,251777.3,204515.2,189746.9,186711.5,197053.3,0.0
195680.7,205347.5,179785.8,251991.4,204948.8,190026.2,187034.1,197389.4,0.0
195686.7,205464.5,179940.4,252025.9,205206.2,190111.8,187183.8,197499.9,0.0
195439.5,205191.3,179635.9,251819.2,204926.1,189881.0,186945.0,197223.9,0.0
195284.8,204905.5,179285.2,251665.5,204499.3,189654.7,186649.2,196947.3,0.0
195430.6,205001.4,179359.3,251754.2,204509.2,189739.2,186698.4,197044.1,0.0
195677.4,205343.6,179751.3,251972.3,204945.7,190019.2,187029.5,197388.2,0.0
195682.0,205463.6,179906.6,252009.1,205202.8,190106.9,187184.3,197500.9,0.0
195433.7,205196.1,179599.0,251801.7,204924.1,189877.2,186950.3,197225.8,0.0
195277.8,204917.2,179245.9,251633.5,204501.1,189651.1,186654.8,196948.6,0.0
195432.6,205006.4,179324.0,251749.3,204519.6,189744.5,186709.3,197060.7,0.0
195681.7,205344.7,179712.6,251976.1,204950.0,190023.8,187032.5,197398.8,0.0
195671.7,205454.8,179860.0,251981.8,205197.1,190102.8,187180.0,197496.5,0.0
195428.7,205190.9,179560.6,251771.8,204925.1,189877.3,186952.3,197225.9,0.0
195277.5,204909.0,179210.8,251614.4,204502.3,189651.3,186659.3,196948.9,0.0
195424.3,204991.8,179280.4,251708.4,204509.0,189732.2,186706.5,197042.5,0.0
195671.1,205327.0,179667.7,251931.5,204941.9,190013.5,187033.7,197382.4,0.0
195671.1,205442.5,179820.0,251967.7,205192.3,190097.7,187182.6,197489.3,0.0
195423.0,205177.8,179516.4,251756.3,204916.7,189867.0,186948.2,197216.9,0.0
195275.1,204903.2,179168.3,251590.9,204498.4,189645.0,186659.6,196945.3,0.0
195426.3,204995.2,179243.4,251692.2,204512.5,189736.9,186712.6,197046.6,0.0
195677.4,205348.3,179644.4,251930.0,204958.6,190030.4,187050.2,197397.6,0.0
195673.3,205464.8,179797.5,251957.8,205208.0,190108.1,187197.3,197500.7,0.0
195419.7,205184.5,179482.5,251727.5,204918.9,189864.2,186953.2,197213.3,0.0
195270.0,204901.8,179129.8,251564.3,204496.7,189639.9,186661.1,196936.6,0.0
195420.4,204994.8,179208.6,251671.1,204516.5,189735.8,186717.0,197044.5,0.0
195663.9,205331.1,179597.3,251896.1,204944.5,190015.1,187041.4,197384.8,0.0
195663.1,205451.3,179751.3,251928.8,205191.7,190099.8,187191.5,197493.9,0.0
195413.7,205181.3,179445.4,251719.4,204911.1,189865.4,186954.0,197214.8,0.0
195266.0,204900.3,179097.7,251559.9,204489.0,189636.4,186663.0,196940.2,0.0
195418.6,204994.7,179173.7,251666.6,204503.6,189728.1,186714.5,197044.4,0.0
195663.3,205330.6,179558.0,251890.5,204936.4,190006.7,187038.3,197382.9,0.0
195669.5,205451.3,179716.4,251931.8,205194.2,190095.4,187195.8,197496.4,0.0
195420.5,205184.8,179413.3,251713.0,204917.7,189866.5,186961.4,197221.9,0.0
195267.4,204905.3,179062.4,251540.1,204493.3,189641.1,186664.7,196943.7,0.0
195418.3,204994.8,179133.9,251642.7,204502.2,189726.3,186710.9,197045.2,0.0
195665.1,205332.3,179524.7,251860.1,204938.3,190008.0,187036.1,197387.9,0.0
195670.6,205452.7,179685.1,251906.0,205197.3,190094.4,187188.9,197504.8,0.0
195425.7,205186.3,179379.5,251695.8,204919.5,189864.8,186950.5,197229.9,0.0
195274.1,204908.2,179028.4,251528.8,204502.6,189644.9,186659.0,196952.7,0.0
195413.1,204989.6,179091.9,251614.4,204508.5,189727.8,186699.8,197043.1,0.0
195666.6,205338.3,179491.2,251843.6,204949.2,190018.5,187036.0,197394.0,0.0
195672.6,205458.7,179651.6,251888.6,205207.7,190109.3,187193.5,197512.2,0.0
195417.5,205184.9,179339.1,251672.3,204921.2,189871.7,186952.3,197229.0,0.0
195263.8,204907.8,178986.8,251500.8,204497.1,189644.8,186658.4,196949.5,0.0
195413.7,204998.3,179062.9,251601.1,204511.4,189736.5,186711.4,197054.0,0.0
195667.5,205346.1,179463.7,251835.2,204956.9,190028.4,187051.6,197406.0,0.0
195664.4,205459.8,179618.0,251867.4,205211.2,190112.7,187202.7,197513.6,0.0
195431.2,205203.3,179324.6,251681.0,204941.5,189891.3,186976.0,197250.9,0.0
195275.8,204921.3,178971.0,251503.7,204514.6,189660.5,186678.1,196965.9,0.0
195423.6,205013.6,179047.4,251584.5,204530.8,189746.3,186728.2,197060.4,0.0
195668.0,205349.2,179437.7,251810.8,204965.6,190026.8,187053.1,197398.5,0.0
195669.7,205467.8,179589.4,251845.0,205211.4,190108.9,187200.3,197504.0,0.0
195423.5,205200.3,179284.2,251632.3,204932.7,189880.3,186966.5,197228.6,0.0
195271.5,204910.0,178928.2,251473.2,204502.0,189651.5,186666.5,196949.6,0.0
195421.4,204993.1,179001.0,251576.0,204506.5,189736.7,186713.3,197049.7,0.0
195669.1,205331.0,179390.5,251805.5,204937.6,190017.1,187036.5,197390.6,0.0
195663.3,205439.5,179539.8,251827.8,205185.6,190097.0,187180.3,197494.3,0.0
195423.0,205179.5,179240.9,251619.8,204911.1,189869.1,186950.9,197223.6,0.0
195269.9,204898.9,178890.9,251452.3,204487.8,189644.4,186659.1,196944.9,0.0
195416.2,204982.7,178962.5,251553.4,204497.3,189731.5,186709.8,197041.8,0.0
195664.7,205320.9,179353.5,251779.5,204929.7,190014.0,187038.4,197384.2,0.0
195667.7,205441.2,179510.8,251815.4,205185.7,190101.2,187192.7,197493.6,0.0
195424.1,205176.8,179207.0,251609.3,204910.8,189874.1,186959.7,197222.6,0.0
195273.6,204897.5,178856.1,251447.6,204490.7,189650.8,186665.3,196948.5,0.0
195429.9,204990.6,178934.9,251563.2,204505.4,189744.5,186718.3,197055.6,0.0
195669.1,205324.8,179319.4,251781.1,204931.2,190021.0,187039.6,197390.4,0.0
195664.9,205442.7,179470.3,251799.0,205183.3,190100.1,187186.8,197492.4,0.0
195427.8,205185.3,179175.5,251598.7,204918.4,189876.0,186961.7,197228.0,0.0
195272.3,204900.8,178821.0,251427.7,204491.1,189643.2,186662.4,196947.2,0.0
195413.5,204981.0,178891.3,251524.3,204498.8,189726.6,186704.8,197042.2,0.0
195662.1,205324.3,179286.1,251755.8,204937.7,190012.5,187034.4,197385.7,0.0
195660.1,205437.7,179436.8,251784.3,205188.3,190096.7,187183.6,197489.8,0.0
195419.2,205183.5,179143.5,251577.7,204923.8,189872.5,186960.2,197222.4,0.0
195264.0,204899.2,178790.5,251408.6,204499.3,189642.0,186661.9,196943.2,0.0
195414.8,204985.4,178861.4,251512.0,204502.7,189725.9,186705.1,197042.8,0.0
195661.5,205320.9,179251.3,251733.2,204932.3,190006.0,187028.3,197382.7,0.0
195665.0,205439.5,179410.2,251767.1,205188.5,190092.5,187178.8,197493.0,0.0
195427.9,205182.9,179117.7,251577.5,204921.3,189869.9,186952.5,197227.3,0.0
195268.1,204891.6,178758.6,251396.9,204489.4,189635.2,186649.7,196936.6,0.0
195414.6,204978.8,178828.5,251492.4,204493.1,189719.8,186696.1,197035.0,0.0
195664.9,205321.2,179222.9,251724.5,204929.4,190005.0,187027.5,197383.9,0.0
195662.4,205434.6,179373.6,251751.7,205176.9,190084.4,187172.4,197489.0,0.0
195416.2,205173.6,179075.8,251539.9,204905.3,189861.5,186940.8,197219.5,0.0
195269.2,204899.4,178733.0,251383.5,204490.6,189645.0,186653.6,196947.0,0.0
195417.8,204992.2,178807.2,251494.5,204502.3,189734.8,186704.2,197045.9,0.0
195658.4,205328.6,179190.6,251707.0,204929.7,190013.9,187027.2,197382.9,0.0
195651.0,205434.7,179335.9,251719.6,205175.2,190090.1,187167.8,197485.8,0.0
195406.5,205164.5,179032.9,251512.9,204898.0,189859.1,186932.8,197213.8,0.0
195255.8,204879.0,178686.3,251358.9,204481.1,189639.7,186641.9,196940.3,0.0
195404.1,204967.7,178757.7,251454.8,204487.1,189729.7,186689.7,197037.4,0.0
195654.5,205315.9,179155.3,251680.0,204928.5,190019.4,187026.8,197384.3,0.0
195648.0,205424.5,179306.7,251706.0,205180.3,190100.2,187174.9,197488.5,0.0
195407.8,205158.5,179005.9,251502.3,204905.9,189873.3,186940.9,197217.1,0.0
195262.3,204881.0,178659.2,251347.2,204483.1,189650.9,186647.0,196943.3,0.0
195406.7,204967.6,178728.4,251442.3,204486.6,189738.8,186693.3,197041.8,0.0
195649.7,205299.7,179111.4,251670.7,204908.9,190016.2,187016.2,197381.9,0.0
195646.0,205413.5,179257.3,251698.0,205146.6,190093.6,187157.8,197483.6,0.0
195400.7,205148.0,178955.0,251471.8,204870.3,189868.5,186927.9,197211.5,0.0
195253.6,204871.3,178607.2,251312.7,204450.4,189645.2,186637.4,196938.5,0.0
195405.0,204966.7,178682.8,251419.8,204463.0,189733.2,186687.5,197039.6,0.0
195651.3,205301.0,179068.2,251657.0,204892.2,190011.1,187009.5,197380.3,0.0
195645.8,205406.6,179213.1,251672.1,205138.0,190088.7,187153.8,197482.8,0.0
195404.8,205148.2,178913.1,251464.6,204866.7,189862.7,186925.1,197209.5,0.0
195260.9,204874.7,178569.5,251306.0,204453.0,189642.9,186635.8,196936.6,0.0
195411.9,204967.7,178644.4,251402.0,204464.1,189729.6,186683.0,197035.4,0.0
195656.7,205307.5,179036.0,251620.0,204895.5,190010.9,187011.3,197376.6,0.0
195659.8,205428.2,179193.4,251659.8,205151.9,190098.3,187162.9,197490.3,0.0
195412.7,205165.5,178892.4,251449.0,204879.5,189869.0,186930.0,197217.5,0.0
195264.8,204889.0,178546.5,251290.3,204463.0,189645.4,186638.2,196946.0,0.0
195408.0,204976.5,178620.7,251390.9,204475.5,189729.3,186683.7,197046.8,0.0
195641.1,205307.1,179001.4,251592.8,204900.2,189998.7,186999.3,197378.3,0.0
195639.1,205426.0,179158.3,251622.0,205155.9,190084.9,187150.7,197485.8,0.0
195404.3,205165.2,178866.8,251436.0,204890.8,189863.3,186924.5,197220.2,0.0
195261.5,204886.9,178521.9,251287.9,204472.0,189642.1,186632.1,196945.6,0.0
195410.0,204975.5,178596.8,251381.0,204483.2,189730.9,186683.7,197045.7,0.0
195655.6,205311.2,178984.2,251597.3,204912.8,190013.2,187009.2,197387.3,0.0
195659.8,205428.5,179137.5,251640.0,205164.8,190097.2,187162.2,197499.4,0.0
195410.4,205160.8,178833.8,251415.1,204886.1,189866.5,186929.5,197223.2,0.0
195264.3,204885.8,178487.2,251256.3,204463.3,189644.2,186637.3,196949.3,0.0
195414.1,204976.8,178557.7,251362.5,204468.3,189728.9,186680.8,197049.3,0.0
195659.0,205312.3,178944.7,251581.2,204894.3,190004.7,187002.6,197385.2,0.0
195656.9,205419.1,179093.0,251605.4,205139.3,190080.5,187148.6,197487.2,0.0
195431.5,205170.6,178808.2,251428.8,204882.0,189866.4,186930.5,197233.3,0.0
195289.3,204906.3,178469.3,251266.8,204471.0,189650.5,186643.3,196961.4,0.0
195446.6,205003.7,178550.8,251358.9,204491.9,189738.5,186696.8,197063.5,0.0
195695.3,205333.1,178933.4,251582.6,204918.0,190013.3,187013.9,197400.7,0.0
195708.8,205453.8,179093.6,251630.8,205172.8,190101.9,187164.7,197517.7,0.0
195459.9,205177.5,178785.6,251410.6,204890.8,189866.8,186923.2,197237.7,0.0
195315.9,204903.1,178440.4,251244.2,204471.6,189641.7,186631.6,196962.3,0.0
195473.8,204992.6,178516.1,251354.9,204479.1,189729.8,186682.2,197065.4,0.0
195728.5,205338.7,178907.4,251582.0,204909.4,190015.6,187012.0,197407.2,0.0
195735.4,205463.1,179068.7,251618.6,205166.9,190107.8,187168.4,197516.4,0.0
195495.0,205202.3,178776.7,251414.0,204901.0,189886.7,186940.5,197245.2,0.0
195349.7,204928.8,178437.8,251253.1,204486.8,189669.8,186652.0,196972.0,0.0
195492.0,205016.1,178504.3,251340.5,204490.1,189747.0,186692.2,197061.0,0.0
195732.1,205342.6,178885.1,251570.8,204911.9,190017.6,187009.7,197395.9,0.0
195735.0,205455.4,179042.3,251608.1,205162.3,190102.8,187160.8,197505.1,0.0
195493.2,205200.9,178747.9,251393.9,204892.2,189878.3,186932.6,197233.8,0.0
195341.9,204923.8,178406.8,251239.4,204477.3,189657.2,186645.0,196963.7,0.0
195477.5,205010.0,178477.7,251322.4,204486.6,189739.9,186695.5,197059.2,0.0
195719.8,205346.3,178870.7,251553.4,204922.8,190025.7,187029.6,197407.4,0.0
195722.1,205467.2,179025.1,251592.0,205174.4,190109.1,187178.4,197515.9,0.0
195471.4,205200.6,178725.0,251370.5,204902.1,189878.6,186945.2,197236.9,0.0
195322.4,204926.4,178384.7,251217.6,204491.1,189656.7,186659.8,196964.8,0.0
195464.2,205014.6,178454.6,251322.0,204498.7,189736.5,186703.9,197060.7,0.0
195703.6,205354.4,178841.4,251531.2,204928.9,190011.6,187024.4,197395.2,0.0
195692.7,205465.6,178992.2,251544.3,205182.1,190090.0,187169.0,197496.0,0.0
195443.8,205194.8,178695.0,251354.1,204911.4,189863.3,186940.4,197227.0,0.0
195284.8,204901.9,178336.9,251192.4,204481.3,189634.1,186643.3,196948.0,0.0
195430.3,204989.3,178403.0,251272.6,204483.5,189719.9,186687.5,197043.1,0.0
195686.3,205340.5,178801.3,251504.9,204920.4,190009.6,187018.5,197393.1,0.0
195692.1,205467.6,178966.0,251541.3,205182.4,190100.4,187174.3,197507.8,0.0
195451.1,205205.4,178674.7,251340.6,204915.7,189879.9,186947.7,197241.8,0.0
195291.7,204910.2,178313.2,251175.7,204482.2,189648.4,186644.2,196954.7,0.0
195439.2,204995.5,178378.9,251271.8,204482.3,189730.8,186685.6,197045.2,0.0
195687.6,205338.6,178773.8,251502.2,204917.3,190016.6,187016.0,197390.1,0.0
195693.6,205462.7,178934.0,251534.1,205175.1,190104.6,187170.0,197499.2,0.0
195451.5,205200.5,178638.4,251325.1,204910.7,189883.2,186943.8,197229.5,0.0
195291.4,204905.7,178275.8,251155.6,204476.7,189651.3,186642.3,196944.0,0.0
195440.4,204992.5,178344.5,251257.5,204478.6,189736.5,186688.6,197043.1,0.0
195683.7,205333.3,178733.8,251475.5,204907.8,190013.3,187010.0,197383.2,0.0
195681.4,205453.8,178896.4,251513.5,205167.9,190101.2,187165.6,197496.7,0.0
195426.5,205185.3,178595.0,251297.9,204896.9,189873.3,186937.2,197225.0,0.0
195272.1,204901.8,178245.5,251136.9,204477.3,189647.9,186644.9,196952.9,0.0
195413.1,204981.1,178305.8,251237.2,204471.5,189721.6,186678.4,197045.7,0.0
195663.4,205324.0,178700.7,251457.2,204908.7,190004.8,187007.5,197389.9,0.0
195667.7,205448.4,178869.8,251496.4,205175.0,190099.0,187170.0,197508.0,0.0
195418.5,205183.8,178569.2,251275.3,204901.0,189869.0,186939.4,197230.7,0.0
195270.7,204907.8,178222.6,251116.1,204481.3,189650.4,186650.0,196956.5,0.0
195410.9,204987.6,178285.8,251221.5,204483.2,189731.2,186692.4,197051.9,0.0
195653.1,205322.3,178671.7,251443.4,204912.1,190007.8,187015.8,197389.7,0.0
195662.1,205448.6,178836.4,251471.2,205173.6,190103.1,187176.1,197504.8,0.0
195422.1,205187.8,178540.5,251274.8,204905.3,189881.9,186947.6,197235.4,0.0
195260.9,204896.8,178181.8,251105.1,204473.8,189650.9,186646.2,196948.9,0.0
195401.4,204973.5,178239.4,251197.8,204465.5,189724.6,186680.9,197033.0,0.0
195657.4,205319.7,178633.7,251426.2,204900.7,190008.1,187010.4,197376.7,0.0
195669.3,205451.2,178801.0,251469.1,205170.8,190103.7,187171.0,197498.1,0.0
195415.8,205181.8,178494.6,251254.5,204896.0,189872.7,186933.4,197221.4,0.0
195250.9,204890.0,178132.2,251083.7,204462.4,189639.9,186629.0,196939.9,0.0
195394.5,204973.2,178196.8,251187.5,204465.0,189724.6,186669.9,197040.1,0.0
195643.1,205315.4,178589.5,251416.6,204901.3,190011.1,186999.7,197387.2,0.0
195649.2,205441.6,178753.9,251458.1,205162.1,190098.6,187160.2,197503.6,0.0
195394.0,205171.9,178448.2,251237.3,204884.6,189862.7,186926.8,197222.1,0.0
195238.6,204885.3,178092.5,251070.3,204455.9,189635.8,186628.9,196940.7,0.0
195384.1,204967.2,178157.9,251166.4,204455.2,189717.7,186672.3,197036.5,0.0
195634.9,205311.2,178553.1,251382.3,204890.9,190003.1,187001.9,197378.3,0.0
195649.5,205441.8,178724.3,251427.8,205160.3,190101.0,187164.2,197495.1,0.0
195406.5,205179.6,178429.3,251225.7,204890.0,189876.4,186934.7,197221.1,0.0
195252.6,204892.0,178072.0,251062.9,204458.7,189648.4,186636.5,196938.7,0.0
195398.4,204976.3,178136.5,251160.4,204458.3,189732.8,186676.8,197035.5,0.0
195652.1,205318.8,178529.9,251387.0,204892.1,190016.8,187003.7,197381.7,0.0
195666.1,205449.6,178703.0,251431.0,205160.8,190109.4,187167.8,197503.1,0.0
195419.3,205180.9,178407.3,251225.3,204885.0,189878.3,186935.6,197226.8,0.0
195268.7,204898.2,178054.5,251061.1,204454.0,189651.3,186638.1,196945.4,0.0
195415.1,204978.7,178119.5,251162.4,204449.7,189731.4,186678.8,197040.4,0.0
195669.1,205323.8,178520.4,251393.8,204888.6,190020.1,187012.6,197393.0,0.0
195676.5,205450.5,178691.8,251445.3,205157.6,190113.4,187175.8,197515.0,0.0
195423.0,205180.5,178388.0,251219.6,204881.5,189880.2,186941.8,197230.5,0.0
195263.8,204892.7,178027.1,251042.3,204450.4,189649.5,186641.2,196945.0,0.0
195405.5,204976.1,178091.1,251131.2,204450.3,189731.2,186679.6,197034.8,0.0
195647.5,205310.9,178481.0,251356.8,204881.9,190010.7,187004.4,197377.0,0.0
195648.5,205430.5,178642.5,251392.9,205141.3,190095.6,187156.4,197490.2,0.0
195404.1,205168.0,178347.5,251197.1,204874.3,189871.6,186926.8,197221.9,0.0
195250.8,204886.5,177998.6,251027.8,204451.9,189647.3,186635.4,196945.2,0.0
195399.2,204968.5,178066.9,251124.6,204453.8,189730.3,186679.6,197040.6,0.0
195642.7,205303.0,178456.7,251343.2,204882.3,190008.3,187001.4,197379.9,0.0
195653.0,205432.0,178623.7,251386.4,205147.7,190098.6,187159.5,197497.9,0.0
195401.3,205163.9,178322.5,251172.5,204874.9,189865.8,186923.5,197217.5,0.0
195243.8,204881.1,177969.8,251008.8,204446.9,189636.5,186626.9,196934.8,0.0
195396.3,204978.1,178048.3,251119.2,204460.0,189729.8,186682.7,197039.4,0.0
195651.0,205324.6,178445.7,251352.4,204897.8,190017.9,187011.7,197389.0,0.0
195651.1,205451.1,178609.9,251374.7,205158.6,190105.1,187165.0,197501.5,0.0
195393.1,205177.8,178304.3,251155.8,204883.0,189870.4,186927.6,197220.5,0.0
195238.2,204886.9,177947.2,250999.3,204456.3,189642.8,186630.5,196942.8,0.0
195384.0,204971.6,178014.0,251094.4,204459.5,189727.7,186675.3,197038.2,0.0
195633.7,205312.0,178408.0,251314.3,204889.6,190008.7,187004.3,197377.5,0.0
195640.9,205430.9,178575.7,251354.4,205152.1,190097.4,187163.2,197493.0,0.0
195399.0,205166.9,178279.1,251148.1,204882.5,189868.5,186930.5,197218.5,0.0
195240.6,204880.8,177921.8,250974.3,204454.0,189637.2,186629.3,196933.1,0.0
195385.6,204955.2,177984.8,251074.6,204451.1,189719.0,186671.6,197028.8,0.0
195642.9,205300.6,178382.2,251309.4,204887.8,190004.0,187002.7,197378.1,0.0
195653.9,205431.6,178551.9,251346.9,205154.9,190094.4,187161.6,197493.4,0.0
195407.8,205169.0,178252.3,251146.0,204882.2,189862.3,186929.3,197220.1,0.0
195248.7,204880.0,177891.2,250973.4,204449.1,189628.2,186629.5,196936.0,0.0
195401.7,204972.3,177961.7,251079.8,204453.2,189715.9,186677.0,197035.0,0.0
195652.3,205312.9,178352.5,251317.9,204888.2,190000.8,187004.4,197382.3,0.0
195645.5,205425.0,178507.8,251324.7,205144.8,190081.9,187152.6,197485.5,0.0
195398.4,205160.6,178210.1,251112.3,204876.9,189855.4,186923.4,197208.8,0.0
195249.3,204880.5,177862.0,250957.5,204457.5,189635.5,186632.1,196935.3,0.0
195407.1,204979.1,177942.7,251069.2,204473.7,189728.8,186688.4,197045.2,0.0
195653.5,205322.1,178339.8,251294.9,204910.9,190014.3,187019.4,197392.6,0.0
195657.7,205447.2,178507.8,251333.1,205172.8,190107.7,187178.2,197507.0,0.0
195408.6,205183.8,178209.7,251123.4,204900.9,189880.4,186947.6,197231.4,0.0
195257.0,204901.5,177860.3,250964.8,204477.0,189653.7,186654.3,196954.4,0.0
195404.1,204984.0,177928.5,251053.8,204478.2,189737.4,186697.2,197048.3,0.0
195661.9,205335.1,178330.7,251280.6,204920.9,190025.4,187031.1,197397.5,0.0
195656.5,205445.3,178484.9,251311.3,205174.4,190105.3,187175.2,197503.9,0.0
195399.5,205165.9,178174.7,251098.6,204892.0,189866.4,186933.0,197222.7,0.0
195248.6,204884.2,177823.9,250944.2,204466.4,189641.2,186637.3,196946.2,0.0
195394.0,204966.0,177890.1,251058.2,204466.3,189726.4,186678.7,197045.8,0.0
195631.9,205296.2,178271.5,251254.7,204890.8,189999.1,186993.3,197374.2,0.0
195645.9,205430.3,178443.5,251297.1,205158.5,190094.7,187153.2,197493.9,0.0
195402.6,205172.3,178150.7,251095.2,204890.3,189871.5,186925.3,197223.7,0.0
195235.2,204873.7,177785.0,250916.8,204452.4,189635.2,186616.8,196933.8,0.0
195381.3,204955.4,177850.1,251019.0,204456.0,189720.8,186661.7,197032.7,0.0
195636.0,205305.6,178252.8,251258.5,204896.9,190010.9,186996.7,197384.5,0.0
195643.7,205435.3,178424.2,251302.2,205161.8,190102.8,187158.6,197502.3,0.0
195403.1,205177.0,178132.1,251097.1,204894.4,189874.9,186933.4,197232.6,0.0
195233.8,204882.6,177767.9,250915.6,204462.8,189639.6,186628.5,196939.8,0.0
195383.7,204967.6,177838.4,251015.8,204470.5,189731.5,186675.9,197043.3,0.0
195630.7,205307.4,178228.6,251230.6,204900.5,190011.0,186998.6,197381.5,0.0
195627.5,205427.3,178390.2,251256.1,205158.9,190091.8,187153.0,197486.5,0.0
195386.7,205162.1,178097.2,251058.0,204891.2,189864.9,186926.2,197216.5,0.0
195232.9,204877.7,177744.4,250898.8,204468.5,189642.5,186631.4,196940.2,0.0
195375.5,204960.0,177806.9,250995.6,204468.8,189725.3,186670.3,197031.4,0.0
195632.4,205307.8,178202.1,251217.4,204903.2,190007.4,186994.3,197373.0,0.0
195644.7,205433.5,178372.1,251263.2,205167.8,190101.4,187151.2,197493.2,0.0
195403.3,205169.2,178075.6,251065.6,204898.1,189876.0,186920.3,197225.3,0.0
195247.1,204883.0,177717.5,250896.6,204468.9,189646.1,186618.7,196941.3,0.0
195395.3,204970.1,177786.0,250988.5,204468.0,189727.0,186659.3,197033.9,0.0
195641.8,205308.9,178180.1,251213.9,204897.0,190005.1,186983.7,197374.4,0.0
195655.9,205441.1,178354.2,251276.4,205166.8,190102.7,187146.2,197500.0,0.0
195402.7,205172.8,178053.7,251047.8,204892.5,189870.8,186911.1,197219.8,0.0
195241.1,204881.5,177697.0,250867.0,204461.1,189637.4,186610.3,196932.9,0.0
195388.7,204965.4,177766.0,250975.9,204463.0,189721.3,186654.5,197032.3,0.0
195645.7,205314.2,178165.2,251209.0,204904.2,190010.1,186987.9,197383.4,0.0
195646.2,205429.5,178325.8,251234.4,205160.9,190094.4,187139.9,197489.8,0.0
195404.9,205170.6,178035.9,251035.8,204898.2,189870.8,186917.7,197222.1,0.0
195244.5,204883.6,177682.2,250880.0,204472.0,189644.1,186624.7,196943.5,0.0
195392.0,204967.9,177749.7,250982.4,204474.0,189727.3,186672.5,197040.9,0.0
195628.1,205298.2,178131.6,251181.7,204898.1,190000.4,186990.2,197374.6,0.0
195632.0,205419.5,178292.2,251212.1,205155.9,190089.2,187141.9,197488.0,0.0
195389.1,205157.4,177996.9,251011.1,204887.0,189865.8,186909.0,197219.8,0.0
195239.1,204876.5,177646.7,250853.3,204462.7,189641.0,186611.5,196942.8,0.0
195392.2,204962.7,177718.2,250969.3,204467.4,189727.5,186655.7,197041.8,0.0
195640.7,205301.0,178113.2,251193.9,204903.0,190010.6,186982.8,197382.9,0.0
195642.6,205422.2,178278.2,251221.0,205165.2,190098.6,187139.4,197497.0,0.0
195395.3,205157.1,177982.6,251006.1,204895.1,189870.4,186909.0,197223.5,0.0
195243.8,204872.8,177630.8,250856.0,204470.1,189646.3,186612.8,196945.3,0.0
195387.7,204952.5,177693.2,250945.0,204466.0,189727.0,186652.5,197036.5,0.0
195636.7,205296.8,178088.1,251163.9,204898.4,190011.7,186980.0,197380.6,0.0
195643.8,205421.0,178253.5,251196.1,205158.9,190102.8,187134.1,197493.7,0.0
195404.1,205162.1,177962.5,250995.0,204894.1,189881.8,186908.1,197228.0,0.0
195241.4,204870.1,177600.5,250824.2,204459.7,189647.5,186602.1,196940.8,0.0
195382.0,204951.4,177662.2,250920.5,204458.4,189726.7,186640.7,197033.7,0.0
195637.4,205295.8,178062.2,251167.7,204897.7,190014.4,186972.7,197388.3,0.0
195640.0,205418.0,178225.0,251190.3,205156.0,190099.5,187126.8,197497.0,0.0
195403.1,205165.6,177937.0,250974.2,204895.3,189882.3,186903.5,197230.4,0.0
195252.4,204885.6,177585.3,250816.5,204470.7,189658.9,186608.7,196953.7,0.0
195397.5,204969.0,177653.2,250915.2,204470.7,189739.6,186653.9,197048.9,0.0
195645.0,205304.6,178041.8,251139.6,204900.2,190016.0,186975.8,197387.2,0.0
195658.0,205433.6,178212.6,251185.4,205169.9,190110.7,187137.4,197508.8,0.0
195421.1,205180.2,177920.0,250978.1,204904.5,189888.0,186908.9,197241.6,0.0
195267.8,204895.4,177564.3,250812.6,204476.3,189661.4,186610.2,196960.1,0.0
195404.9,204964.1,177623.5,250905.0,204469.9,189738.9,186650.1,197048.5,0.0
195657.3,205304.2,178019.8,251128.0,204901.4,190023.5,186980.4,197393.5,0.0
195673.4,205436.1,178193.2,251176.5,205167.1,190117.1,187141.4,197514.8,0.0
195425.3,205173.4,177896.0,250970.9,204897.4,189886.8,186909.7,197241.4,0.0
195273.4,204894.4,177543.6,250819.9,204474.4,189662.4,186615.9,196966.5,0.0
195414.6,204974.5,177603.3,250926.5,204472.5,189743.5,186653.3,197058.6,0.0
195653.0,205311.3,177989.4,251122.7,204901.7,190020.8,186972.0,197392.3,0.0
195664.2,205442.8,178164.5,251161.1,205173.0,190117.0,187132.8,197512.3,0.0
195407.7,205168.7,177858.7,250938.8,204892.7,189878.8,186892.6,197231.9,0.0
195250.4,204881.0,177501.8,250770.8,204462.5,189646.3,186595.1,196950.9,0.0
195404.2,204972.8,177573.4,250882.0,204468.0,189733.3,186643.4,197050.5,0.0
195655.2,205319.7,177971.7,251108.5,204906.4,190020.8,186974.9,197397.1,0.0
195656.8,205442.9,178135.6,251144.0,205167.8,190108.4,187132.2,197509.5,0.0
195409.0,205179.1,177840.0,250934.9,204898.5,189881.1,186904.5,197236.5,0.0
195253.8,204891.8,177488.1,250769.5,204472.6,189654.7,186608.8,196956.3,0.0
195397.2,204971.4,177554.0,250873.8,204473.9,189737.4,186652.5,197055.4,0.0
195644.4,205315.4,177950.1,251099.6,204908.5,190021.7,186981.8,197399.7,0.0
195654.8,205444.2,178121.2,251140.8,205176.5,190112.9,187143.5,197516.3,0.0
195414.7,205182.0,177828.4,250936.6,204909.5,189887.4,186915.2,197241.5,0.0
195249.7,204890.1,177470.0,250759.6,204476.6,189654.4,186616.3,196954.5,0.0
195389.8,204967.1,177533.3,250848.4,204472.8,189730.2,186657.5,197045.5,0.0
195645.6,205315.4,177934.4,251085.3,204911.3,190016.1,186991.0,197396.8,0.0
195649.6,205439.0,178102.2,251116.4,205172.6,190105.4,187147.6,197509.5,0.0
195404.2,205175.0,177807.2,250914.8,204903.9,189878.8,186917.8,197236.6,0.0
195245.2,204887.6,177448.0,250746.2,204474.9,189648.6,186618.6,196953.7,0.0
195390.6,204972.6,177512.6,250841.2,204476.6,189727.9,186661.0,197046.7,0.0
195649.0,205325.6,177913.1,251073.2,204916.9,190017.5,186992.5,197395.6,0.0
195664.0,205461.4,178092.1,251118.4,205192.3,190119.1,187158.1,197521.8,0.0
195409.2,205190.3,177789.5,250901.8,204916.4,189886.0,186920.6,197240.6,0.0
195240.8,204888.5,177422.2,250728.7,204475.9,189646.8,186610.3,196946.7,0.0
195393.3,204971.9,177492.2,250883.0,204480.3,189733.1,186659.1,197048.3,0.0
195654.3,205320.9,177891.2,251167.1,204916.7,190015.3,186989.3,197395.1,0.0
195651.2,205440.8,178054.3,251170.0,205174.8,190098.8,187144.4,197504.0,0.0
195403.3,205181.6,177759.8,250940.9,204906.8,189874.9,186919.5,197233.4,0.0
195248.0,204894.3,177410.6,250772.9,204481.9,189651.8,186627.7,196955.5,0.0
195393.0,204972.7,177473.4,250858.4,204473.6,189730.4,186664.3,197044.7,0.0
195639.0,205316.4,177866.0,251063.7,204904.4,190012.6,186989.6,197387.7,0.0
195640.2,205435.3,178030.4,251094.8,205165.0,190099.0,187141.6,197500.8,0.0
195397.8,205175.3,177736.4,250892.4,204899.7,189873.4,186911.1,197232.3,0.0
195241.0,204889.4,177377.5,250722.8,204470.3,189642.5,186608.5,196946.2,0.0
195380.3,204964.5,177438.3,250811.5,204468.5,189720.1,186645.4,197032.3,0.0
195634.1,205306.4,177831.7,251040.3,204902.7,190003.8,186973.2,197375.2,0.0
195644.7,205436.1,178000.6,251087.7,205172.8,190098.7,187134.3,197494.5,0.0
195403.9,205180.4,177709.1,250883.7,204910.4,189878.3,186910.9,197228.9,0.0
195239.7,204884.7,177345.6,250694.0,204471.9,189641.8,186606.0,196935.1,0.0
195383.0,204962.6,177405.3,250782.7,204463.0,189723.5,186645.4,197024.0,0.0
195632.8,205305.9,177801.2,251011.7,204898.7,190012.7,186979.6,197371.7,0.0
195643.4,205437.0,177973.9,251053.9,205167.2,190106.6,187141.5,197492.3,0.0
195388.5,205166.0,177670.4,250835.1,204889.0,189871.3,186904.8,197212.0,0.0
195227.7,204875.9,177315.9,250671.7,204457.6,189642.8,186607.9,196931.6,0.0
195373.1,204958.4,177383.8,250771.8,204459.4,189725.5,186653.7,197029.3,0.0
195631.1,205306.2,177785.6,251003.3,204901.0,190014.5,186989.6,197380.4,0.0
195641.5,205431.2,177957.1,251046.8,205169.0,190108.4,187149.0,197499.8,0.0
195396.5,205173.9,177662.0,250839.6,204900.2,189881.4,186915.9,197227.4,0.0
195233.9,204882.2,177304.3,250673.6,204467.9,189650.5,186613.4,196944.0,0.0
195377.4,204958.1,177366.2,250774.6,204463.9,189729.9,186650.9,197037.2,0.0
195633.4,205305.2,177763.0,251011.0,204901.2,190016.3,186980.0,197385.4,0.0
195645.1,205439.0,177937.4,251059.0,205174.9,190116.0,187146.1,197510.8,0.0
195398.1,205178.5,177642.2,250840.1,204905.6,189888.8,186917.9,197235.1,0.0
195242.5,204893.5,177287.0,250671.4,204478.0,189658.5,186619.6,196951.8,0.0
195382.4,204970.6,177350.3,250763.3,204473.0,189736.5,186659.9,197040.6,0.0
195636.7,205315.1,177747.8,250995.2,204907.5,190023.0,186989.3,197386.5,0.0
195652.7,205446.8,177924.5,251046.8,205178.1,190119.8,187154.4,197511.9,0.0
195399.0,205173.5,177624.9,250837.1,204901.3,189887.3,186920.1,197234.8,0.0
195237.7,204883.3,177264.8,250664.1,204466.9,189655.4,186620.0,196948.1,0.0
195384.3,204968.2,177330.9,250760.5,204464.2,189731.5,186661.0,197038.5,0.0
195637.9,205312.8,177731.8,250983.6,204901.0,190016.7,186991.2,197385.0,0.0
195656.1,205447.1,177912.1,251034.4,205176.2,190118.3,187157.4,197512.6,0.0
195409.8,205183.2,177616.0,250830.0,204908.1,189891.1,186927.5,197239.9,0.0
195242.3,204889.4,177250.3,250650.6,204474.1,189653.3,186621.3,196948.0,0.0
195385.5,204972.7,177315.0,250751.1,204474.6,189737.4,186662.6,197043.7,0.0
195643.6,205325.1,177720.3,250983.7,204917.3,190026.8,186996.7,197397.5,0.0
195644.4,205443.2,177885.4,251008.2,205176.0,190110.8,187147.7,197510.0,0.0
195394.6,205178.2,177590.3,250802.8,204904.4,189882.6,186914.4,197238.1,0.0
195236.2,204888.1,177235.0,250638.5,204476.2,189653.5,186617.2,196955.5,0.0
195388.3,204968.8,177304.2,250745.1,204477.3,189738.1,186665.1,197051.8,0.0
195642.0,205315.4,177703.2,250981.6,204915.3,190027.1,186998.4,197402.3,0.0
195644.3,205443.0,177870.8,251010.3,205180.2,190118.8,187155.4,197516.1,0.0
195398.6,205180.6,177576.8,250803.9,204911.0,189892.3,186927.0,197247.6,0.0
195237.0,204892.1,177216.5,250632.5,204476.8,189659.1,186626.2,196962.8,0.0
195377.7,204973.6,177278.9,250724.1,204472.7,189736.2,186665.6,197048.5,0.0
195625.2,205313.0,177669.3,250947.0,204903.7,190016.5,186991.4,197388.0,0.0
195634.4,205439.4,177837.5,250983.7,205171.2,190108.1,187149.7,197505.0,0.0
195393.8,205181.0,177546.6,250785.0,204905.5,189881.5,186920.4,197234.3,0.0
195236.1,204891.6,177190.2,250626.1,204473.3,189646.3,186617.8,196947.3,0.0
195378.0,204972.7,177256.2,250726.1,204469.1,189726.5,186658.0,197041.7,0.0
195625.6,205311.5,177651.8,250938.4,204900.4,190009.3,186984.8,197381.3,0.0
195646.4,205446.9,177833.4,250992.8,205174.8,190110.2,187154.7,197507.9,0.0
195395.9,205173.2,177529.6,250781.0,204896.5,189874.6,186916.3,197229.5,0.0
195237.0,204883.0,177167.7,250606.8,204461.8,189640.8,186613.5,196941.5,0.0
195381.1,204965.2,177233.2,250699.9,204459.7,189722.8,186656.2,197034.0,0.0
195635.3,205313.1,177634.2,250937.4,204900.5,190013.0,186989.2,197385.7,0.0
195648.0,205445.1,177810.5,250995.2,205172.8,190110.2,187153.5,197511.7,0.0
195391.7,205174.5,177506.5,250769.0,204897.6,189875.8,186917.7,197231.8,0.0
195236.8,204883.0,177151.0,250606.5,204471.2,189649.9,186623.5,196953.2,0.0
195377.6,204958.0,177210.8,250702.2,204465.5,189728.3,186661.0,197044.4,0.0
195615.7,205291.0,177596.7,250911.4,204893.0,190002.3,186982.4,197378.3,0.0
195625.1,205420.2,177768.2,250944.8,205161.6,190093.6,187142.5,197496.3,0.0
195382.2,205157.8,177475.4,250742.8,204896.9,189870.9,186914.9,197228.3,0.0
195228.4,204876.4,177122.0,250578.4,204469.7,189643.1,186618.1,196946.7,0.0
195379.2,204963.8,177190.4,250684.9,204471.0,189726.7,186663.1,197042.2,0.0
195622.5,205295.5,177576.6,250892.1,204895.4,190001.2,186980.5,197373.8,0.0
195632.5,205422.7,177749.0,250936.7,205161.2,190094.6,187137.4,197494.8,0.0
195389.0,205161.0,177457.7,250740.5,204898.7,189872.8,186913.9,197230.8,0.0
195224.4,204865.9,177096.5,250570.0,204466.5,189640.0,186613.1,196944.8,0.0
195367.6,204948.8,177158.5,250667.6,204462.2,189718.3,186651.1,197034.6,0.0
195618.7,205297.3,177552.4,250888.6,204897.9,190005.4,186979.0,197376.3,0.0
195631.2,205430.3,177727.9,250931.2,205171.2,190104.0,187142.9,197499.1,0.0
195386.3,205171.0,177436.6,250731.3,204906.1,189875.8,186915.3,197230.4,0.0
195225.3,204877.3,177074.3,250562.1,204472.1,189638.7,186611.1,196942.2,0.0
195375.9,204962.7,177142.3,250667.8,204473.1,189726.8,186655.2,197039.2,0.0
195630.7,205312.2,177544.5,250905.1,204914.2,190020.6,186991.7,197393.5,0.0
195631.5,205434.5,177711.2,250929.1,205177.0,190109.5,187147.3,197502.5,0.0
195395.2,205182.7,177426.5,250732.8,204916.3,189888.3,186926.0,197233.9,0.0
195231.7,204885.3,177065.0,250564.2,204479.8,189649.7,186619.9,196944.9,0.0
195368.9,204953.8,177117.5,250654.6,204466.8,189720.8,186647.6,197029.6,0.0
195617.2,205290.4,177505.8,250875.1,204891.8,189999.5,186966.2,197368.7,0.0
195629.3,205418.1,177677.3,250925.1,205154.9,190090.0,187123.5,197485.2,0.0
195383.8,205151.1,177381.0,250713.5,204882.9,189861.0,186891.3,197212.9,0.0
195224.4,204857.9,177021.4,250530.5,204448.9,189628.3,186590.4,196924.2,0.0
195377.6,204944.6,177090.0,250631.6,204449.7,189712.1,186633.0,197020.6,0.0
195633.0,205290.2,177488.1,250862.8,204887.1,189999.2,186963.0,197367.2,0.0
195652.0,205430.0,177668.8,250919.8,205163.9,190101.4,187133.1,197497.7,0.0
195407.4,205164.6,177377.5,250727.9,204897.4,189876.4,186906.2,197232.3,0.0
195236.5,204864.6,177009.1,250543.5,204455.0,189634.8,186595.1,196935.4,0.0
195378.7,204952.2,177075.8,250622.0,204459.2,189717.1,186640.5,197027.7,0.0
195644.6,205311.5,177481.7,250864.7,204904.4,190008.7,186977.4,197379.1,0.0
195646.4,205434.3,177643.1,250891.7,205165.6,190095.2,187129.3,197489.1,0.0
195394.0,205160.7,177344.2,250680.0,204892.7,189864.1,186896.7,197214.2,0.0
195240.2,204874.8,176989.5,250516.8,204462.1,189633.0,186598.1,196929.8,0.0
195389.4,204962.2,177057.4,250618.6,204465.5,189716.5,186641.7,197025.5,0.0
195634.8,205303.8,177452.6,250839.5,204898.7,190001.2,186968.6,197369.6,0.0
195637.9,205423.5,177618.2,250876.3,205159.8,190093.1,187123.2,197485.6,0.0
195392.7,205158.1,177323.4,250676.3,204890.0,189870.7,186894.5,197215.6,0.0
195239.0,204876.9,176973.0,250515.9,204463.8,189643.0,186599.0,196936.3,0.0
195376.1,204952.8,177033.7,250608.3,204455.2,189718.8,186635.2,197024.9,0.0
195629.5,205300.4,177432.5,250836.1,204887.6,190004.4,186967.1,197373.7,0.0
195641.0,205434.1,177606.3,250883.9,205153.1,190098.5,187130.8,197495.8,0.0
195387.9,205164.5,177308.7,250666.3,204882.8,189868.1,186902.6,197217.5,0.0
195228.4,204873.2,176953.7,250499.4,204451.7,189635.2,186605.5,196933.7,0.0
195373.7,204952.6,177019.0,250600.2,204449.0,189715.1,186644.4,197028.4,0.0
195635.5,205306.9,177424.8,250839.9,204894.7,190008.2,186982.1,197382.6,0.0
195635.7,205431.0,177591.0,250867.6,205157.7,190096.0,187138.1,197494.2,0.0
195383.7,205158.1,177288.1,250658.6,204882.9,189864.0,186903.4,197217.1,0.0
195224.7,204863.0,176930.4,250489.3,204449.2,189632.6,186602.1,196933.4,0.0
195376.7,204955.0,177001.6,250591.9,204450.1,189718.0,186645.9,197026.3,0.0
195621.8,205294.1,177394.6,250813.2,204882.9,189998.6,186970.5,197367.5,0.0
195632.5,205419.5,177568.2,250862.7,205151.6,190092.0,187131.6,197491.9,0.0
195392.1,205159.3,177274.5,250667.5,204883.6,189866.8,186899.3,197222.3,0.0
195228.2,204874.9,176914.8,250477.2,204450.3,189637.2,186597.3,196933.9,0.0
195375.4,204957.3,176983.5,250577.5,204449.6,189721.1,186641.2,197028.9,0.0
195630.1,205299.5,177384.6,250817.6,204887.5,190008.3,186973.3,197378.0,0.0
195637.0,205425.1,177555.0,250846.4,205156.2,190099.5,187133.0,197491.8,0.0
195400.7,205165.2,177267.0,250660.8,204895.9,189879.8,186909.7,197230.0,0.0
195230.3,204863.8,176901.8,250478.8,204458.1,189642.0,186602.7,196938.5,0.0
195375.0,204946.3,176969.6,250571.1,204456.7,189724.3,186644.2,197031.0,0.0
195620.6,205288.4,177366.9,250789.4,204890.9,190006.4,186974.8,197374.2,0.0
195634.0,205415.8,177540.1,250826.4,205158.5,190099.2,187138.8,197494.5,0.0
195391.6,205151.7,177246.1,250627.0,204890.4,189873.6,186910.4,197225.6,0.0
195238.7,204867.4,176891.7,250466.2,204461.3,189645.8,186612.0,196943.2,0.0
195374.2,204937.1,176944.7,250548.0,204447.2,189719.2,186644.4,197027.2,0.0
195628.6,205278.0,177337.9,250771.7,204877.8,190004.4,186972.3,197371.5,0.0
195643.8,205411.6,177513.4,250820.0,205149.5,190102.8,187135.3,197496.4,0.0
195404.3,205154.3,177226.2,250621.7,204889.2,189884.4,186913.6,197232.8,0.0
195254.8,204872.2,176876.2,250466.2,204464.3,189661.7,186621.0,196957.8,0.0
195390.8,204948.2,176932.8,250543.0,204453.3,189735.8,186653.0,197041.3,0.0
195642.9,205290.4,177327.6,250764.8,204884.3,190018.9,186979.8,197382.6,0.0
195663.5,205427.8,177505.6,250815.5,205161.3,190122.1,187150.4,197506.8,0.0
195438.2,205183.6,177224.8,250622.6,204909.5,189909.2,186933.4,197247.5,0.0
195283.5,204893.0,176864.4,250462.6,204475.8,189675.3,186628.2,196959.4,0.0
195421.1,204957.5,176912.2,250556.5,204454.5,189741.8,186653.4,197038.1,0.0
195677.3,205296.7,177305.8,250774.4,204881.5,190021.0,186979.6,197380.8,0.0
195695.3,205429.3,177486.5,250819.9,205153.1,190117.6,187148.8,197510.4,0.0
195457.7,205171.7,177199.6,250628.6,204889.3,189896.7,186927.5,197249.6,0.0
195303.4,204888.0,176844.3,250463.6,204458.0,189667.8,186628.8,196966.9,0.0
195440.4,204961.5,176904.0,250545.5,204449.5,189742.0,186664.6,197052.3,0.0
195691.4,205302.0,177297.4,250777.0,204880.6,190025.0,186990.7,197398.8,0.0
195700.3,205428.5,177464.8,250822.5,205145.6,190117.1,187146.2,197518.4,0.0
195450.7,205165.6,177165.1,250601.6,204874.0,189886.5,186910.5,197239.8,0.0
195288.6,204881.3,176811.2,250432.8,204445.7,189656.3,186612.8,196957.2,0.0
195433.9,204966.3,176881.0,250530.8,204447.5,189737.6,186657.5,197052.7,0.0
195683.7,205307.6,177277.6,250749.3,204880.9,190018.9,186985.8,197396.0,0.0
195691.4,205436.2,177448.2,250785.0,205147.4,190113.0,187144.0,197512.0,0.0
195443.8,205175.7,177156.1,250582.6,204881.9,189886.9,186915.8,197239.2,0.0
195285.2,204893.3,176804.2,250422.1,204457.5,189658.5,186620.4,196959.7,0.0
195423.9,204970.7,176866.5,250520.7,204453.0,189735.5,186658.3,197052.5,0.0
195673.7,205311.9,177265.7,250753.2,204886.9,190019.7,186989.3,197401.2,0.0
195680.4,205436.8,177436.7,250791.2,205151.2,190108.8,187148.8,197518.0,0.0
195432.6,205176.8,177147.1,250589.8,204886.9,189886.2,186924.9,197253.6,0.0
195269.9,204885.4,176787.8,250426.4,204452.1,189650.9,186621.7,196967.3,0.0
195407.8,204960.6,176845.6,250506.3,204442.2,189724.7,186654.8,197048.1,0.0
195658.2,205303.4,177244.3,250735.2,204876.9,190011.1,186984.3,197394.8,0.0
195666.9,205431.2,177419.0,250779.3,205146.4,190106.4,187147.5,197515.5,0.0
195423.3,205173.5,177128.9,250579.1,204883.9,189882.2,186925.0,197248.0,0.0
195264.0,204889.4,176775.6,250411.2,204456.7,189653.2,186630.4,196966.4,0.0
195402.6,204971.0,176838.5,250499.4,204454.3,189734.3,186669.3,197053.4,0.0
195652.3,205315.6,177233.6,250725.1,204891.4,190020.1,186996.8,197397.7,0.0
195655.5,205430.3,177394.5,250758.1,205149.4,190103.7,187147.7,197508.3,0.0
195405.5,205158.8,177093.4,250551.5,204876.4,189872.6,186914.3,197234.6,0.0
195252.3,204876.2,176742.2,250393.7,204452.4,189646.6,186619.6,196957.1,0.0
195399.0,204962.7,176811.9,250497.6,204455.9,189732.7,186665.5,197054.8,0.0
195658.4,205316.1,177216.8,250737.4,204899.9,190026.7,186999.8,197410.5,0.0
195660.8,205441.2,177384.3,250761.7,205165.7,190113.8,187155.9,197522.6,0.0
195418.4,205184.7,177094.5,250565.2,204900.6,189887.3,186930.2,197255.2,0.0
195257.9,204896.7,176737.7,250400.6,204469.7,189654.4,186631.4,196973.1,0.0
195391.4,204971.2,176799.2,250489.1,204462.5,189729.1,186669.8,197058.9,0.0
195638.6,205312.7,177192.9,250705.5,204895.1,190008.5,186994.4,197397.7,0.0
195647.3,205436.4,177366.3,250744.8,205164.6,190104.3,187155.1,197517.2,0.0
195411.5,205183.9,177083.3,250556.2,204905.0,189888.3,186933.1,197253.3,0.0
195250.2,204897.2,176725.0,250395.3,204472.9,189657.5,186628.4,196965.5,0.0
195385.9,204974.8,176784.1,250472.5,204468.5,189737.4,186666.1,197049.8,0.0
195645.2,205322.1,177185.3,250714.1,204906.8,190028.2,187000.6,197403.1,0.0
195639.3,205439.5,177343.2,250734.3,205165.0,190113.3,187151.3,197509.0,0.0
195396.0,205179.1,177051.5,250532.9,204903.2,189890.5,186925.7,197243.7,0.0
195228.0,204882.5,176687.2,250351.9,204466.3,189651.3,186618.4,196950.7,0.0
195371.6,204958.4,176749.2,250455.0,204458.6,189728.0,186656.4,197040.9,0.0
195619.7,205301.8,177143.8,250684.9,204890.7,190011.7,186986.0,197384.1,0.0
195627.4,205432.9,177316.0,250707.5,205160.7,190106.2,187149.9,197497.5,0.0
195386.6,205174.6,177025.7,250513.8,204899.9,189885.8,186927.8,197232.3,0.0
195226.2,204878.5,176662.3,250347.3,204461.1,189649.8,186619.5,196944.6,0.0
195372.9,204958.6,176723.5,250435.9,204454.9,189732.6,186656.9,197036.8,0.0
195621.0,205295.3,177119.1,250660.9,204887.8,190017.2,186984.8,197383.2,0.0
195631.3,205422.2,177292.2,250705.1,205158.5,190111.4,187144.8,197503.4,0.0
195391.9,205166.3,177000.8,250507.5,204893.6,189889.6,186919.2,197234.8,0.0
195232.6,204880.2,176642.2,250342.0,204460.9,189657.0,186618.7,196950.1,0.0
195382.1,204970.3,176712.7,250444.8,204464.1,189741.3,186662.6,197047.9,0.0
195623.3,205303.4,177100.6,250663.4,204894.6,190018.5,186982.5,197387.1,0.0
195625.4,205424.4,177268.6,250697.5,205160.1,190107.4,187137.6,197505.3,0.0
195382.5,205163.2,176977.5,250497.7,204896.7,189887.2,186911.5,197238.2,0.0
195225.5,204874.8,176621.0,250331.1,204464.2,189656.9,186613.2,196955.5,0.0
195371.1,204957.8,176686.6,250429.5,204461.1,189736.6,186657.2,197049.3,0.0
195623.5,205302.0,177086.4,250663.1,204898.7,190024.1,186990.8,197398.7,0.0
195625.5,205417.5,177249.9,250690.4,205160.4,190108.7,187145.2,197508.1,0.0
195380.9,205153.8,176955.0,250493.7,204892.9,189880.8,186915.2,197237.3,0.0
195213.8,204861.2,176591.9,250322.7,204453.2,189644.9,186609.3,196949.4,0.0
195362.3,204949.8,176663.6,250416.3,204453.9,189730.6,186655.7,197044.9,0.0
195616.7,205295.2,177064.7,250648.3,204892.7,190018.1,186986.3,197396.6,0.0
195633.3,205430.6,177241.8,250694.8,205162.3,190114.4,187147.4,197518.6,0.0
195375.6,205158.9,176938.8,250477.4,204887.5,189880.8,186909.5,197237.7,0.0
195207.3,204863.8,176574.0,250290.3,204450.9,189642.9,186604.1,196943.9,0.0
195353.5,204946.5,176639.4,250394.0,204448.1,189724.0,186647.9,197039.4,0.0
195612.1,205297.5,177043.5,250631.4,204887.0,190014.3,186985.7,197391.1,0.0
195621.9,205423.8,177218.7,250677.0,205156.1,190107.8,187147.9,197513.1,0.0
195371.2,205157.5,176920.1,250465.1,204878.9,189873.2,186912.4,197236.8,0.0
195212.6,204871.0,176565.3,250297.2,204446.4,189643.6,186612.6,196953.7,0.0
195362.4,204955.2,176635.7,250415.4,204447.1,189730.4,186655.7,197051.7,0.0
195607.6,205293.5,177027.0,250625.1,204879.2,190010.5,186976.8,197389.5,0.0
195616.5,205421.0,177197.3,250652.6,205143.9,190098.6,187132.9,197500.6,0.0
195370.0,205154.3,176901.3,250450.1,204874.8,189869.8,186901.9,197226.6,0.0
195211.3,204864.4,176544.4,250287.6,204444.0,189638.7,186603.4,196945.9,0.0
195355.0,204948.3,176606.8,250388.2,204438.5,189719.0,186643.9,197041.3,0.0
195611.2,205298.2,177010.5,250629.8,204878.6,190009.7,186980.2,197393.5,0.0
195613.4,205419.0,177176.4,250660.0,205139.0,190096.9,187135.6,197502.8,0.0
195373.4,205158.6,176885.4,250452.3,204873.6,189874.6,186908.3,197232.6,0.0
195212.3,204868.1,176527.6,250283.7,204442.3,189645.3,186606.0,196948.8,0.0
195353.0,204946.6,176590.3,250381.2,204436.9,189723.0,186644.9,197039.9,0.0
195608.3,205294.9,176992.9,250613.8,204873.5,190005.6,186976.2,197386.8,0.0
195614.7,205417.7,177163.3,250653.1,205134.8,190092.8,187131.9,197499.5,0.0
195379.6,205162.6,176878.2,250460.2,204873.3,189875.3,186908.4,197234.5,0.0
195223.5,204877.8,176524.7,250293.6,204447.8,189647.9,186611.0,196952.7,0.0
195366.1,204955.0,176587.2,250397.5,204446.8,189728.0,186650.8,197049.3,0.0
195610.5,205288.5,176978.1,250619.2,204874.6,190009.3,186976.2,197392.6,0.0
195626.8,205423.1,177154.5,250656.0,205146.1,190105.7,187139.4,197509.1,0.0
195376.3,205158.6,176857.4,250445.8,204877.7,189872.8,186904.2,197228.4,0.0
195218.0,204868.6,176501.0,250288.7,204449.1,189642.1,186604.8,196945.1,0.0
195358.6,204945.2,176560.5,250380.5,204441.0,189720.6,186637.0,197031.2,0.0
195612.3,205290.9,176959.3,250607.0,204874.8,190006.3,186963.3,197375.7,0.0
195620.5,205415.1,177131.1,250645.9,205141.9,190098.8,187123.5,197496.3,0.0
195378.9,205161.8,176839.7,250443.5,204881.5,189879.3,186896.9,197227.3,0.0
195222.6,204881.3,176487.9,250283.8,204458.5,189655.1,186599.1,196945.3,0.0
195370.2,204964.9,176555.5,250390.3,204457.3,189738.7,186642.0,197043.3,0.0
195610.2,205297.8,176944.1,250604.1,204883.0,190013.3,186963.1,197379.2,0.0
195618.4,205429.2,177120.5,250640.5,205153.6,190109.1,187126.8,197500.6,0.0
195372.9,205165.2,176828.0,250428.9,204888.9,189885.1,186900.2,197228.1,0.0
195215.8,204879.5,176475.6,250266.1,204461.1,189658.3,186604.7,196947.0,0.0
195356.6,204960.3,176537.5,250357.7,204456.1,189736.5,186644.9,197038.1,0.0
195610.3,205307.1,176939.0,250592.5,204892.7,190022.4,186975.1,197387.6,0.0
195624.7,205441.5,177119.7,250642.7,205165.7,190123.4,187141.9,197515.8,0.0
195372.9,205171.5,176818.7,250436.5,204890.0,189895.7,186909.0,197242.2,0.0
195199.0,204868.6,176450.8,250258.8,204447.8,189654.8,186600.7,196949.5,0.0
195334.9,204940.7,176504.0,250344.1,204430.2,189724.4,186632.0,197030.3,0.0
195587.0,205281.7,176899.6,250570.3,204861.3,190007.8,186959.8,197374.5,0.0
195598.4,205410.2,177074.3,250612.3,205128.9,190103.0,187121.8,197498.2,0.0
195357.7,205152.5,176785.0,250414.5,204864.1,189879.4,186894.8,197230.5,0.0
195205.4,204865.7,176430.3,250251.8,204432.6,189646.4,186592.7,196945.1,0.0
195355.2,204949.1,176497.7,250356.5,204433.6,189729.6,186633.0,197038.6,0.0
195603.8,205291.3,176892.3,250579.2,204868.1,190010.4,186959.8,197380.0,0.0
195609.6,205416.7,177062.2,250602.4,205132.7,190097.0,187116.8,197491.4,0.0
195364.6,205155.4,176770.7,250399.3,204866.2,189868.9,186889.1,197223.4,0.0
195208.2,204868.1,176415.3,250248.2,204437.0,189641.7,186591.7,196947.6,0.0
195351.0,204945.9,176473.9,250337.2,204429.3,189720.2,186628.0,197037.1,0.0
195603.8,205290.7,176871.4,250559.2,204865.2,190004.3,186957.1,197380.9,0.0
195615.1,205419.7,177043.6,250605.6,205133.7,190099.6,187116.0,197500.5,0.0
195368.5,205158.5,176751.4,250398.6,204869.8,189877.0,186889.1,197229.4,0.0
195212.5,204873.4,176398.0,250230.1,204441.0,189649.7,186590.9,196944.5,0.0
195361.0,204958.4,176466.6,250334.6,204440.6,189734.0,186634.3,197041.0,0.0
195614.3,205304.5,176864.1,250562.1,204871.5,190018.5,186962.0,197386.6,0.0
195620.7,205432.8,177038.6,250594.3,205139.5,190112.2,187123.1,197503.9,0.0
195376.7,205169.7,176749.6,250397.0,204877.3,189888.9,186896.3,197233.0,0.0
195210.3,204869.8,176388.0,250231.5,204439.6,189651.3,186590.2,196943.7,0.0
195357.5,204952.0,176453.4,250328.5,204439.0,189733.4,186632.1,197039.0,0.0
195605.8,205294.0,176848.6,250549.1,204869.9,190014.2,186957.7,197379.6,0.0
195616.6,205428.0,177024.9,250586.6,205142.4,190107.2,187121.6,197499.5,0.0
195374.6,205169.2,176735.2,250390.6,204879.6,189882.5,186896.7,197232.7,0.0
195210.1,204878.3,176376.1,250207.1,204447.0,189647.0,186594.8,196944.9,0.0
195354.7,204958.4,176440.9,250305.8,204440.1,189726.0,186632.7,197035.5,0.0
195607.4,205300.9,176837.2,250536.8,204870.8,190010.2,186958.9,197379.4,0.0
195615.3,205428.8,177007.2,250577.3,205137.1,190103.2,187118.8,197499.2,0.0
195375.1,205174.2,176721.2,250378.7,204879.7,189885.6,186899.4,197237.2,0.0
195209.3,204877.9,176357.3,250201.2,204442.8,189649.3,186593.1,196946.1,0.0
195356.0,204961.8,176424.7,250298.5,204442.0,189733.2,186635.7,197039.5,0.0
195610.6,205309.5,176826.3,250529.1,204883.4,190023.6,186970.3,197387.3,0.0
195620.2,205437.5,176997.0,250568.0,205153.9,190116.6,187130.1,197505.5,0.0
195372.9,205171.0,176703.1,250365.2,204886.8,189888.6,186900.8,197234.1,0.0
195211.3,204876.5,176345.3,250201.3,204453.6,189654.5,186599.6,196949.5,0.0
195352.7,204957.1,176410.0,250300.9,204451.6,189734.6,186639.1,197042.9,0.0
195608.7,205302.4,176811.1,250527.7,204888.8,190023.4,186971.8,197391.3,0.0
195619.3,205428.5,176988.6,250571.5,205160.6,190120.2,187141.9,197514.6,0.0
195367.1,205161.0,176695.3,250364.1,204891.4,189890.3,186916.5,197240.0,0.0
195204.1,204864.7,176335.4,250194.1,204455.1,189656.7,186616.8,196948.7,0.0
195347.1,204947.2,176394.9,250283.6,204448.4,189735.3,186654.8,197035.3,0.0
195598.1,205292.9,176789.3,250505.7,204883.6,190020.3,186982.3,197381.5,0.0
195602.5,205412.3,176956.2,250541.0,205145.4,190110.2,187139.5,197498.8,0.0
195359.5,205144.2,176663.8,250343.4,204875.9,189884.6,186909.6,197230.4,0.0
195204.1,204857.4,176311.3,250176.3,204448.5,189656.3,186609.9,196950.5,0.0
195345.2,204935.8,176371.9,250260.8,204440.2,189732.2,186644.3,197037.6,0.0
195594.1,205274.5,176761.8,250489.8,204863.5,190010.6,186964.0,197377.0,0.0
195598.4,205401.4,176933.6,250523.2,205127.1,190100.7,187121.0,197493.2,0.0
195355.1,205142.2,176643.5,250308.0,204861.7,189876.6,186894.6,197220.9,0.0
195203.3,204852.3,176291.4,250158.8,204434.5,189651.3,186598.9,196943.2,0.0
195353.9,204944.3,176359.9,250268.8,204436.7,189736.3,186640.1,197045.3,0.0
195595.1,205282.7,176752.3,250471.6,204867.7,190014.3,186961.9,197380.3,0.0
195600.1,205404.0,176921.1,250502.3,205131.7,190102.1,187115.3,197494.1,0.0
195356.8,205141.9,176626.4,250298.1,204860.5,189873.3,186885.1,197224.6,0.0
195204.9,204853.7,176268.5,250139.2,204422.6,189638.6,186584.5,196942.2,0.0
195349.7,204933.6,176331.0,250242.6,204417.7,189719.6,186624.1,197035.5,0.0
195600.0,205277.3,176727.5,250466.3,204852.0,190003.8,186953.5,197382.7,0.0
195620.4,205416.3,176910.8,250521.8,205129.9,190106.0,187121.0,197511.1,0.0
195375.0,205154.8,176622.0,250324.4,204866.1,189886.4,186896.9,197242.6,0.0
195206.6,204858.9,176258.2,250136.5,204429.8,189651.0,186591.8,196952.7,0.0
195347.9,204939.7,176319.6,250231.9,204422.5,189728.0,186630.2,197046.1,0.0
195604.0,205287.5,176722.4,250468.1,204857.1,190016.8,186962.6,197396.8,0.0
195615.0,205415.5,176895.8,250508.6,205123.2,190112.3,187122.8,197513.8,0.0
195378.6,205161.4,176610.0,250320.2,204866.2,189893.8,186904.0,197251.6,0.0
195217.5,204871.7,176251.4,250151.7,204436.5,189659.7,186604.4,196966.8,0.0
195357.7,204948.4,176312.5,250232.8,204431.4,189734.7,186640.7,197048.9,0.0
195605.8,205288.6,176704.3,250461.9,204862.2,190010.7,186960.6,197386.6,0.0
195614.0,205420.3,176878.8,250494.6,205131.0,190105.9,187124.1,197509.5,0.0
195365.3,205156.0,176588.5,250285.5,204866.5,189880.1,186899.7,197239.5,0.0
195205.3,204866.5,176233.1,250119.4,204434.7,189648.8,186600.3,196953.0,0.0
195348.4,204945.7,176297.3,250218.5,204429.6,189729.1,186642.3,197044.1,0.0
195600.0,205284.2,176692.4,250446.4,204862.8,190013.3,186971.3,197390.0,0.0
195613.5,205416.8,176870.1,250489.9,205136.8,190112.6,187136.5,197512.6,0.0
195378.5,205163.5,176587.7,250306.2,204879.9,189892.8,186916.4,197249.7,0.0
195221.6,204874.9,176232.3,250140.0,204449.9,189658.9,186615.0,196966.6,0.0
195349.7,204944.9,176287.3,250216.3,204440.2,189730.4,186643.0,197048.4,0.0
195591.5,205280.7,176674.5,250415.8,204868.8,190008.3,186961.3,197380.8,0.0
195606.7,205415.9,176854.1,250469.0,205145.6,190107.9,187127.3,197508.2,0.0
195362.8,205156.4,176562.5,250269.3,204881.7,189884.9,186901.4,197240.4,0.0
195200.4,204862.8,176201.6,250104.7,204446.9,189650.7,186600.2,196953.7,0.0
195339.7,204934.0,176259.8,250197.8,204439.2,189728.4,186636.5,197038.8,0.0
195598.0,205280.8,176659.3,250429.2,204873.3,190019.9,186968.6,197388.0,0.0
195612.3,205413.1,176837.4,250475.6,205145.2,190118.5,187134.7,197513.0,0.0
195369.9,205154.1,176546.1,250284.7,204881.5,189893.2,186909.5,197247.8,0.0
195205.6,204863.0,176184.9,250116.6,204446.8,189655.8,186606.9,196961.6,0.0
195339.0,204934.8,176239.3,250189.9,204433.9,189726.2,186638.2,197043.2,0.0
195591.5,205276.5,176636.3,250421.0,204866.4,190007.7,186963.2,197388.0,0.0
195608.7,205414.0,176817.4,250465.3,205140.7,190106.2,187129.6,197511.9,0.0
195366.8,205155.2,176528.1,250265.4,204877.5,189881.3,186905.1,197241.9,0.0
195205.2,204866.7,176168.8,250096.7,204449.2,189648.7,186602.1,196957.4,0.0
195348.7,204944.6,176231.9,250199.7,204444.4,189729.6,186638.5,197048.8,0.0
195597.7,205283.2,176627.2,250422.2,204874.8,190011.2,186962.3,197392.1,0.0
195606.8,205411.8,176803.0,250458.9,205144.6,190105.9,187122.1,197514.2,0.0
195366.1,205156.0,176515.3,250258.5,204884.3,189884.0,186896.5,197246.6,0.0
195199.9,204861.8,176157.8,250079.2,204449.9,189649.5,186593.6,196957.7,0.0
195339.0,204935.2,176216.7,250172.0,204436.6,189723.8,186626.3,197043.0,0.0
195590.0,205273.1,176607.9,250398.4,204862.8,190002.1,186947.5,197383.0,0.0
195610.7,205406.4,176787.6,250451.8,205136.5,190099.9,187112.9,197508.9,0.0
195365.5,205145.0,176498.2,250251.9,204872.9,189872.5,186883.1,197239.4,0.0
195200.1,204848.7,176135.9,250082.3,204438.2,189637.0,186577.7,196951.9,0.0
195341.7,204933.0,176198.5,250169.5,204433.8,189719.8,186619.5,197042.4,0.0
195595.9,205283.4,176599.7,250405.3,204869.0,190009.8,186954.1,197394.3,0.0
195605.6,205410.4,176772.2,250440.8,205134.8,190101.0,187115.8,197513.7,0.0
195359.8,205149.1,176479.8,250229.7,204867.7,189873.8,186889.1,197242.3,0.0
195207.7,204868.0,176127.8,250077.8,204441.1,189650.1,186595.3,196964.8,0.0
195346.4,204942.0,176186.6,250172.2,204430.6,189720.8,186628.2,197050.1,0.0
195585.8,205274.1,176577.5,250388.4,204856.5,189995.4,186949.5,197390.0,0.0
195596.1,205405.9,176753.4,250421.5,205127.7,190091.9,187112.1,197513.1,0.0
195354.2,205145.6,176462.3,250217.9,204863.8,189869.0,186883.6,197243.8,0.0
195196.9,204856.3,176102.4,250055.3,204430.3,189637.5,186581.9,196958.4,0.0
195340.0,204933.6,176166.4,250159.8,204427.6,189723.8,186623.8,197051.0,0.0
195590.9,205278.0,176561.5,250382.1,204856.8,190006.6,186948.7,197390.9,0.0
195604.4,205411.7,176738.0,250423.6,205128.5,190101.8,187109.3,197510.6,0.0
195358.6,205146.8,176448.3,250227.3,204868.0,189876.2,186882.0,197240.6,0.0
195196.4,204858.2,176090.0,250053.3,204437.0,189641.5,186581.0,196952.3,0.0
195341.1,204943.1,176155.5,250155.9,204434.0,189723.8,186622.5,197044.3,0.0
195592.3,205285.9,176551.6,250377.5,204865.6,190006.6,186950.0,197385.6,0.0
195600.8,205415.0,176724.2,250415.3,205134.7,190100.6,187110.1,197502.5,0.0
195353.5,205152.4,176429.3,250210.1,204868.9,189876.3,186881.9,197233.5,0.0
195193.6,204860.8,176073.5,250047.5,204439.9,189645.4,186583.7,196953.1,0.0
195337.2,204940.1,176138.9,250153.2,204435.2,189728.6,186624.8,197046.2,0.0
195580.0,205273.5,176527.3,250364.2,204859.7,190006.4,186943.6,197382.5,0.0
195583.0,205393.3,176694.2,250392.6,205120.5,190092.6,187098.9,197498.1,0.0
195347.5,205145.0,176414.9,250201.9,204864.1,189871.9,186881.3,197237.4,0.0
195190.5,204858.5,176060.6,250035.1,204433.0,189641.9,186583.1,196952.9,0.0
195331.7,204933.6,176123.8,250132.4,204426.6,189719.7,186623.0,197043.1,0.0
195585.5,205273.6,176519.9,250366.9,204859.6,190000.8,186949.2,197389.1,0.0
195599.1,205405.5,176698.7,250411.4,205132.3,190096.0,187115.2,197510.7,0.0
195353.9,205144.7,176410.2,250202.8,204869.2,189870.8,186889.8,197238.9,0.0
195194.8,204856.5,176054.0,250038.8,204438.3,189639.6,186588.6,196954.5,0.0
195336.5,204937.4,176116.8,250141.2,204430.2,189718.2,186625.4,197048.8,0.0
195583.1,205275.6,176511.8,250367.2,204863.0,189999.8,186951.7,197395.3,0.0
195599.2,205409.2,176691.9,250418.8,205135.9,190097.2,187115.5,197519.6,0.0
195353.0,205145.5,176399.8,250210.3,204868.3,189867.6,186885.1,197247.4,0.0
195188.2,204859.5,176039.5,250027.2,204433.2,189634.3,186578.8,196953.2,0.0
195331.5,204941.5,176100.8,250115.9,204428.9,189714.7,186614.5,197038.0,0.0
195581.1,205275.9,176492.9,250342.9,204858.4,189995.2,186940.5,197379.4,0.0
195588.1,205404.4,176662.9,250377.5,205124.2,190088.1,187100.0,197494.9,0.0
195348.7,205148.3,176378.5,250182.1,204866.2,189867.3,186878.6,197232.0,0.0
195194.0,204863.0,176026.4,250031.6,204439.6,189638.5,186584.1,196953.2,0.0
195335.3,204940.1,176084.7,250134.2,204429.0,189716.3,186617.7,197039.2,0.0
195571.0,205265.3,176463.5,250347.9,204844.6,189985.7,186931.6,197368.5,0.0
195577.7,205393.0,176630.3,250371.4,205107.8,190078.3,187090.8,197482.9,0.0
195335.6,205134.1,176346.2,250171.3,204850.3,189858.9,186872.6,197221.3,0.0
195183.6,204854.5,176003.7,250011.5,204431.1,189631.8,186582.3,196945.3,0.0
195333.7,204946.4,176074.4,250115.5,204435.4,189714.7,186625.9,197037.6,0.0
195576.3,205281.8,176459.2,250335.8,204860.1,189990.8,186947.4,197372.6,0.0
195580.8,205400.7,176624.8,250377.1,205117.2,190077.7,187102.0,197488.1,0.0
195345.8,205144.2,176342.4,250182.5,204858.5,189857.8,186881.4,197229.2,0.0
195197.6,204869.0,176002.9,250022.9,204444.8,189639.3,186596.0,196958.1,0.0
195340.5,204952.0,176073.4,250123.7,204447.0,189725.1,186639.9,197052.0,0.0
195589.3,205295.0,176469.1,250350.4,204879.9,190008.4,186967.0,197395.2,0.0
195595.6,205419.4,176637.6,250385.2,205143.3,190100.0,187125.2,197514.9,0.0
195354.6,205163.6,176350.0,250183.6,204883.5,189878.1,186899.1,197249.1,0.0
195204.6,204889.3,176011.1,250025.3,204469.2,189659.3,186610.3,196974.5,0.0
195343.6,204963.2,176071.9,250121.0,204461.4,189733.6,186643.4,197057.8,0.0
195572.4,205281.2,176444.4,250336.3,204874.1,190000.5,186953.4,197385.0,0.0
195578.0,205395.9,176602.7,250370.8,205125.3,190087.1,187105.8,197496.4,0.0
195350.8,205148.3,176323.0,250186.1,204864.7,189869.9,186888.0,197238.5,0.0
195196.5,204865.9,175977.1,250023.5,204441.5,189640.7,186595.6,196958.8,0.0
195338.7,204951.5,176048.1,250119.5,204443.0,189723.6,186640.7,197052.2,0.0
195568.2,205274.9,176425.5,250318.6,204861.6,189994.2,186951.7,197377.2,0.0
195572.7,205394.8,176590.9,250353.8,205123.8,190083.4,187104.8,197490.3,0.0
195334.9,205137.0,176304.0,250157.2,204863.0,189862.1,186880.6,197228.6,0.0
195191.5,204870.4,175966.4,250002.4,204450.0,189644.1,186595.1,196957.9,0.0
195329.0,204946.5,176025.3,250095.1,204443.4,189721.3,186632.3,197044.4,0.0
195572.2,205276.4,176408.3,250325.8,204862.8,189998.6,186953.0,197383.4,0.0
195574.0,205393.0,176571.5,250359.8,205117.9,190088.4,187110.0,197499.0,0.0
195324.0,205126.5,176274.9,250141.9,204848.7,189857.6,186878.4,197224.7,0.0
195172.8,204850.0,175933.5,249981.3,204432.6,189639.1,186589.3,196951.2,0.0
195323.0,204943.1,176003.4,250074.5,204431.6,189718.7,186629.8,197039.5,0.0
195570.0,205276.9,176391.4,250298.1,204855.9,189995.2,186948.4,197376.2,0.0
195571.4,205386.0,176549.6,250330.4,205112.0,190079.6,187098.6,197484.9,0.0
195333.9,205127.9,176263.7,250132.7,204854.1,189859.1,186876.4,197222.7,0.0
195185.4,204851.7,175924.9,249973.7,204439.3,189634.7,186586.0,196950.0,0.0
195326.8,204933.5,175993.9,250074.9,204438.5,189713.7,186624.9,197039.4,0.0
195573.8,205268.5,176382.0,250304.1,204861.4,189992.9,186944.3,197379.1,0.0
195577.9,205389.9,176547.3,250334.5,205119.2,190082.3,187099.2,197495.9,0.0
195339.4,205135.5,176263.3,250136.7,204860.4,189861.9,186876.1,197232.3,0.0
195187.4,204855.6,175914.2,249976.8,204439.9,189637.1,186584.1,196956.3,0.0
195330.1,204936.5,175979.0,250068.4,204438.1,189715.7,186626.6,197045.7,0.0
195575.6,205271.5,176367.3,250290.4,204863.7,189994.6,186949.9,197382.3,0.0
195589.0,205397.6,176537.8,250337.9,205127.9,190090.1,187110.0,197501.5,0.0
195355.2,205146.4,176258.5,250140.9,204871.5,189876.2,186891.1,197242.6,0.0
195199.1,204860.8,175910.8,249975.5,204450.3,189649.6,186595.0,196962.3,0.0
195336.2,204934.3,175973.0,250067.5,204443.5,189724.9,186630.5,197050.1,0.0
195584.8,205274.7,176362.1,250295.2,204867.0,190002.0,186953.8,197389.1,0.0
195591.7,205400.4,176533.0,250345.5,205131.4,190097.0,187116.2,197510.1,0.0
195349.0,205138.6,176242.8,250135.6,204864.8,189872.4,186891.3,197240.8,0.0
195194.3,204855.9,175898.2,249971.9,204443.5,189647.3,186598.5,196961.7,0.0
195329.8,204934.7,175960.5,250056.4,204438.8,189725.9,186635.4,197047.1,0.0
195573.4,205269.6,176346.2,250270.2,204859.7,189999.1,186953.8,197381.4,0.0
195578.2,205389.6,176513.2,250303.4,205124.2,190090.2,187112.1,197499.0,0.0
195343.7,205139.8,176232.6,250113.2,204868.4,189871.9,186891.8,197239.0,0.0
195192.3,204861.6,175892.0,249961.5,204448.6,189648.8,186599.9,196964.8,0.0
195331.4,204934.9,175958.1,250054.4,204445.4,189726.7,186639.1,197054.5,0.0
195565.9,205260.4,176337.8,250259.0,204863.4,189996.7,186952.4,197382.1,0.0
195575.6,205388.9,176505.5,250299.2,205124.5,190087.1,187107.4,197499.8,0.0
195344.3,205140.3,176224.9,250112.1,204869.1,189874.6,186887.2,197243.6,0.0
195187.5,204853.7,175873.6,249941.8,204441.9,189646.2,186587.3,196960.3,0.0
195326.8,204929.8,175935.2,250029.1,204437.9,189723.5,186621.8,197047.9,0.0
195571.2,205262.6,176321.8,250251.4,204863.6,190001.4,186942.5,197386.8,0.0
195577.2,205384.6,176486.9,250289.9,205122.9,190091.4,187097.9,197502.1,0.0
195330.2,205122.6,176196.3,250076.6,204860.1,189869.7,186870.5,197235.5,0.0
195183.1,204851.2,175854.4,249922.6,204444.6,189649.5,186578.9,196959.5,0.0
195324.9,204931.7,175917.6,250016.9,204439.8,189729.8,186617.0,197047.6,0.0
195569.6,205264.7,176303.8,250231.7,204863.2,190008.6,186941.1,197383.6,0.0
195581.7,205395.3,176473.6,250275.9,205127.5,190101.9,187100.9,197498.9,0.0
195339.3,205139.8,176186.3,250079.4,204865.0,189878.3,186876.6,197233.2,0.0
195189.9,204858.9,175844.0,249923.8,204445.9,189655.3,186586.0,196961.2,0.0
195334.1,204945.0,175912.3,250019.5,204445.1,189735.7,186627.8,197053.7,0.0
195578.1,205277.6,176299.2,250242.9,204867.4,190011.5,186947.1,197389.3,0.0
195586.9,205401.3,176462.8,250274.1,205124.8,190101.2,187099.3,197501.9,0.0
195354.5,205149.2,176180.3,250084.7,204867.1,189884.2,186879.0,197244.9,0.0
195195.4,204859.0,175829.9,249920.3,204442.1,189652.3,186582.9,196967.0,0.0
195333.2,204935.4,175887.9,249994.7,204432.7,189723.2,186616.7,197045.9,0.0
195584.6,205277.6,176279.5,250222.7,204857.7,190001.8,186942.0,197383.4,0.0
195585.7,205396.4,176443.7,250256.5,205113.6,190087.8,187097.3,197496.6,0.0
195349.7,205138.8,176156.7,250064.2,204854.0,189871.8,186876.2,197236.5,0.0
195198.4,204859.7,175810.7,249902.7,204433.5,189648.0,186577.3,196958.7,0.0
195342.0,204945.0,175879.1,250000.5,204431.1,189729.0,186613.7,197049.2,0.0
195587.0,205278.3,176267.9,250228.6,204854.5,190007.9,186934.5,197389.3,0.0
195593.5,205399.0,176435.3,250280.0,205116.2,190099.7,187094.0,197511.6,0.0
195349.0,205142.4,176148.9,250055.1,204856.1,189874.3,186870.4,197242.4,0.0
195194.6,204860.0,175805.6,249893.0,204435.3,189646.2,186576.1,196964.4,0.0
195338.9,204946.2,175871.0,249992.7,204430.3,189724.7,186611.5,197054.1,0.0
195580.4,205285.0,176257.0,250206.9,204853.0,190002.8,186928.0,197389.5,0.0
195584.4,205406.0,176424.0,250247.1,205115.4,190093.5,187084.6,197506.3,0.0
195350.5,205153.1,176146.2,250061.0,204863.7,189878.9,186866.1,197249.1,0.0
195202.8,204874.6,175804.9,249917.4,204448.2,189660.4,186575.3,196976.4,0.0
195334.0,204943.3,175858.6,249986.3,204435.2,189730.9,186605.1,197056.5,0.0
195580.4,205278.9,176246.5,250205.7,204858.5,190005.0,186923.5,197391.7,0.0
195586.8,205408.6,176416.0,250245.0,205120.5,190095.9,187081.8,197503.4,0.0
195345.5,205152.5,176130.5,250049.3,204861.4,189874.1,186864.4,197240.8,0.0
195192.7,204875.6,175789.7,249897.0,204446.0,189652.1,186578.3,196972.0,0.0
195323.3,204946.0,175846.2,249984.2,204435.8,189723.8,186612.2,197054.2,0.0
195571.5,205277.8,176232.7,250208.1,204860.7,190005.3,186935.6,197390.0,0.0
195587.2,205416.8,176408.9,250256.5,205129.9,190103.4,187101.9,197512.0,0.0
195347.5,205160.3,176120.6,250046.6,204865.8,189876.6,186876.4,197244.9,0.0
195192.9,204871.4,175766.6,249879.0,204435.0,189641.6,186572.5,196962.2,0.0
195333.5,204944.9,175822.3,249970.8,204424.2,189715.4,186602.3,197044.6,0.0
195579.3,205281.8,176209.5,250195.5,204851.0,189996.2,186925.4,197384.2,0.0
195589.9,205409.8,176384.2,250242.5,205120.9,190093.5,187091.5,197510.3,0.0
195359.3,205162.1,176110.3,250067.4,204869.5,189882.3,186877.4,197256.8,0.0
195204.0,204885.4,175764.7,249901.2,204447.6,189655.3,186583.3,196980.8,0.0
195332.6,204955.9,175819.2,249966.5,204432.6,189724.4,186614.2,197057.8,0.0
195569.6,205284.6,176202.0,250178.1,204852.6,189998.2,186935.3,197388.4,0.0
195579.3,205407.4,176371.6,250224.7,205113.3,190088.7,187095.4,197508.5,0.0
195344.2,205152.9,176090.6,250038.6,204855.7,189869.9,186876.7,197250.0,0.0
195197.7,204877.6,175751.9,249891.2,204442.7,189652.1,186591.2,196980.7,0.0
195321.7,204942.5,175803.2,249953.4,204428.2,189721.1,186621.1,197054.9,0.0
195570.7,205283.2,176190.7,250169.3,204850.9,189997.3,186939.1,197386.4,0.0
195582.9,205411.1,176362.0,250214.0,205112.8,190089.7,187096.2,197504.8,0.0
195347.3,205160.3,176081.8,250018.0,204860.1,189873.3,186878.7,197244.0,0.0
195194.9,204883.1,175737.7,249858.4,204444.8,189650.2,186587.8,196966.7,0.0
195333.1,204959.5,175798.4,249953.1,204439.3,189725.7,186623.3,197053.0,0.0
195573.2,205285.6,176185.5,250175.8,204858.9,190003.0,186942.6,197391.5,0.0
195581.7,205410.2,176353.6,250212.2,205116.9,190091.8,187098.7,197506.2,0.0
195346.3,205160.8,176076.2,250017.7,204864.5,189875.5,186879.2,197247.0,0.0
195192.4,204874.9,175727.0,249860.6,204441.8,189643.8,186582.5,196968.3,0.0
195328.7,204946.6,175780.2,249930.8,204431.3,189713.8,186613.3,197047.2,0.0
195573.8,205280.8,176167.5,250152.3,204856.5,189992.7,186933.1,197383.2,0.0
195578.8,205397.4,176331.9,250192.8,205114.4,190080.9,187086.7,197497.2,0.0
195345.7,205148.6,176053.0,250001.2,204861.9,189866.0,186869.3,197238.6,0.0
195195.9,204876.4,175713.8,249854.3,204446.5,189644.1,186584.1,196969.5,0.0
195322.8,204939.5,175764.2,249921.1,204430.4,189712.0,186611.8,197047.5,0.0
195566.2,205267.1,176147.9,250140.3,204848.3,189987.4,186930.7,197384.2,0.0
