EEG 1,EEG 2,EEG 3,EEG 4,EEG 5,EEG 6,EEG 7,EEG 8,TRIG
227275.3,240443.2,529479.6,638919.6,222250.6,272613.8,309577.3,267243.8,0.0
227899.3,240911.0,529646.7,638753.3,222748.0,273063.6,310085.9,267712.0,0.0
228450.0,241301.8,529812.4,638657.4,223277.4,273579.3,310769.3,268254.6,0.0
228156.7,241065.0,529289.7,637808.3,223096.5,273429.3,310637.7,268102.8,0.0
227412.7,240513.0,528344.4,636422.9,222443.5,272802.1,309822.0,267442.6,0.0
227244.5,240406.5,527840.5,635481.4,222219.6,272554.6,309410.0,267175.5,0.0
227879.9,240885.5,528034.5,635354.0,222729.9,273016.9,309930.9,267656.0,0.0
228423.6,241272.9,528214.6,635282.8,223254.9,273530.7,310613.3,268196.9,0.0
228120.3,241025.8,527702.4,634450.4,223065.8,273376.3,310476.8,268039.5,0.0
227378.9,240480.7,526780.4,633097.8,222420.4,272755.2,309668.5,267388.1,0.0
227208.1,240375.2,526294.2,632180.9,222195.5,272506.3,309258.3,267120.0,0.0
227838.3,240851.1,526499.5,632073.7,222699.7,272965.2,309775.5,267594.0,0.0
228381.2,241236.5,526686.9,632022.5,223218.4,273473.1,310450.2,268127.0,0.0
228084.6,240998.5,526188.8,631218.2,223034.0,273319.2,310311.8,267971.6,0.0
227349.7,240457.2,525280.1,629890.2,222391.0,272698.8,309501.0,267319.2,0.0
227171.1,240343.7,524795.2,628987.0,222156.1,272441.3,309079.3,267040.0,0.0
227786.1,240804.2,524999.4,628890.8,222649.0,272886.4,309584.3,267501.1,0.0
228330.5,241184.2,525202.6,628868.9,223172.1,273397.3,310264.4,268039.7,0.0
228053.0,240960.7,524732.6,628105.5,222999.9,273257.6,310142.5,267896.8,0.0
227322.4,240427.1,523841.8,626805.4,222359.7,272642.8,309337.3,267247.6,0.0
227147.1,240317.3,523377.0,625931.6,222133.0,272392.0,308922.7,266977.9,0.0
227773.8,240789.0,523606.3,625869.6,222637.6,272849.6,309441.3,267453.0,0.0
228323.3,241177.9,523822.8,625869.1,223161.5,273360.6,310125.4,267990.8,0.0
228024.7,240933.6,523349.0,625111.4,222978.4,273206.6,309991.3,267835.3,0.0
227288.9,240390.0,522466.2,623833.8,222339.4,272590.3,309187.4,267186.6,0.0
227113.2,240280.6,522011.0,622984.6,222114.1,272339.1,308774.7,266914.9,0.0
227736.6,240749.7,522248.0,622941.8,222614.4,272793.5,309287.1,267382.8,0.0
228282.8,241135.0,522475.6,622965.6,223135.5,273304.1,309967.1,267920.4,0.0
228001.0,240906.2,522025.2,622241.6,222959.0,273162.0,309842.2,267775.3,0.0
227267.5,240363.6,521156.7,620985.9,222318.0,272547.2,309039.9,267127.5,0.0
227082.6,240242.7,520705.0,620149.4,222082.1,272290.0,308619.0,266848.6,0.0
227708.0,240713.8,520951.4,620129.8,222581.5,272744.0,309132.2,267318.0,0.0
228260.1,241102.9,521192.3,620176.9,223109.8,273261.2,309817.8,267858.9,0.0
227977.0,240871.4,520754.6,619475.3,222937.8,273122.7,309697.2,267716.1,0.0
227243.0,240330.3,519894.8,618240.2,222294.5,272509.4,308893.3,267070.6,0.0
227074.4,240224.4,519467.2,617438.0,222070.9,272263.6,308482.0,266803.9,0.0
227684.6,240675.5,519709.0,617420.2,222553.3,272699.5,308976.2,267257.6,0.0
228235.6,241065.9,519958.7,617482.6,223077.2,273210.8,309656.5,267795.9,0.0
227949.1,240831.6,519528.6,616798.6,222904.0,273067.1,309534.0,267651.1,0.0
227203.3,240279.8,518673.0,615579.7,222260.7,272448.4,308731.8,267001.3,0.0
227029.6,240171.7,518247.5,614791.6,222034.8,272196.3,308321.1,266733.3,0.0
227658.7,240648.2,518515.3,614810.8,222537.5,272649.4,308835.8,267205.6,0.0
228215.0,241046.5,518783.8,614901.4,223068.5,273167.2,309526.8,267754.9,0.0
227935.3,240820.8,518367.1,614241.2,222896.9,273028.4,309408.5,267615.8,0.0
227197.4,240275.7,517525.7,613044.8,222256.8,272415.4,308609.1,266971.0,0.0
227016.3,240158.2,517105.9,612269.6,222025.3,272160.2,308192.8,266699.8,0.0
227654.0,240638.3,517387.4,612311.7,222531.8,272622.4,308713.0,267179.7,0.0
228222.0,241042.4,517671.2,612427.9,223071.1,273151.4,309413.7,267739.8,0.0
227925.6,240797.0,517251.0,611772.6,222887.2,273000.3,309282.6,267595.2,0.0
227180.8,240245.4,516410.3,610584.3,222236.7,272375.6,308472.1,266947.1,0.0
227005.5,240138.8,516001.6,609828.9,222005.4,272123.6,308056.5,266681.7,0.0
227628.1,240606.5,516283.8,609883.8,222501.9,272577.3,308569.0,267159.2,0.0
228179.2,240994.1,516566.1,610009.0,223031.1,273096.6,309260.9,267716.6,0.0
227906.4,240773.5,516172.1,609389.4,222868.3,272965.8,309149.3,267592.3,0.0
227173.1,240234.2,515350.7,608231.7,222233.7,272355.1,308354.6,266959.4,0.0
226985.2,240114.3,514942.5,607485.9,221997.4,272098.2,307936.9,266690.2,0.0
227606.3,240580.2,515232.2,607552.8,222493.6,272550.0,308451.8,267168.3,0.0
228156.9,240969.1,515523.2,607692.0,223022.4,273066.5,309143.5,267723.4,0.0
227872.2,240738.8,515131.7,607082.4,222849.5,272926.7,309029.4,267591.5,0.0
227130.5,240194.0,514313.3,605936.4,222205.9,272309.8,308232.3,266952.5,0.0
226949.0,240081.4,513916.6,605214.1,221974.0,272056.0,307820.7,266686.5,0.0
227574.9,240552.2,514213.9,605301.9,222472.6,272508.4,308336.5,267162.3,0.0
228130.5,240943.7,514509.7,605460.1,223001.9,273025.4,309027.5,267714.6,0.0
227855.6,240716.9,514128.5,604873.6,222837.3,272892.1,308919.4,267586.4,0.0
227122.3,240174.0,513320.2,603744.0,222199.4,272278.6,308122.0,266946.4,0.0
226934.6,240051.1,512924.1,603025.3,221958.9,272016.4,307700.0,266669.4,0.0
227558.7,240520.4,513232.0,603128.4,222457.0,272469.0,308215.6,267145.9,0.0
228117.8,240916.3,513539.5,603303.9,222989.3,272987.1,308907.8,267699.6,0.0
227837.6,240687.7,513163.7,602728.4,222819.0,272848.8,308795.4,267565.0,0.0
227099.5,240142.1,512360.4,601613.7,222174.5,272231.8,307995.4,266921.8,0.0
226915.6,240024.1,511975.3,600915.3,221938.3,271974.1,307575.3,266648.6,0.0
227540.9,240496.4,512286.8,601031.9,222441.1,272427.2,308090.9,267126.0,0.0
228090.7,240884.4,512592.2,601217.0,222969.0,272940.1,308781.1,267675.4,0.0
227811.8,240653.5,512221.9,600656.1,222800.5,272802.9,308669.5,267541.5,0.0
227081.4,240114.0,511429.0,599556.9,222163.8,272192.8,307876.3,266902.7,0.0
226895.9,239994.2,511049.7,598873.3,221927.5,271936.8,307459.7,266628.9,0.0
227514.0,240455.7,511362.0,598995.3,222420.5,272381.0,307966.9,267095.7,0.0
228070.6,240851.1,511684.8,599201.9,222956.8,272901.5,308665.5,267651.7,0.0
227795.0,240626.5,511326.3,598658.5,222792.2,272767.5,308561.0,267520.7,0.0
227053.9,240078.1,510531.2,597564.4,222146.8,272145.0,307760.8,266871.4,0.0
226865.0,239957.3,510152.5,596884.9,221905.1,271878.5,307336.2,266591.0,0.0
227484.4,240420.4,510467.9,597018.3,222396.0,272322.6,307842.3,267057.6,0.0
228049.6,240821.8,510800.9,597241.8,222934.8,272849.7,308543.9,267617.4,0.0
227783.2,240605.6,510457.0,596723.0,222780.2,272727.8,308449.7,267497.6,0.0
227047.1,240065.5,509674.5,595653.4,222145.4,272117.7,307660.6,266859.2,0.0
226847.5,239935.1,509295.5,594984.9,221900.5,271850.6,307234.1,266573.7,0.0
227463.4,240397.4,509615.8,595129.2,222388.4,272291.3,307736.2,267035.0,0.0
228022.9,240794.3,509948.3,595359.9,222921.3,272812.6,308433.0,267586.4,0.0
227747.3,240570.3,509599.5,594842.9,222754.9,272682.5,308326.2,267453.5,0.0
227012.2,240027.9,508821.0,593779.8,222113.6,272070.2,307532.7,266809.8,0.0
226822.5,239902.7,508456.3,593128.0,221874.1,271811.1,307114.0,266530.5,0.0
227448.8,240374.5,508793.9,593296.4,222374.7,272268.0,307631.2,267005.5,0.0
228014.9,240776.4,509137.5,593544.7,222911.5,272794.0,308333.6,267562.3,0.0
227735.2,240549.7,508791.9,593036.5,222742.3,272657.8,308225.3,267427.0,0.0
226991.2,239998.7,508011.0,591976.8,222094.9,272036.3,307423.5,266774.2,0.0
226803.2,239882.0,507651.9,591335.4,221857.1,271775.8,307003.6,266494.1,0.0
227419.5,240346.9,507989.1,591505.9,222350.2,272221.1,307511.8,266958.7,0.0
227984.6,240746.0,508337.2,591761.5,222888.1,272745.1,308212.3,267512.3,0.0
227720.7,240528.8,508008.9,591273.7,222727.3,272619.8,308114.0,267384.4,0.0
226984.1,239982.3,507238.3,590229.4,222079.4,271999.5,307315.3,266731.8,0.0
226792.3,239857.3,506881.6,589596.9,221837.3,271735.6,306890.7,266445.3,0.0
227410.3,240321.1,507222.6,589778.9,222331.3,272183.3,307399.9,266908.8,0.0
227972.5,240719.5,507573.1,590047.9,222866.9,272706.0,308103.1,267463.3,0.0
227703.9,240499.8,507244.2,589570.4,222708.9,272580.1,308005.2,267337.3,0.0
226967.9,239955.5,506477.4,588539.8,222069.1,271965.6,307210.1,266690.1,0.0
226777.6,239834.0,506124.8,587919.4,221831.4,271704.3,306787.7,266405.3,0.0
227392.4,240296.3,506465.8,588106.6,222323.4,272149.3,307291.2,266865.6,0.0
227957.5,240696.1,506822.9,588385.8,222866.0,272676.5,307992.8,267422.8,0.0
227694.7,240484.9,506508.5,587926.6,222716.0,272556.6,307902.8,267303.8,0.0
226952.8,239941.4,505745.0,586904.9,222072.2,271939.2,307107.4,266657.1,0.0
226744.6,239802.6,505380.5,586277.4,221814.7,271660.5,306670.7,266361.6,0.0
227359.5,240262.8,505724.0,586472.7,222302.5,272101.7,307173.0,266822.4,0.0
227932.5,240672.2,506089.4,586765.4,222845.5,272631.8,307878.2,267381.3,0.0
227672.6,240461.2,505779.2,586314.6,222693.2,272513.3,307786.7,267261.9,0.0
226936.0,239918.5,505025.0,585304.4,222049.2,271899.9,306992.9,266618.4,0.0
226738.8,239790.9,504674.4,584696.2,221800.3,271632.1,306563.2,266331.3,0.0
227354.7,240252.2,505021.5,584902.6,222289.1,272074.4,307067.3,266794.6,0.0
227924.6,240656.1,505390.3,585205.0,222831.1,272604.2,307772.7,267356.2,0.0
227658.6,240437.7,505079.3,584758.1,222674.5,272481.0,307677.1,267232.9,0.0
226921.5,239895.6,504327.3,583754.1,222028.9,271866.3,306880.6,266584.5,0.0
226727.7,239773.8,503984.1,583159.8,221783.3,271603.3,306455.2,266299.7,0.0
227345.3,240241.3,504346.0,583380.9,222277.9,272054.7,306964.6,266767.9,0.0
227909.8,240641.4,504718.8,583690.9,222820.8,272584.4,307671.0,267328.8,0.0
227633.5,240409.7,504402.3,583248.1,222660.1,272453.8,307571.6,267199.4,0.0
226894.0,239863.7,503652.7,582250.9,222018.4,271835.6,306777.5,266552.5,0.0
226709.8,239751.7,503323.0,581672.4,221780.2,271577.6,306359.9,266274.2,0.0
227317.1,240206.4,503674.1,581891.3,222261.2,272012.9,306855.3,266727.7,0.0
227878.8,240603.7,504041.5,582200.6,222793.5,272530.5,307550.6,267277.0,0.0
227614.4,240385.3,503740.2,581773.8,222641.3,272410.4,307460.3,267154.8,0.0
226874.6,239835.6,502998.1,580791.8,222002.4,271799.1,306671.9,266511.8,0.0
226685.1,239717.3,502663.3,580215.6,221757.6,271533.8,306247.2,266224.3,0.0
227300.1,240180.3,503022.5,580449.1,222247.8,271977.3,306750.8,266683.9,0.0
227866.5,240579.3,503399.1,580771.8,222786.4,272503.1,307453.7,267240.0,0.0
227603.2,240361.4,503100.2,580350.6,222628.2,272379.2,307359.9,267114.4,0.0
226870.1,239822.1,502363.2,579376.4,221989.1,271768.1,306570.1,266469.3,0.0
226667.6,239691.1,502027.4,578801.9,221742.9,271501.3,306142.3,266178.1,0.0
227277.6,240150.1,502388.0,579036.2,222227.6,271940.5,306641.0,266633.2,0.0
227843.3,240549.6,502767.4,579365.4,222767.7,272465.9,307340.5,267186.4,0.0
227587.9,240338.9,502477.5,578959.0,222618.1,272349.4,307254.5,267067.3,0.0
226845.5,239787.6,501737.2,577988.1,221973.2,271732.0,306460.4,266419.1,0.0
226647.1,239662.0,501405.8,577424.1,221724.7,271464.6,306032.2,266130.4,0.0
227263.5,240129.2,501774.9,577674.3,222213.9,271909.3,306534.4,266591.8,0.0
227831.2,240530.1,502158.7,578016.9,222754.0,272436.7,307238.5,267149.3,0.0
227568.1,240312.0,501867.5,577617.4,222600.9,272317.7,307149.5,267030.6,0.0
226831.2,239769.5,501135.6,576659.2,221962.2,271705.2,306362.8,266388.8,0.0
226634.1,239646.0,500810.2,576104.4,221716.9,271438.3,305938.3,266104.3,0.0
227250.1,240109.7,501184.5,576365.6,222210.0,271884.3,306443.6,266569.4,0.0
227825.4,240521.8,501579.5,576722.3,222756.8,272418.7,307155.5,267134.1,0.0
227560.3,240304.6,501289.1,576326.9,222600.2,272295.9,307065.0,267008.9,0.0
226806.6,239745.6,500546.2,575361.4,221949.1,271670.7,306261.2,266351.3,0.0
226605.6,239615.3,500220.3,574809.4,221704.8,271403.8,305832.5,266063.6,0.0
227220.5,240076.4,500590.8,575068.7,222191.8,271843.0,306332.6,266522.6,0.0
227788.2,240478.6,500978.0,575423.3,222729.8,272367.1,307035.3,267076.7,0.0
227535.0,240272.4,500702.7,575046.3,222586.8,272257.3,306958.5,266965.0,0.0
226801.1,239732.7,499977.3,574101.8,221948.3,271646.9,306171.4,266321.9,0.0
226603.9,239609.7,499656.7,573562.0,221702.4,271382.4,305748.7,266037.8,0.0
227216.0,240071.0,500027.9,573829.8,222186.4,271822.2,306249.1,266494.3,0.0
227784.0,240472.7,500424.6,574197.8,222726.9,272351.0,306957.6,267052.9,0.0
227529.1,240264.2,500152.1,573829.8,222583.2,272241.4,306880.9,266942.3,0.0
226789.2,239716.1,499421.0,572888.8,221937.9,271624.6,306085.3,266293.5,0.0
226585.1,239585.5,499094.9,572348.0,221686.0,271353.8,305651.0,265998.8,0.0
227197.0,240048.9,499472.6,572620.3,222172.4,271794.4,306150.8,266454.5,0.0
227765.1,240452.3,499869.3,572989.7,222713.8,272322.8,306856.0,267011.7,0.0
227503.3,240237.3,499589.1,572615.5,222562.7,272203.6,306768.2,266892.2,0.0
226769.9,239695.9,498870.0,571685.9,221926.5,271597.0,305982.2,266252.9,0.0
226574.1,239574.2,498553.2,571156.1,221679.5,271331.3,305553.3,265966.5,0.0
227177.7,240027.7,498923.9,571428.0,222158.6,271764.4,306043.5,266414.4,0.0
227748.9,240432.5,499325.3,571804.4,222703.9,272294.7,306749.0,266971.8,0.0
227494.1,240221.6,499054.2,571441.6,222556.5,272181.5,306667.1,266856.7,0.0
226758.1,239677.7,498335.0,570515.2,221914.8,271570.8,305878.6,266213.6,0.0
226548.2,239537.4,498010.8,569981.3,221659.4,271297.0,305441.5,265918.6,0.0
227161.8,240000.4,498390.6,570264.2,222144.9,271736.5,305938.1,266374.7,0.0
227741.3,240414.8,498800.7,570654.6,222694.2,272273.1,306651.4,266940.0,0.0
227486.8,240206.5,498533.0,570300.4,222549.3,272161.6,306572.3,266825.4,0.0
226750.9,239660.3,497814.8,569381.6,221908.5,271551.7,305783.4,266180.3,0.0
226540.0,239520.2,497490.1,568850.3,221647.7,271273.2,305342.0,265877.7,0.0
227141.6,239972.1,497866.0,569134.3,222124.4,271707.6,305834.1,266328.0,0.0
227719.3,240384.8,498278.4,569529.8,222673.5,272243.3,306548.3,266894.3,0.0
227469.5,240183.7,498015.9,569184.3,222533.4,272135.5,306471.8,266784.9,0.0
226735.5,239640.9,497301.6,568273.6,221898.8,271529.0,305685.9,266144.8,0.0
226531.8,239507.5,496984.9,567753.9,221646.5,271256.3,305250.9,265850.8,0.0
227144.8,239971.6,497372.7,568051.4,222132.5,271698.7,305750.5,266310.1,0.0
227721.9,240381.0,497789.1,568452.6,222680.5,272236.1,306465.8,266876.3,0.0
227465.0,240166.7,497525.5,568109.3,222534.0,272122.8,306387.3,266762.2,0.0
226733.0,239628.0,496815.1,567206.1,221899.3,271518.5,305605.7,266124.8,0.0
226526.9,239494.8,496498.3,566691.8,221645.5,271247.0,305171.0,265831.5,0.0
227131.5,239952.6,496882.2,566991.3,222128.2,271683.1,305665.7,266284.3,0.0
227703.7,240359.7,497294.2,567395.1,222674.2,272214.4,306375.6,266845.8,0.0
227451.9,240153.7,497036.4,567061.0,222532.7,272105.2,306300.4,266737.4,0.0
226712.1,239605.6,496324.3,566156.9,221891.0,271492.7,305511.3,266094.3,0.0
226493.3,239456.8,495998.5,565634.0,221624.2,271207.0,305060.6,265787.0,0.0
227106.8,239917.9,496386.4,565939.4,222106.1,271644.2,305554.3,266241.4,0.0
227683.1,240325.6,496803.2,566349.4,222650.3,272177.0,306268.8,266804.4,0.0
227430.2,240115.9,496547.0,566020.3,222506.0,272067.5,306196.8,266692.3,0.0
226689.2,239564.6,495834.5,565116.5,221861.1,271451.7,305406.8,266047.1,0.0
226480.5,239428.7,495520.5,564607.1,221604.4,271174.2,304970.0,265751.5,0.0
227090.9,239889.7,495912.5,564920.9,222088.6,271614.7,305469.1,266209.8,0.0
227662.0,240292.2,496326.8,565333.3,222629.5,272143.6,306175.6,266769.3,0.0
227412.9,240088.1,496074.4,565013.3,222487.9,272037.2,306101.2,266661.5,0.0
226675.1,239544.9,495374.3,564127.7,221853.4,271432.1,305319.7,266024.7,0.0
226464.7,239408.5,495065.2,563627.5,221596.2,271155.6,304883.0,265727.6,0.0
227069.2,239861.8,495451.4,563936.0,222072.3,271584.7,305371.4,266173.3,0.0
227638.4,240262.0,495867.9,564349.8,222612.8,272111.1,306076.8,266727.6,0.0
227395.4,240061.0,495623.5,564038.9,222474.9,272008.3,306009.7,266625.8,0.0
226662.9,239522.1,494926.8,563158.7,221840.7,271404.6,305231.4,265991.8,0.0
226454.1,239388.2,494621.1,562664.0,221588.5,271130.9,304797.2,265699.0,0.0
227066.4,239852.4,495015.9,562983.5,222074.7,271571.4,305294.7,266156.8,0.0
227632.2,240251.2,495426.7,563395.1,222609.2,272095.5,305994.4,266710.3,0.0
227381.1,240043.3,495174.9,563081.5,222465.3,271986.2,305919.3,266602.4,0.0
226645.9,239500.8,494478.8,562205.3,221829.5,271379.3,305137.9,265966.6,0.0
226437.0,239369.7,494176.2,561717.1,221573.3,271105.0,304703.3,265672.8,0.0
227056.0,239841.4,494582.3,562052.2,222066.6,271553.1,305208.5,266138.7,0.0
227632.1,240250.5,495007.2,562484.8,222613.3,272088.1,305923.3,266705.3,0.0
227373.1,240035.8,494749.0,562167.5,222461.3,271968.1,305841.9,266587.4,0.0
226633.8,239490.0,494048.7,561290.9,221822.5,271356.7,305059.9,265948.0,0.0
226413.6,239344.6,493734.9,560792.4,221556.2,271067.5,304614.6,265641.7,0.0
227018.4,239800.6,494131.0,561118.3,222036.8,271499.6,305109.5,266094.0,0.0
227597.5,240209.7,494563.3,561554.4,222587.5,272036.6,305828.8,266661.5,0.0
227352.0,240005.3,494324.8,561253.1,222450.8,271933.6,305764.6,266559.1,0.0
226618.8,239464.9,493631.3,560382.5,221815.8,271330.4,304986.9,265925.7,0.0
226401.8,239325.1,493321.7,559891.8,221552.6,271050.0,304543.6,265625.7,0.0
227002.4,239779.2,493715.0,560217.2,222030.5,271482.9,305035.5,266077.8,0.0
227582.5,240194.0,494147.2,560660.2,222583.6,272021.6,305755.4,266654.3,0.0
227343.3,240000.5,493914.2,560370.7,222451.1,271922.2,305694.7,266564.8,0.0
226611.2,239463.5,493224.3,559507.4,221816.3,271317.2,304918.1,265938.0,0.0
226391.1,239323.3,492916.3,559022.8,221554.1,271036.7,304478.2,265647.0,0.0
226989.5,239777.2,493307.0,559352.0,222026.3,271466.4,304966.4,266103.4,0.0
227563.5,240185.2,493736.6,559800.0,222574.7,272005.5,305687.0,266683.3,0.0
227321.9,239987.5,493501.6,559517.8,222445.4,271910.7,305629.1,266597.6,0.0
226586.2,239444.1,492807.5,558659.9,221809.4,271307.4,304853.2,265973.0,0.0
226371.2,239305.2,492502.2,558183.1,221548.4,271030.4,304416.1,265685.3,0.0
226983.9,239769.0,492904.6,558525.7,222033.6,271471.9,304916.1,266151.0,0.0
227559.5,240175.7,493335.1,558973.4,222578.4,272006.7,305633.6,266723.2,0.0
227308.7,239965.2,493092.3,558683.5,222434.4,271896.2,305566.6,266622.6,0.0
226569.9,239414.5,492397.9,557826.4,221796.6,271287.7,304788.4,265991.8,0.0
226355.8,239275.8,492092.6,557349.4,221532.5,271005.9,304347.3,265696.9,0.0
226958.1,239728.5,492489.3,557685.1,222007.0,271434.6,304839.7,266151.0,0.0
227526.8,240126.7,492915.5,558130.0,222547.7,271961.8,305552.8,266718.1,0.0
227284.3,239923.5,492683.1,557853.0,222415.5,271859.0,305494.4,266627.3,0.0
226553.1,239385.3,491996.0,557002.0,221781.8,271253.3,304719.8,265997.5,0.0
226331.8,239239.9,491688.1,556521.6,221511.3,270964.7,304273.5,265693.4,0.0
226932.4,239692.8,492082.5,556856.3,221983.3,271388.3,304758.1,266139.2,0.0
227515.6,240109.5,492525.8,557318.3,222541.0,271930.7,305483.4,266715.2,0.0
227272.8,239907.1,492297.3,557046.9,222412.7,271832.7,305427.9,266622.0,0.0
226545.0,239373.2,491614.5,556203.8,221782.3,271232.3,304656.9,265996.7,0.0
226319.3,239224.8,491305.8,555726.9,221514.6,270946.7,304211.3,265693.3,0.0
226913.5,239672.2,491700.8,556068.3,221987.5,271372.4,304699.8,266141.7,0.0
227497.1,240087.2,492143.6,556534.4,222542.0,271911.5,305424.6,266716.4,0.0
227261.5,239891.7,491920.2,556268.4,222415.1,271814.5,305373.4,266626.1,0.0
226525.9,239345.9,491234.5,555421.8,221778.8,271205.9,304599.2,265993.3,0.0
226299.0,239193.6,490926.1,554944.9,221506.6,270914.5,304147.0,265685.2,0.0
226892.7,239641.2,491318.1,555281.6,221972.2,271333.2,304625.0,266125.6,0.0
227476.0,240051.7,491757.6,555749.7,222520.9,271868.7,305347.0,266695.5,0.0
227242.6,239854.6,491537.3,555490.9,222394.3,271772.1,305295.7,266606.1,0.0
226505.0,239310.8,490853.5,554648.0,221756.2,271165.7,304520.2,265972.2,0.0
226274.8,239160.0,490545.9,554174.5,221484.0,270875.3,304071.6,265663.6,0.0
226867.6,239603.4,490940.7,554514.7,221952.9,271296.6,304553.1,266105.2,0.0
227462.5,240028.7,491393.4,554992.6,222513.2,271842.3,305284.7,266684.0,0.0
227231.6,239841.0,491176.8,554736.1,222388.3,271749.5,305238.2,266595.3,0.0
226490.0,239294.2,490488.4,553888.6,221747.9,271138.5,304457.4,265956.2,0.0
226259.4,239141.0,490179.2,553413.7,221474.0,270844.7,304002.9,265644.7,0.0
226857.3,239592.0,490580.1,553763.3,221947.7,271271.7,304490.8,266090.3,0.0
227444.8,240009.3,491031.6,554239.7,222505.3,271815.5,305218.5,266666.0,0.0
227214.2,239817.3,490815.3,553984.5,222377.3,271722.4,305166.9,266575.4,0.0
226472.9,239271.5,490126.9,553140.9,221736.5,271111.6,304383.5,265935.3,0.0
226255.4,239131.4,489832.7,552684.8,221478.3,270833.3,303947.0,265637.6,0.0
226843.2,239573.9,490227.2,553031.0,221945.1,271252.2,304427.0,266076.4,0.0
227421.8,239986.7,490669.9,553501.3,222493.8,271785.0,305145.4,266642.3,0.0
227184.8,239791.0,490449.0,553244.8,222366.4,271688.3,305093.1,266548.0,0.0
226451.4,239250.8,489770.1,552412.1,221735.0,271085.5,304323.0,265914.2,0.0
226231.8,239108.7,489471.6,551949.9,221469.8,270801.6,303878.3,265606.3,0.0
226822.5,239552.4,489867.2,552295.6,221935.2,271218.4,304355.5,266039.9,0.0
227407.6,239966.5,490316.8,552773.8,222488.0,271755.8,305077.5,266608.3,0.0
227178.5,239775.3,490104.6,552524.8,222365.5,271662.5,305028.7,266516.4,0.0
226436.0,239226.4,489421.8,551687.9,221729.7,271053.7,304250.7,265875.3,0.0
226206.9,239079.1,489119.8,551225.4,221459.1,270766.7,303800.3,265565.6,0.0
226810.2,239535.8,489528.9,551587.7,221934.6,271198.5,304287.7,266012.4,0.0
227394.5,239949.9,489978.1,552066.0,222486.2,271738.2,305008.0,266580.3,0.0
227162.8,239755.8,489763.0,551817.9,222359.1,271644.6,304954.6,266486.8,0.0
226419.1,239201.9,489073.5,550980.3,221712.3,271027.3,304167.7,265838.8,0.0
226191.4,239052.8,488770.3,550521.1,221442.1,270737.4,303716.5,265528.0,0.0
226792.3,239510.2,489177.8,550882.6,221916.4,271169.5,304203.3,265974.3,0.0
227385.1,239936.7,489637.1,551376.1,222476.8,271718.6,304934.1,266552.2,0.0
227145.1,239733.9,489417.9,551130.6,222343.4,271620.4,304880.6,266456.1,0.0
226412.5,239190.4,488742.5,550309.3,221710.4,271017.7,304109.8,265825.2,0.0
226188.0,239043.3,488445.6,549855.8,221440.6,270732.7,303664.7,265520.8,0.0
226775.7,239486.0,488843.6,550209.4,221902.4,271148.7,304141.0,265957.5,0.0
227363.6,239903.1,489296.3,550699.6,222456.3,271687.5,304865.1,266529.7,0.0
227140.7,239715.9,489090.2,550466.8,222335.3,271602.2,304821.7,266442.6,0.0
226403.4,239171.6,488413.3,549644.6,221699.2,270995.2,304043.9,265807.2,0.0
226176.9,239025.6,488119.1,549196.4,221432.8,270708.8,303600.4,265504.2,0.0
226771.3,239472.8,488523.0,549559.3,221901.5,271132.5,304084.2,265945.8,0.0
227360.2,239890.9,488979.6,550052.3,222459.3,271677.4,304812.2,266520.8,0.0
227130.7,239701.3,488769.5,549814.6,222333.0,271584.1,304764.3,266428.7,0.0
226391.5,239157.3,488090.8,548992.5,221695.6,270975.0,303989.5,265791.7,0.0
226157.8,239000.8,487785.7,548539.4,221421.1,270684.9,303537.1,265479.0,0.0
226744.0,239437.7,488176.7,548889.4,221876.9,271095.8,304002.1,265904.8,0.0
227335.5,239857.5,488634.8,549383.4,222433.5,271638.0,304724.8,266478.2,0.0
227107.1,239667.8,488426.1,549148.9,222307.9,271545.0,304675.0,266387.3,0.0
226371.3,239125.0,487751.4,548333.4,221671.4,270938.0,303900.4,265753.6,0.0
226144.3,238975.9,487455.6,547884.8,221399.3,270649.2,303451.2,265445.7,0.0
226734.9,239420.2,487857.6,548244.7,221861.3,271068.6,303926.2,265880.9,0.0
227326.0,239840.5,488316.4,548743.9,222418.5,271612.7,304652.0,266456.8,0.0
227103.6,239656.0,488118.7,548525.7,222304.3,271532.2,304615.9,266378.7,0.0
226367.1,239118.0,487444.4,547712.7,221668.2,270927.3,303843.9,265744.1,0.0
226128.4,238961.3,487140.7,547259.9,221392.2,270631.5,303390.0,265427.6,0.0
226713.9,239398.1,487544.2,547625.4,221854.6,271048.2,303864.4,265862.7,0.0
227312.8,239829.9,488010.4,548131.5,222415.8,271593.5,304594.1,266439.1,0.0
227090.4,239646.7,487810.6,547909.3,222299.5,271508.8,304552.9,266352.9,0.0
226346.5,239095.2,487133.5,547095.8,221664.2,270904.5,303778.2,265715.8,0.0
226102.8,238932.8,486826.2,546639.3,221383.7,270605.8,303316.7,265395.2,0.0
226699.6,239388.7,487231.0,547004.5,221849.5,271024.6,303791.9,265830.7,0.0
227301.0,239818.8,487700.0,547515.1,222414.7,271575.1,304526.1,266410.8,0.0
227075.7,239628.0,487499.1,547294.2,222296.5,271487.6,304485.2,266323.0,0.0
226327.5,239072.5,486820.8,546476.8,221655.6,270874.5,303705.6,265681.2,0.0
226086.4,238913.3,486517.7,546023.6,221373.9,270574.0,303245.2,265362.4,0.0
226680.3,239365.5,486924.1,546393.3,221838.8,270993.8,303720.3,265797.1,0.0
227278.3,239791.7,487389.3,546902.9,222399.5,271541.3,304451.0,266373.3,0.0
227054.7,239599.6,487190.2,546682.9,222280.8,271454.6,304411.5,266287.9,0.0
226316.7,239051.1,486518.2,545873.6,221644.1,270848.3,303638.8,265650.0,0.0
226085.9,238900.0,486217.8,545425.9,221366.6,270555.5,303181.0,265331.1,0.0
226675.0,239342.8,486621.5,545797.5,221831.9,270973.9,303653.4,265764.4,0.0
227276.0,239774.0,487090.0,546313.1,222395.9,271522.8,304387.9,266343.6,0.0
227052.0,239587.4,486894.9,546102.7,222281.3,271442.4,304355.1,266261.4,0.0
226308.8,239035.6,486220.4,545293.4,221642.0,270836.1,303582.1,265621.5,0.0
226074.6,238882.3,485921.8,544846.0,221362.9,270540.1,303123.6,265301.4,0.0
226659.1,239325.1,486326.9,545217.4,221825.9,270957.6,303596.1,265733.0,0.0
227251.9,239741.5,486789.4,545728.3,222385.7,271501.4,304322.9,266305.8,0.0
227036.8,239560.3,486599.2,545521.4,222275.0,271421.8,304289.3,266225.3,0.0
226302.5,239018.8,485933.6,544719.9,221640.4,270817.5,303518.5,265590.1,0.0
226058.0,238853.3,485628.4,544270.9,221355.7,270515.0,303055.8,265266.4,0.0
226630.9,239281.9,486023.9,544633.6,221805.9,270922.0,303518.7,265689.7,0.0
227237.7,239723.7,486501.3,545161.1,222374.0,271478.1,304258.5,266275.8,0.0
227018.8,239542.6,486307.4,544954.9,222259.1,271398.8,304223.3,266196.3,0.0
226285.5,239001.8,485639.3,544153.8,221625.3,270797.5,303454.6,265562.7,0.0
226047.8,238844.6,485336.1,543706.5,221344.1,270496.9,302992.3,265241.5,0.0
226635.0,239286.7,485741.8,544082.2,221807.9,270914.5,303465.5,265676.5,0.0
227236.0,239718.3,486216.5,544605.4,222372.9,271465.1,304200.8,266258.9,0.0
227015.6,239535.6,486025.7,544401.4,222257.1,271382.9,304167.8,266179.9,0.0
226278.3,238991.5,485358.8,543602.6,221622.8,270777.0,303396.8,265544.6,0.0
226038.6,238834.4,485057.3,543161.4,221343.1,270478.0,302934.8,265223.5,0.0
226627.4,239279.6,485467.5,543541.3,221809.6,270897.7,303408.3,265658.8,0.0
227215.9,239694.6,485932.6,544057.1,222366.8,271439.4,304134.3,266231.9,0.0
226999.0,239511.3,485738.4,543851.3,222250.3,271355.7,304098.7,266148.0,0.0
226263.4,238966.3,485071.2,543054.7,221614.5,270752.0,303328.7,265513.8,0.0
226022.2,238806.4,484771.4,542613.7,221332.3,270453.1,302866.7,265193.0,0.0
226607.9,239248.6,485177.0,542990.3,221791.1,270869.0,303337.3,265623.5,0.0
227209.9,239679.8,485653.8,543519.6,222357.0,271423.3,304074.6,266207.0,0.0
226990.8,239494.6,485466.1,543320.8,222246.8,271342.9,304041.5,266128.5,0.0
226248.7,238942.1,484795.3,542518.7,221610.8,270735.8,303265.7,265489.8,0.0
226001.5,238777.6,484491.2,542073.2,221325.2,270432.5,302796.4,265163.7,0.0
226588.5,239223.2,484899.5,542452.1,221786.8,270847.8,303264.0,265592.1,0.0
227184.6,239646.9,485370.7,542975.1,222348.0,271393.4,303992.3,266168.3,0.0
226972.6,239470.2,485186.3,542783.0,222240.5,271316.8,303962.5,266095.0,0.0
226246.1,238938.4,484529.6,542000.8,221613.2,270722.1,303201.8,265470.4,0.0
225993.4,238769.8,484218.3,541550.9,221320.4,270411.9,302730.2,265140.3,0.0
226572.7,239206.4,484617.9,541925.9,221775.4,270821.0,303196.6,265569.5,0.0
227170.3,239632.9,485090.6,542451.8,222336.8,271368.3,303928.2,266149.1,0.0
226960.0,239457.7,484912.0,542263.9,222229.8,271294.5,303906.3,266078.9,0.0
226220.7,238912.4,484246.6,541473.4,221594.0,270688.1,303138.8,265443.5,0.0
225968.6,238743.7,483940.2,541026.5,221303.1,270377.3,302666.3,265111.5,0.0
226559.6,239193.4,484356.2,541414.6,221770.4,270798.5,303140.5,265549.3,0.0
227159.1,239621.3,484834.8,541948.4,222336.4,271350.2,303878.7,266133.8,0.0
226936.7,239433.2,484644.1,541752.6,222221.4,271268.2,303846.8,266055.6,0.0
226203.8,238890.7,483980.2,540963.9,221587.3,270666.5,303080.6,265425.7,0.0
225963.9,238731.8,483682.9,540529.7,221307.7,270371.4,302622.3,265108.6,0.0
226556.7,239183.5,484101.3,540924.3,221779.0,270799.9,303102.6,265549.9,0.0
227151.5,239608.3,484576.3,541454.3,222340.5,271350.3,303833.0,266127.9,0.0
226931.0,239420.6,484385.9,541257.9,222223.5,271267.8,303797.2,266045.6,0.0
226192.6,238871.1,483721.6,540468.1,221589.5,270667.2,303028.2,265410.1,0.0
225936.8,238697.5,483408.7,540018.0,221293.5,270353.7,302549.9,265073.0,0.0
226523.0,239143.8,483817.2,540403.0,221753.0,270767.4,303016.3,265501.3,0.0
227118.6,239568.7,484288.8,540934.4,222311.6,271312.6,303744.7,266078.1,0.0
226902.8,239387.5,484104.5,540746.8,222199.9,271234.4,303717.3,266004.0,0.0
226171.7,238846.8,483445.6,539964.9,221572.7,270637.0,302954.7,265376.4,0.0
225921.7,238680.7,483142.9,539529.9,221285.5,270333.8,302487.7,265050.3,0.0
226501.3,239119.2,483548.1,539912.9,221739.5,270743.5,302951.4,265477.4,0.0
227107.7,239554.9,484030.7,540452.9,222304.0,271297.0,303690.4,266063.2,0.0
226902.0,239383.3,483859.7,540280.1,222204.2,271231.8,303676.4,266001.3,0.0
226162.0,238835.3,483197.0,539495.9,221570.0,270628.9,302908.9,265366.4,0.0
225908.7,238667.7,482893.4,539057.1,221282.6,270325.5,302439.2,265038.3,0.0
226490.8,239110.4,483299.0,539439.9,221740.4,270736.1,302901.4,265463.6,0.0
227090.6,239534.9,483773.3,539972.8,222302.3,271281.0,303630.2,266038.7,0.0
226885.1,239359.8,483597.1,539792.1,222195.8,271209.0,303608.6,265968.3,0.0
226151.2,238816.6,482938.6,539009.1,221563.4,270608.8,302844.3,265337.5,0.0
225904.8,238655.6,482644.7,538580.8,221279.9,270310.1,302384.2,265017.8,0.0
226484.4,239094.8,483053.2,538967.4,221734.5,270720.5,302847.8,265444.9,0.0
227085.3,239522.7,483529.9,539503.1,222293.6,271266.1,303575.0,266020.6,0.0
226869.3,239337.2,483344.8,539315.6,222179.7,271184.2,303544.3,265940.6,0.0
226129.8,238787.8,482679.1,538526.5,221540.5,270574.5,302769.9,265300.7,0.0
225882.1,238626.8,482380.5,538092.8,221252.9,270272.7,302301.7,264974.7,0.0
226464.1,239071.0,482791.7,538478.4,221707.2,270685.0,302766.7,265400.7,0.0
227070.1,239505.8,483278.2,539024.3,222275.0,271240.5,303506.8,265986.1,0.0
226863.4,239330.8,483102.4,538851.7,222171.9,271169.7,303488.2,265917.7,0.0
226122.6,238779.6,482437.4,538070.4,221535.9,270564.7,302718.4,265282.1,0.0
225869.8,238612.5,482135.5,537639.6,221250.1,270258.4,302251.3,264956.0,0.0
226447.2,239051.9,482540.9,538027.9,221706.0,270665.8,302712.5,265380.8,0.0
227049.1,239481.2,483022.3,538572.4,222270.1,271216.2,303446.9,265961.2,0.0
226845.3,239309.2,482850.0,538398.8,222162.8,271144.5,303426.4,265889.7,0.0
226112.0,238765.5,482192.7,537621.7,221530.8,270542.4,302661.1,265257.2,0.0
225865.1,238602.9,481892.5,537189.8,221242.4,270238.3,302191.8,264930.0,0.0
226440.1,239035.9,482296.2,537573.3,221692.1,270644.0,302648.1,265352.9,0.0
227040.0,239461.3,482777.2,538112.2,222253.2,271189.6,303377.9,265933.1,0.0
226836.1,239288.2,482606.4,537942.5,222151.3,271119.6,303361.1,265871.2,0.0
226107.0,238751.7,481953.5,537173.9,221523.7,270522.0,302603.5,265253.0,0.0
225853.6,238582.1,481651.3,536741.3,221232.9,270216.2,302132.8,264932.6,0.0
226431.5,239019.1,482058.0,537128.2,221686.0,270626.9,302594.4,265366.1,0.0
227034.0,239448.3,482542.3,537677.6,222252.6,271180.1,303334.6,265959.7,0.0
226835.7,239280.9,482377.2,537516.0,222154.5,271117.3,303324.4,265908.6,0.0
226106.5,238747.3,481727.8,536752.7,221530.5,270527.0,302569.7,265296.5,0.0
225845.8,238576.4,481426.8,536323.9,221240.3,270222.2,302102.7,264980.7,0.0
226413.3,239002.5,481826.7,536703.9,221686.8,270622.6,302557.6,265409.3,0.0
227016.0,239430.6,482309.6,537251.8,222253.8,271174.1,303296.5,266001.1,0.0
226825.3,239269.1,482151.2,537098.1,222165.9,271117.1,303295.8,265955.5,0.0
226080.0,238716.0,481490.1,536324.9,221529.0,270512.6,302532.1,265332.6,0.0
225815.3,238539.3,481177.5,535882.8,221224.3,270191.1,302051.9,264999.0,0.0
226393.6,238976.5,481584.8,536269.6,221675.5,270596.6,302513.0,265427.7,0.0
227001.6,239408.8,482071.2,536819.6,222242.5,271149.1,303252.5,266016.9,0.0
226798.6,239235.3,481906.1,536658.8,222145.0,271082.9,303243.5,265960.4,0.0
226066.9,238698.8,481254.9,535895.4,221518.4,270486.9,302488.1,265342.6,0.0
225801.8,238519.9,480945.9,535460.6,221217.8,270171.2,302012.6,265013.4,0.0
226376.8,238957.3,481348.0,535847.8,221663.9,270572.6,302467.8,265436.2,0.0
226985.2,239391.5,481835.6,536402.2,222229.8,271125.4,303205.2,266024.0,0.0
226789.2,239221.7,481673.1,536246.4,222136.0,271063.1,303196.2,265970.7,0.0
226057.9,238682.1,481021.2,535481.5,221508.4,270465.3,302438.8,265348.8,0.0
225796.5,238506.2,480714.3,535047.9,221210.9,270149.9,301961.9,265015.7,0.0
226372.8,238943.3,481123.5,535439.4,221662.6,270556.2,302420.9,265441.6,0.0
226968.7,239367.0,481605.7,535987.5,222223.2,271101.5,303152.5,266022.8,0.0
226773.1,239202.5,481446.8,535836.4,222131.6,271038.1,303146.7,265968.0,0.0
226040.3,238661.6,480796.9,535077.3,221506.2,270443.1,302393.2,265348.3,0.0
225782.0,238491.2,480495.4,534652.4,221212.4,270134.4,301922.7,265021.9,0.0
226341.6,238911.7,480888.3,535031.1,221648.3,270526.6,302369.0,265435.6,0.0
226947.5,239341.5,481377.8,535587.1,222215.8,271077.6,303110.9,266024.9,0.0
226746.9,239171.9,481216.4,535434.8,222120.4,271014.3,303105.1,265969.5,0.0
226025.8,238645.0,480575.0,534684.3,221501.2,270427.2,302359.3,265358.6,0.0
225757.0,238466.2,480262.5,534245.9,221196.5,270104.1,301876.5,265020.0,0.0
226321.5,238891.3,480658.6,534626.4,221635.4,270496.2,302321.8,265431.3,0.0
226939.3,239333.6,481155.1,535193.1,222214.9,271058.6,303072.3,266026.5,0.0
226747.8,239168.7,480998.0,535043.4,222124.4,271000.9,303070.1,265972.3,0.0
226012.3,238623.4,480346.5,534278.5,221492.8,270400.6,302309.5,265345.5,0.0
225746.4,238442.5,480041.2,533846.9,221195.3,270084.9,301832.9,265012.3,0.0
226314.4,238868.9,480440.0,534229.3,221635.7,270477.7,302279.9,265427.3,0.0
226929.6,239310.2,480936.3,534793.1,222209.3,271034.1,303024.8,266019.4,0.0
226736.6,239148.3,480782.5,534650.0,222122.3,270976.8,303026.7,265966.9,0.0
226001.1,238604.1,480129.7,533888.3,221492.3,270376.5,302268.1,265337.6,0.0
225734.8,238425.4,479820.5,533454.3,221189.0,270055.0,301785.9,264996.0,0.0
226299.7,238852.5,480220.4,533840.9,221631.8,270450.8,302234.5,265410.5,0.0
226907.0,239284.2,480710.8,534395.8,222201.5,271003.2,302972.6,265995.4,0.0
226724.8,239131.6,480560.8,534252.3,222116.4,270949.8,302975.1,265945.0,0.0
225993.6,238590.4,479914.5,533496.2,221490.2,270353.8,302222.4,265321.6,0.0
225735.3,238418.6,479613.1,533067.6,221193.6,270039.6,301748.9,264987.5,0.0
226302.4,238850.4,480013.1,533451.1,221637.0,270436.5,302197.6,265398.0,0.0
226905.2,239280.9,480501.2,534006.1,222203.3,270987.0,302934.2,265977.3,0.0
226714.0,239116.1,480350.7,533864.6,222116.4,270932.3,302937.5,265924.1,0.0
225985.7,238579.8,479702.5,533107.9,221486.2,270335.3,302180.8,265295.4,0.0
225715.3,238398.4,479390.1,532670.8,221179.9,270013.4,301693.8,264951.0,0.0
226291.8,238836.6,479799.1,533066.1,221630.3,270419.6,302148.8,265374.7,0.0
226904.9,239274.3,480295.8,533635.1,222205.0,270979.7,302895.8,265966.9,0.0
226700.5,239097.2,480129.3,533478.9,222102.8,270910.2,302883.5,265898.9,0.0
225960.8,238545.9,479477.3,532715.3,221469.4,270304.5,302120.1,265265.9,0.0
225696.3,238369.8,479171.9,532283.7,221167.8,269987.1,301637.1,264926.4,0.0
226266.8,238800.9,479575.4,532670.2,221609.6,270384.9,302082.9,265338.1,0.0
226884.3,239243.1,480076.3,533241.8,222187.5,270948.4,302828.7,265930.0,0.0
226694.8,239080.0,479920.8,533100.9,222098.1,270894.5,302825.8,265875.4,0.0
225950.6,238527.3,479257.5,532333.9,221457.4,270287.4,302057.8,265240.8,0.0
225674.8,238343.6,478941.0,531896.4,221146.1,269960.1,301567.7,264895.2,0.0
226249.5,238780.9,479349.8,532292.1,221594.1,270362.6,302021.3,265315.1,0.0
226863.8,239218.9,479847.4,532861.5,222167.0,270920.5,302766.7,265905.7,0.0
226671.3,239053.1,479691.1,532718.0,222074.3,270859.5,302764.1,265849.3,0.0
225933.9,238506.0,479038.6,531957.3,221441.3,270257.1,302002.5,265219.8,0.0
225667.3,238330.5,478733.1,531529.6,221141.5,269940.3,301522.4,264882.6,0.0
226237.1,238765.6,479141.4,531926.5,221587.5,270342.4,301973.4,265300.4,0.0
226845.3,239200.7,479635.9,532493.3,222157.0,270897.0,302713.0,265887.1,0.0
226672.1,239053.5,479499.1,532372.1,222085.1,270856.7,302731.8,265850.8,0.0
225938.3,238511.3,478850.1,531618.3,221458.8,270259.4,301976.7,265227.8,0.0
225651.7,238315.3,478521.5,531168.9,221139.5,269920.6,301474.9,264868.1,0.0
226215.8,238744.4,478922.2,531556.0,221578.5,270313.6,301920.1,265277.8,0.0
226830.7,239183.3,479423.5,532127.4,222152.7,270873.1,302670.0,265868.6,0.0
226646.3,239024.1,479278.2,531996.7,222071.4,270822.2,302679.6,265821.1,0.0
225916.3,238487.2,478633.5,531245.5,221444.2,270227.5,301926.8,265195.8,0.0
225635.4,238295.9,478314.5,530804.3,221128.1,269894.9,301431.0,264841.7,0.0
226203.2,238726.6,478719.3,531197.0,221568.7,270291.4,301876.2,265252.3,0.0
226825.0,239176.9,479225.3,531780.3,222151.6,270858.3,302629.3,265850.7,0.0
226645.6,239024.1,479081.3,531653.8,222072.7,270810.7,302644.3,265806.6,0.0
225911.3,238480.4,478433.4,530902.6,221444.4,270215.4,301893.8,265182.4,0.0
225632.7,238293.0,478116.7,530465.8,221131.1,269886.1,301402.1,264832.3,0.0
226200.4,238724.6,478519.2,530857.4,221571.7,270279.4,301846.5,265240.8,0.0
226821.6,239169.7,479025.2,531438.5,222154.8,270845.0,302599.5,265837.3,0.0
226641.3,239014.6,478886.1,531315.8,222077.5,270799.8,302614.8,265794.5,0.0
225895.5,238456.6,478228.7,530555.0,221439.5,270193.6,301851.8,265160.5,0.0
225617.0,238268.4,477912.9,530115.8,221124.6,269861.3,301356.6,264807.3,0.0
226184.7,238699.6,478316.6,530504.3,221562.5,270252.7,301796.6,265212.7,0.0
226804.8,239143.3,478820.4,531081.4,222138.1,270814.3,302544.2,265805.0,0.0
226625.2,238988.7,478680.3,530960.7,222058.6,270769.8,302558.7,265764.1,0.0
225893.8,238447.5,478033.8,530214.1,221428.5,270175.8,301806.9,265141.5,0.0
225614.2,238257.4,477716.9,529777.3,221115.1,269848.0,301313.9,264788.9,0.0
226181.3,238688.9,478120.7,530168.3,221555.2,270243.6,301754.4,265197.1,0.0
226793.0,239125.0,478617.6,530738.1,222125.7,270801.8,302494.8,265783.5,0.0
226606.8,238964.8,478468.7,530604.1,222039.0,270746.3,302498.9,265730.9,0.0
225872.6,238419.7,477823.1,529855.4,221412.1,270150.5,301746.9,265107.2,0.0
225592.5,238227.0,477510.2,529419.9,221099.4,269823.8,301257.4,264758.1,0.0
226161.3,238659.2,477914.7,529809.1,221537.6,270218.6,301700.8,265165.6,0.0
226776.3,239098.8,478415.1,530379.5,222110.1,270773.5,302444.1,265752.5,0.0
226603.9,238953.2,478280.6,530261.8,222037.1,270732.3,302463.1,265714.5,0.0
225872.8,238413.1,477642.1,529521.9,221417.5,270144.6,301718.5,265098.3,0.0
225589.8,238221.9,477329.2,529087.6,221105.8,269815.6,301228.2,264750.5,0.0
226152.1,238649.2,477726.9,529471.9,221536.9,270202.6,301663.5,265150.5,0.0
226767.9,239089.5,478230.0,530048.8,222111.2,270762.2,302409.2,265737.2,0.0
226594.5,238939.2,478093.7,529929.1,222035.0,270715.8,302426.1,265694.2,0.0
225861.2,238395.0,477449.0,529179.1,221407.9,270117.8,301671.6,265066.8,0.0
225577.3,238203.7,477131.0,528743.6,221093.5,269785.8,301175.8,264712.5,0.0
226133.8,238628.0,477528.2,529130.1,221527.2,270173.5,301611.3,265115.1,0.0
226745.6,239062.9,478025.4,529702.1,222096.7,270725.6,302350.6,265698.3,0.0
226572.8,238911.4,477892.0,529590.3,222027.4,270687.8,302372.9,265662.3,0.0
225845.1,238374.8,477252.6,528848.4,221402.8,270095.7,301624.0,265039.3,0.0
225555.2,238178.9,476929.6,528403.1,221077.6,269754.9,301118.8,264675.3,0.0
226118.2,238606.8,477331.0,528793.7,221516.2,270147.8,301556.4,265079.7,0.0
226745.5,239058.1,477842.0,529380.6,222100.7,270716.5,302308.7,265675.8,0.0
226570.3,238906.9,477707.8,529266.0,222028.3,270677.2,302326.0,265637.7,0.0
225825.1,238352.5,477055.3,528512.9,221393.5,270076.8,301565.2,265004.6,0.0
225550.6,238167.1,476745.3,528084.9,221082.5,269753.9,301074.8,264654.3,0.0
226117.5,238600.8,477152.0,528483.0,221522.4,270151.2,301517.7,265063.4,0.0
226739.1,239048.3,477660.9,529070.4,222104.1,270718.6,302269.6,265661.0,0.0
226557.1,238890.9,477518.0,528951.6,222022.0,270672.1,302283.2,265616.0,0.0
225819.2,238341.2,476865.2,528198.8,221385.5,270069.9,301523.6,264983.2,0.0
225541.2,238154.2,476552.6,527764.6,221072.7,269742.6,301028.9,264631.8,0.0
226098.1,238576.7,476951.9,528152.6,221507.3,270130.8,301462.6,265034.8,0.0
226720.1,239022.2,477457.5,528734.5,222085.5,270693.4,302211.5,265628.1,0.0
226552.2,238875.7,477327.9,528623.0,222015.0,270655.8,302236.6,265594.4,0.0
225820.2,238333.3,476686.8,527879.3,221388.5,270062.7,301487.8,264971.7,0.0
225527.4,238132.4,476360.8,527434.9,221062.0,269723.5,300980.7,264607.5,0.0
226082.2,238553.0,476758.8,527823.1,221491.4,270111.5,301410.3,265007.9,0.0
226699.7,238996.7,477265.8,528402.9,222067.4,270672.4,302156.5,265600.3,0.0
226529.6,238852.4,477132.3,528289.4,221995.7,270630.6,302175.6,265561.3,0.0
225795.7,238311.3,476489.1,527546.0,221369.4,270035.1,301420.9,264937.8,0.0
225508.1,238119.0,476170.1,527108.9,221051.2,269699.4,300917.3,264581.7,0.0
226061.9,238541.8,476566.7,527493.4,221479.5,270083.8,301346.6,264978.9,0.0
226683.7,238988.5,477077.8,528080.8,222061.7,270649.3,302098.3,265575.2,0.0
226509.5,238836.7,476946.9,527970.5,221993.0,270609.7,302119.4,265538.1,0.0
225778.5,238297.9,476305.3,527231.8,221368.3,270017.0,301370.9,264914.8,0.0
225496.5,238107.9,475989.0,526799.7,221051.8,269686.0,300875.0,264562.0,0.0
226051.7,238527.5,476385.4,527187.8,221482.1,270070.7,301306.3,264961.1,0.0
226669.7,238967.4,476890.1,527770.9,222058.5,270630.9,302052.0,265550.3,0.0
226503.3,238822.1,476761.9,527667.9,221990.1,270594.4,302078.8,265519.6,0.0
225766.8,238273.8,476115.2,526922.8,221358.5,269995.9,301324.3,264892.2,0.0
225474.9,238074.0,475794.3,526484.6,221040.3,269659.3,300821.1,264532.6,0.0
226035.1,238501.7,476196.3,526876.5,221473.1,270047.7,301254.5,264934.2,0.0
226659.3,238949.1,476708.9,527463.4,222052.4,270612.9,302003.8,265529.7,0.0
226483.9,238792.9,476577.0,527352.4,221978.7,270572.4,302023.6,265491.5,0.0
225755.8,238254.9,475939.6,526616.7,221355.4,269983.4,301279.3,264873.8,0.0
225473.5,238068.4,475625.8,526185.8,221039.4,269653.6,300783.3,264522.0,0.0
226028.2,238490.4,476022.5,526574.9,221468.1,270038.9,301212.8,264920.2,0.0
226651.3,238935.8,476532.2,527161.4,222046.5,270601.0,301960.3,265510.5,0.0
226486.4,238794.6,476408.0,527060.1,221982.6,270568.2,301987.6,265478.3,0.0
225758.3,238257.9,475772.8,526326.0,221362.8,269979.2,301243.8,264861.4,0.0
225475.3,238069.1,475460.6,525896.1,221049.3,269650.5,300748.0,264511.4,0.0
226020.0,238481.4,475850.3,526281.9,221471.0,270028.1,301171.5,264907.6,0.0
226639.2,238921.2,476357.3,526870.2,222046.5,270588.0,301919.3,265502.6,0.0
226470.5,238776.2,476230.1,526763.3,221974.6,270548.6,301942.8,265468.1,0.0
225732.8,238230.4,475584.6,526019.2,221342.8,269949.0,301188.2,264837.9,0.0
225436.4,238026.0,475256.4,525575.9,221012.1,269604.2,300676.9,264472.1,0.0
225991.1,238445.7,475653.6,525965.4,221441.2,269989.3,301105.7,264871.9,0.0
226615.9,238893.5,476165.4,526556.4,222023.0,270555.2,301856.7,265466.8,0.0
226446.3,238747.1,476036.4,526451.8,221953.4,270517.2,301877.7,265429.1,0.0
225712.2,238203.1,475394.0,525714.7,221326.3,269923.9,301126.7,264804.3,0.0
225421.5,238007.0,475074.2,525281.4,221006.1,269590.5,300626.6,264448.1,0.0
225976.0,238427.0,475472.5,525674.5,221440.9,269979.1,301059.9,264851.4,0.0
226602.4,238872.8,475983.0,526265.1,222025.2,270546.8,301813.1,265449.0,0.0
226433.4,238726.6,475852.2,526156.9,221953.1,270507.3,301835.8,265411.3,0.0
225700.0,238183.3,475207.8,525415.6,221323.9,269910.1,301085.0,264783.6,0.0
225423.8,237999.1,474896.5,524990.9,221010.8,269582.3,300594.7,264433.7,0.0
225977.1,238418.3,475293.2,525379.6,221437.0,269963.8,301023.4,264830.2,0.0
226594.6,238858.0,475800.2,525963.9,222011.7,270523.1,301767.0,265419.4,0.0
226428.3,238715.4,475674.9,525860.7,221943.8,270488.2,301789.3,265386.9,0.0
225686.7,238167.8,475029.3,525117.2,221309.9,269889.2,301033.9,264758.6,0.0
225395.1,237973.0,474710.4,524680.9,220987.1,269553.4,300531.1,264400.2,0.0
225954.6,238399.5,475112.4,525075.3,221420.7,269943.1,300963.7,264803.3,0.0
226587.3,238856.2,475631.9,525673.3,222006.7,270515.0,301718.7,265404.0,0.0
226423.5,238713.8,475509.4,525576.4,221943.0,270483.8,301748.2,265373.3,0.0
225692.2,238171.1,474874.5,524846.4,221323.0,269894.3,301003.2,264754.3,0.0
225407.5,237982.3,474560.7,524419.9,221007.3,269561.1,300505.0,264401.7,0.0
225952.6,238394.7,474952.2,524810.8,221432.0,269939.7,300928.3,264797.8,0.0
226567.9,238832.7,475453.6,525394.5,222001.2,270491.5,301665.1,265381.0,0.0
226403.6,238689.0,475325.4,525294.8,221931.7,270451.9,301688.3,265344.2,0.0
225675.3,238148.4,474688.1,524564.0,221305.8,269861.9,300944.7,264723.3,0.0
225382.3,237948.3,474370.3,524131.7,220980.5,269525.3,300445.4,264365.5,0.0
225933.3,238367.0,474766.7,524525.1,221407.8,269907.1,300875.3,264763.8,0.0
226570.3,238827.9,475286.3,525124.6,221994.8,270479.5,301635.2,265366.4,0.0
226407.7,238686.8,475162.3,525027.6,221929.1,270446.4,301666.4,265337.0,0.0
225671.4,238139.2,474517.9,524290.3,221299.5,269850.0,300917.9,264715.4,0.0
225378.4,237938.6,474194.9,523855.0,220975.7,269512.4,300416.3,264357.3,0.0
225928.0,238350.2,474587.8,524243.5,221400.8,269894.3,300841.9,264755.6,0.0
226557.6,238803.7,475104.5,524839.4,221983.3,270462.7,301594.4,265359.3,0.0
226396.2,238667.2,474984.5,524748.8,221920.7,270435.5,301628.7,265340.3,0.0
225656.7,238118.2,474338.8,524012.0,221291.8,269841.3,300878.2,264723.9,0.0
225360.2,237920.0,474016.1,523575.4,220966.8,269503.7,300373.4,264371.9,0.0
225917.2,238346.4,474417.8,523972.1,221398.2,269890.2,300804.5,264784.3,0.0
226534.8,238786.9,474927.0,524564.6,221973.9,270448.4,301551.5,265388.0,0.0
226366.7,238640.3,474801.7,524467.3,221905.5,270410.9,301579.1,265366.4,0.0
225636.9,238098.3,474168.8,523743.1,221288.2,269827.4,300841.0,264766.6,0.0
225352.4,237908.2,473855.6,523318.8,220972.7,269499.8,300346.8,264425.7,0.0
225902.5,238326.5,474253.7,523714.4,221402.2,269884.3,300778.8,264834.3,0.0
226516.5,238760.2,474758.3,524302.1,221975.5,270439.0,301525.6,265431.3,0.0
226351.7,238612.0,474633.2,524208.0,221908.3,270401.0,301556.0,265409.2,0.0
225620.1,238069.3,473998.3,523484.6,221287.6,269810.5,300816.1,264802.1,0.0
225323.0,237867.2,473675.6,523052.5,220962.3,269470.1,300311.9,264448.3,0.0
225866.4,238277.1,474066.0,523441.1,221385.0,269846.8,300736.3,264847.0,0.0
226500.2,238734.9,474584.6,524043.6,221971.0,270415.3,301497.0,265454.2,0.0
226335.9,238592.5,474463.3,523953.0,221905.0,270380.8,301531.6,265431.3,0.0
225601.0,238047.8,473825.7,523224.5,221277.5,269786.7,300786.8,264815.6,0.0
225311.5,237850.3,473510.4,522797.2,220955.9,269452.4,300289.6,264467.3,0.0
225868.8,238274.8,473912.3,523194.3,221385.6,269839.6,300722.1,264873.4,0.0
226497.8,238726.7,474427.3,523792.0,221965.2,270404.9,301474.3,265472.0,0.0
226333.6,238581.7,474304.7,523699.2,221898.4,270371.3,301506.0,265444.9,0.0
225590.9,238031.5,473660.0,522963.8,221266.0,269771.5,300755.3,264820.7,0.0
225291.1,237825.6,473333.6,522527.7,220936.6,269424.3,300248.2,264458.4,0.0
225842.7,238246.5,473732.6,522926.2,221366.6,269806.5,300678.4,264862.9,0.0
226466.5,238691.5,474249.2,523528.5,221950.8,270374.0,301432.2,265466.6,0.0
226304.6,238550.6,474129.7,523437.0,221886.9,270340.8,301466.1,265441.9,0.0
225574.4,238011.9,473494.5,522708.3,221261.1,269748.2,300722.6,264825.3,0.0
225282.8,237812.4,473175.6,522279.3,220938.2,269410.8,300220.1,264471.8,0.0
225836.6,238230.1,473573.0,522674.3,221363.5,269790.3,300645.8,264873.4,0.0
226462.8,238677.0,474084.0,523273.0,221943.7,270353.4,301397.1,265471.6,0.0
226301.7,238536.0,473962.9,523183.2,221881.4,270323.7,301434.3,265446.9,0.0
225573.5,237998.5,473328.0,522458.3,221260.6,269736.1,300695.3,264832.3,0.0
225274.8,237795.6,473000.4,522020.4,220931.9,269388.0,300185.6,264467.7,0.0
225825.1,238211.5,473395.6,522410.8,221356.6,269763.7,300608.3,264865.0,0.0
226453.8,238661.5,473917.5,523013.8,221941.7,270330.0,301363.9,265467.3,0.0
226288.0,238517.4,473798.1,522923.7,221876.5,270292.9,301398.4,265440.5,0.0
225556.7,237977.5,473161.8,522199.4,221253.3,269701.2,300659.0,264825.3,0.0
225258.3,237774.9,472837.0,521767.3,220925.4,269358.7,300151.9,264464.4,0.0
225816.7,238200.0,473237.5,522167.0,221355.9,269742.5,300584.0,264868.0,0.0
226439.7,238645.9,473753.7,522766.1,221937.5,270305.1,301338.3,265467.6,0.0
226279.8,238506.2,473640.0,522682.1,221877.8,270276.2,301377.4,265443.7,0.0
225549.5,237962.9,473003.3,521956.5,221254.0,269686.9,300636.1,264824.3,0.0
225250.9,237759.2,472677.6,521520.1,220924.7,269342.2,300128.1,264458.8,0.0
225803.2,238178.2,473075.5,521915.4,221354.0,269723.5,300556.2,264856.2,0.0
226432.8,238632.5,473595.6,522517.1,221938.3,270292.9,301312.1,265455.8,0.0
226270.6,238492.1,473481.1,522430.8,221875.7,270265.0,301349.9,265430.9,0.0
225539.5,237952.1,472846.6,521706.9,221252.2,269676.3,300609.4,264813.1,0.0
225240.8,237744.2,472520.7,521272.9,220925.2,269333.0,300102.9,264448.9,0.0
225785.6,238157.2,472914.6,521664.3,221350.2,269711.4,300526.6,264842.5,0.0
226415.0,238612.0,473436.2,522269.2,221934.9,270281.1,301282.5,265442.6,0.0
226249.6,238465.5,473314.4,522176.1,221866.6,270245.8,301312.5,265408.4,0.0
225517.8,237920.2,472679.2,521449.9,221240.8,269653.2,300565.8,264784.2,0.0
225225.9,237723.4,472361.3,521022.7,220917.4,269314.9,300059.3,264421.5,0.0
225776.7,238144.5,472757.3,521414.6,221340.1,269694.1,300479.8,264811.8,0.0
226411.1,238601.6,473281.9,522020.9,221927.8,270263.8,301238.8,265409.9,0.0
226253.6,238463.5,473168.7,521936.9,221866.5,270233.4,301278.1,265381.0,0.0
225516.0,237916.7,472526.4,521207.3,221234.9,269636.4,300529.5,264753.8,0.0
225208.2,237704.9,472190.4,520762.0,220892.4,269281.1,300006.8,264373.8,0.0
225761.7,238125.5,472586.8,521154.8,221315.3,269658.9,300427.0,264764.7,0.0
226395.7,238577.2,473113.9,521765.3,221905.7,270231.6,301187.9,265369.5,0.0
226229.0,238430.3,472994.6,521678.1,221843.8,270196.8,301221.2,265342.0,0.0
225494.3,237889.7,472356.9,520954.0,221221.8,269606.8,300476.8,264722.1,0.0
225200.9,237694.9,472039.5,520529.8,220900.8,269271.3,299975.0,264364.3,0.0
225754.2,238117.5,472438.2,520930.0,221327.3,269654.1,300400.8,264762.0,0.0
226373.9,238560.3,472950.3,521529.3,221900.9,270214.1,301149.0,265353.7,0.0
226213.6,238418.2,472836.5,521449.1,221838.5,270184.7,301189.3,265331.1,0.0
225492.5,237887.3,472208.7,520733.9,221218.8,269600.6,300454.5,264718.3,0.0
225190.3,237681.1,471879.2,520297.8,220884.5,269253.1,299940.2,264347.7,0.0
225730.2,238088.8,472265.7,520685.9,221301.2,269624.8,300355.1,264735.5,0.0
226361.9,238541.1,472787.8,521293.9,221892.0,270196.8,301113.2,265339.8,0.0
226212.5,238410.7,472683.7,521217.1,221842.1,270176.1,301158.8,265323.0,0.0
225477.6,237865.3,472048.3,520489.3,221214.0,269580.9,300411.2,264698.7,0.0
225178.5,237662.8,471724.3,520057.1,220882.7,269237.8,299901.5,264331.6,0.0
225728.1,238081.5,472119.1,520449.9,221306.5,269616.4,300323.3,264723.9,0.0
226353.2,238524.2,472635.6,521049.4,221889.2,270180.9,301074.3,265318.9,0.0
226191.1,238382.0,472523.9,520966.2,221831.2,270150.2,301115.0,265295.2,0.0
225471.4,237856.0,471900.2,520253.5,221215.2,269567.3,300383.8,264685.6,0.0
225176.9,237656.1,471579.3,519827.5,220889.3,269230.0,299882.7,264325.0,0.0
225722.2,238067.1,471968.8,520218.2,221308.8,269603.3,300301.6,264712.7,0.0
226350.9,238519.4,472486.5,520822.3,221894.0,270170.4,301055.3,265308.0,0.0
226197.1,238385.5,472376.7,520749.9,221842.9,270151.5,301102.6,265290.8,0.0
225461.1,237838.3,471737.7,520025.3,221216.9,269559.3,300360.6,264671.9,0.0
225160.8,237632.8,471411.8,519589.4,220885.4,269212.8,299849.8,264302.4,0.0
225703.8,238044.6,471803.7,519977.9,221303.7,269585.5,300266.3,264686.9,0.0
226332.3,238495.0,472325.1,520585.8,221890.2,270154.6,301022.7,265284.0,0.0
226177.3,238360.4,472211.5,520504.9,221829.4,270125.8,301060.0,265256.2,0.0
225439.8,237814.5,471573.0,519777.9,221201.0,269530.8,300310.5,264630.9,0.0
225138.9,237610.3,471255.2,519350.7,220876.7,269192.4,299805.4,264270.2,0.0
225686.7,238026.2,471654.2,519746.4,221300.4,269571.7,300227.8,264664.0,0.0
226315.5,238476.7,472175.5,520353.8,221884.6,270139.2,300981.9,265261.9,0.0
226163.6,238343.5,472070.9,520284.6,221834.5,270121.1,301028.3,265244.9,0.0
225424.1,237790.2,471429.1,519556.0,221203.2,269524.0,300276.3,264615.3,0.0
225119.8,237580.3,471100.9,519117.8,220866.5,269174.8,299760.8,264242.9,0.0
225672.3,238001.7,471500.8,519516.1,221291.8,269555.0,300186.3,264637.9,0.0
226300.6,238451.7,472019.1,520119.4,221873.3,270118.3,300939.0,265233.2,0.0
226146.4,238315.0,471908.7,520043.2,221816.4,270093.2,300981.4,265212.4,0.0
225411.5,237769.0,471269.9,519318.5,221187.2,269497.6,300233.8,264587.7,0.0
225115.0,237570.3,470948.4,518888.4,220860.5,269158.0,299724.3,264223.3,0.0
225662.6,237989.3,471343.6,519282.2,221284.2,269538.3,300144.1,264613.7,0.0
226289.4,238440.4,471865.8,519891.5,221870.9,270109.3,300900.6,265212.0,0.0
226139.4,238309.7,471758.4,519817.8,221817.3,270088.8,300946.4,265192.5,0.0
225393.0,237752.9,471115.5,519086.6,221183.6,269487.6,300195.0,264561.3,0.0
225098.1,237558.2,470798.0,518658.5,220856.8,269145.7,299689.3,264197.7,0.0
225645.4,237976.5,471193.1,519053.6,221277.2,269524.2,300109.6,264588.6,0.0
226269.8,238420.2,471710.0,519657.3,221856.9,270087.3,300860.0,265182.8,0.0
226124.7,238292.3,471610.9,519589.7,221812.8,270070.9,300911.1,265169.3,0.0
225396.6,237754.8,470981.0,518870.4,221195.4,269481.8,300170.6,264550.3,0.0
225080.1,237535.2,470645.2,518426.0,220853.0,269124.5,299647.3,264169.3,0.0
225630.2,237956.8,471040.2,518820.1,221275.0,269501.0,300067.3,264558.2,0.0
226266.5,238416.8,471565.6,519433.5,221865.1,270073.3,300828.8,265161.3,0.0
226113.1,238281.8,471456.3,519358.0,221810.5,270048.7,300873.7,265140.1,0.0
225374.5,237733.7,470818.3,518633.0,221181.8,269452.0,300125.0,264513.8,0.0
225072.1,237528.3,470496.4,518202.3,220850.6,269106.0,299613.6,264145.2,0.0
225623.7,237950.3,470897.3,518604.2,221277.3,269488.4,300038.7,264540.8,0.0
226250.7,238401.0,471418.8,519213.9,221863.7,270059.1,300795.3,265140.5,0.0
226094.0,238264.8,471305.0,519134.4,221803.8,270028.8,300832.4,265114.8,0.0
225365.9,237728.0,470677.0,518420.1,221183.9,269440.2,300093.7,264498.6,0.0
225067.5,237526.5,470357.4,517992.7,220855.3,269097.7,299584.8,264131.5,0.0
225607.0,237934.2,470747.8,518385.8,221270.5,269469.6,299999.5,264516.6,0.0
226237.5,238385.2,471270.8,518995.7,221854.0,270040.0,300754.9,265114.9,0.0
226084.4,238250.5,471167.1,518926.0,221801.4,270020.2,300801.1,265097.3,0.0
225355.4,237710.6,470536.1,518208.1,221178.4,269430.3,300059.5,264478.9,0.0
225052.5,237505.5,470211.9,517776.8,220846.7,269084.2,299546.0,264109.2,0.0
225595.8,237919.6,470606.1,518171.4,221265.6,269459.5,299960.5,264494.6,0.0
226233.4,238378.6,471133.3,518787.0,221856.6,270033.6,300718.3,265097.4,0.0
226072.0,238235.0,471015.4,518705.4,221791.8,270001.6,300751.9,265066.8,0.0
225346.4,237698.0,470389.6,517993.8,221174.4,269420.0,300019.1,264453.3,0.0
225046.0,237494.0,470068.9,517564.3,220844.5,269077.7,299510.7,264087.5,0.0
225580.7,237897.3,470453.3,517946.4,221253.6,269442.2,299916.7,264465.1,0.0
226209.1,238345.8,470971.6,518551.5,221834.5,270005.5,300667.5,265060.3,0.0
226067.2,238224.9,470873.0,518487.4,221790.9,269990.4,300720.6,265048.3,0.0
225333.6,237681.5,470240.0,517770.1,221168.2,269401.0,299980.7,264427.8,0.0
225026.9,237473.3,469916.2,517338.8,220836.7,269057.7,299470.7,264060.8,0.0
225565.6,237881.9,470308.7,517730.8,221253.5,269428.5,299885.0,264447.3,0.0
226203.7,238341.8,470836.8,518344.5,221840.8,269999.8,300643.3,265050.9,0.0
226056.6,238209.7,470733.9,518275.2,221787.3,269979.4,300694.1,265035.7,0.0
225325.4,237666.5,470100.0,517554.7,221161.0,269386.2,299951.0,264415.0,0.0
225021.4,237461.3,469777.3,517123.2,220825.8,269038.8,299435.4,264045.5,0.0
225564.9,237873.2,470169.5,517515.9,221243.8,269411.6,299848.5,264431.0,0.0
226201.1,238329.3,470697.3,518133.8,221836.1,269984.8,300610.3,265038.4,0.0
226063.7,238211.3,470604.2,518076.2,221795.4,269975.5,300669.5,265034.8,0.0
225323.8,237658.8,469962.5,517353.2,221164.0,269376.1,299920.9,264407.4,0.0
225011.5,237442.7,469630.3,516914.4,220821.8,269019.8,299398.1,264029.9,0.0
225549.8,237847.8,470022.3,517306.5,221238.8,269390.8,299809.9,264416.2,0.0
226179.5,238298.9,470543.8,517916.4,221822.9,269954.2,300561.4,265011.1,0.0
226028.1,238167.5,470440.6,517847.4,221769.5,269931.2,300606.9,264993.6,0.0
225298.3,237626.0,469810.8,517132.6,221145.7,269340.6,299866.5,264375.5,0.0
225001.2,237425.5,469492.1,516708.5,220817.5,268999.3,299358.7,264011.1,0.0
225538.8,237832.2,469881.3,517098.3,221228.9,269366.5,299767.4,264392.4,0.0
226175.2,238288.6,470405.7,517713.3,221814.4,269936.6,300524.2,264992.8,0.0
226033.9,238165.0,470307.5,517654.3,221769.5,269922.7,300582.2,264982.8,0.0
225304.3,237626.2,469679.6,516941.1,221151.7,269339.9,299848.1,264368.6,0.0
225000.1,237418.7,469354.8,516509.5,220816.9,268996.4,299334.0,263998.2,0.0
225538.1,237824.1,469741.4,516896.8,221224.4,269362.9,299738.3,264377.4,0.0
226172.3,238278.0,470268.0,517509.8,221808.5,269931.8,300491.9,264976.3,0.0
226029.3,238153.0,470172.1,517447.5,221762.8,269916.2,300545.9,264965.6,0.0
225279.0,237595.3,469522.8,516713.1,221123.4,269306.1,299787.3,264330.5,0.0
224962.4,237377.1,469185.8,516270.5,220777.7,268945.5,299258.9,263948.0,0.0
225506.1,237790.9,469583.2,516667.7,221195.5,269320.9,299674.0,264338.6,0.0
226144.8,238246.6,470113.3,517285.3,221783.3,269893.7,300434.2,264942.3,0.0
225991.3,238109.7,470007.2,517214.1,221727.4,269869.3,300478.0,264921.3,0.0
225258.9,237565.4,469376.5,516498.7,221105.5,269279.6,299736.6,264305.0,0.0
224953.0,237355.7,469048.3,516063.7,220770.0,268930.4,299218.3,263934.4,0.0
225497.1,237774.7,469443.3,516458.1,221188.6,269304.9,299632.4,264321.6,0.0
226134.6,238235.0,469972.1,517075.3,221778.6,269877.0,300389.8,264923.8,0.0
225989.6,238105.3,469874.9,517014.3,221734.2,269860.6,300444.9,264913.4,0.0
225261.0,237565.6,469245.9,516301.4,221114.5,269274.4,299709.5,264298.4,0.0
224954.8,237359.2,468919.1,515866.9,220775.3,268924.8,299192.1,263925.8,0.0
225497.0,237774.1,469313.2,516258.9,221189.7,269295.2,299604.0,264310.0,0.0
226140.0,238237.7,469849.3,516884.3,221784.8,269873.1,300368.4,264918.3,0.0
225990.8,238105.9,469749.0,516821.6,221733.9,269855.8,300419.2,264902.4,0.0
225242.5,237544.9,469104.4,516094.8,221100.3,269254.9,299666.3,264271.0,0.0
224939.2,237340.8,468780.3,515662.0,220766.9,268906.7,299149.8,263900.7,0.0
225484.3,237758.6,469178.3,516058.5,221184.9,269279.8,299562.1,264287.1,0.0
226118.8,238214.4,469709.2,516678.3,221772.8,269850.6,300319.0,264888.8,0.0
225976.8,238088.4,469613.8,516621.9,221726.0,269836.3,300371.8,264877.2,0.0
225244.9,237544.0,468985.5,515911.9,221106.5,269251.7,299635.7,264262.8,0.0
224932.4,237329.5,468651.7,515469.7,220761.7,268893.9,299109.2,263882.6,0.0
225468.7,237737.1,469038.6,515857.5,221171.1,269258.2,299513.8,264260.8,0.0
226107.0,238196.2,469569.8,516478.9,221761.0,269831.0,300274.9,264864.0,0.0
225954.5,238057.7,469466.1,516417.2,221710.3,269812.2,300325.0,264848.8,0.0
225220.8,237510.5,468835.1,515705.1,221088.7,269224.4,299585.2,264229.9,0.0
224926.4,237314.5,468518.9,515280.1,220760.4,268882.8,299075.5,263863.9,0.0
225462.2,237723.6,468909.5,515670.2,221172.6,269250.8,299484.6,264244.5,0.0
226096.8,238182.5,469437.1,516285.2,221758.0,269821.8,300241.2,264844.9,0.0
225950.6,238054.0,469342.7,516227.3,221715.4,269809.6,300299.3,264837.6,0.0
225219.0,237512.1,468716.1,515515.3,221095.6,269220.8,299562.6,264222.8,0.0
224920.8,237314.8,468397.6,515085.5,220763.5,268875.8,299050.3,263858.2,0.0
225455.7,237722.7,468787.8,515472.7,221175.2,269247.3,299459.0,264244.1,0.0
226093.5,238178.5,469318.4,516091.8,221765.8,269822.3,300220.5,264855.3,0.0
225943.3,238044.0,469214.5,516026.1,221712.6,269802.3,300269.6,264846.8,0.0
225200.5,237491.0,468576.4,515306.9,221085.5,269208.8,299526.6,264232.7,0.0
224895.1,237287.4,468252.8,514876.0,220752.8,268863.4,299013.6,263871.8,0.0
225429.7,237695.6,468641.0,515263.1,221162.3,269227.6,299421.6,264261.8,0.0
226060.8,238146.3,469167.9,515879.5,221750.1,269796.6,300181.3,264874.3,0.0
225917.9,238020.7,469073.7,515825.2,221707.7,269785.6,300241.7,264877.8,0.0
225188.4,237481.8,468445.8,515117.5,221088.9,269200.3,299508.5,264274.3,0.0
224871.6,237263.0,468113.1,514683.0,220748.5,268846.4,298991.1,263909.3,0.0
225407.2,237670.2,468504.3,515077.9,221165.5,269218.1,299407.1,264306.3,0.0
226049.6,238133.6,469035.2,515699.4,221755.2,269791.9,300170.6,264921.2,0.0
225904.3,238003.3,468936.0,515642.6,221704.7,269773.2,300228.9,264917.6,0.0
225174.0,237458.1,468309.2,514937.4,221082.7,269187.1,299498.7,264311.7,0.0
224879.6,237259.8,467994.5,514518.8,220754.3,268849.3,298995.5,263958.0,0.0
225409.4,237660.7,468374.5,514900.4,221157.2,269206.6,299394.1,264335.1,0.0
226032.1,238105.5,468892.7,515508.5,221733.6,269764.0,300140.1,264930.6,0.0
225884.1,237970.7,468788.8,515443.7,221677.3,269738.7,300186.5,264916.4,0.0
225156.8,237431.0,468163.5,514737.5,221060.8,269154.2,299452.9,264308.0,0.0
224847.9,237221.2,467839.8,514306.3,220725.2,268804.8,298937.0,263941.6,0.0
225385.3,237631.6,468233.1,514702.1,221138.5,269175.5,299350.5,264331.1,0.0
226024.6,238093.3,468768.5,515328.8,221731.9,269751.5,300116.7,264943.2,0.0
225893.3,237976.7,468684.6,515283.8,221695.4,269747.4,300186.3,264949.2,0.0
225160.5,237433.0,468055.7,514574.6,221073.2,269158.9,299451.2,264337.2,0.0
224840.7,237215.0,467723.4,514134.8,220727.6,268799.4,298925.4,263957.8,0.0
225373.9,237623.1,468114.0,514526.8,221139.2,269165.8,299333.6,264341.6,0.0
226009.8,238080.9,468644.0,515150.3,221731.5,269739.3,300096.7,264949.0,0.0
225856.7,237940.0,468538.8,515086.1,221677.2,269716.2,300147.8,264934.3,0.0
225130.0,237402.3,467908.9,514374.6,221050.9,269125.0,299410.3,264317.1,0.0
224819.4,237193.1,467580.5,513943.3,220714.8,268774.0,298891.7,263944.9,0.0
225351.7,237596.0,467964.4,514328.2,221122.1,269134.2,299292.2,264323.2,0.0
225988.3,238051.3,468491.7,514945.4,221709.0,269702.2,300049.2,264927.4,0.0
225852.0,237929.5,468402.5,514897.0,221668.8,269693.8,300113.9,264928.0,0.0
225117.7,237382.3,467772.9,514188.3,221049.3,269104.7,299378.8,264313.6,0.0
224803.5,237169.7,467439.7,513751.1,220706.0,268746.7,298854.6,263934.6,0.0
225343.1,237582.4,467832.6,514146.2,221117.7,269114.1,299265.8,264319.8,0.0
225985.5,238046.8,468368.8,514773.6,221713.4,269689.8,300033.6,264932.7,0.0
225841.9,237917.2,468269.9,514713.4,221665.8,269669.2,300088.4,264923.2,0.0
225108.0,237369.6,467635.5,514000.8,221040.2,269073.3,299347.2,264303.5,0.0
224795.6,237155.4,467306.9,513571.9,220704.1,268723.0,298831.5,263933.3,0.0
225332.1,237567.6,467698.1,513964.8,221116.4,269089.8,299241.2,264318.0,0.0
225969.1,238026.2,468229.9,514588.9,221706.2,269662.1,300003.9,264924.4,0.0
225837.8,237910.9,468147.8,514548.8,221674.0,269659.3,300073.8,264929.6,0.0
225099.3,237363.1,467511.6,513835.3,221047.9,269064.2,299330.4,264309.5,0.0
224771.5,237133.0,467165.1,513383.9,220690.1,268689.7,298790.9,263917.2,0.0
225313.9,237544.9,467562.0,513783.5,221108.0,269061.6,299203.8,264307.0,0.0
225944.0,237994.1,468086.6,514400.8,221690.3,269629.7,299957.7,264906.7,0.0
225801.6,237865.1,467988.9,514345.5,221643.0,269613.7,300012.8,264896.0,0.0
225075.3,237326.5,467365.2,513644.2,221028.2,269028.8,299281.0,264283.0,0.0
224769.6,237121.7,467044.0,513218.3,220694.7,268682.6,298766.8,263912.3,0.0
225309.3,237535.4,467432.8,513610.4,221105.7,269048.7,299173.8,264289.4,0.0
225945.5,237991.6,467962.8,514231.7,221694.5,269618.8,299935.8,264889.9,0.0
225808.6,237869.1,467872.2,514182.3,221655.5,269611.1,300000.7,264885.1,0.0
225078.5,237324.5,467243.3,513474.9,221033.2,269023.1,299263.6,264268.2,0.0
224760.8,237104.9,466908.9,513037.7,220686.7,268662.0,298737.0,263884.8,0.0
225297.0,237510.8,467301.1,513430.3,221099.3,269028.1,299145.0,264265.1,0.0
225941.1,237974.0,467836.3,514057.3,221692.8,269604.1,299909.4,264872.1,0.0
225803.4,237851.1,467742.2,514004.4,221648.2,269590.7,299968.6,264862.6,0.0
225070.7,237304.5,467111.0,513291.8,221021.8,269000.1,299230.4,264240.2,0.0
224757.6,237088.8,466778.3,512856.7,220678.8,268643.8,298707.8,263860.3,0.0
225288.1,237488.0,467163.2,513243.6,221084.4,269004.5,299107.9,264233.8,0.0
225926.2,237946.8,467694.7,513866.0,221675.8,269574.4,299866.0,264836.1,0.0
225790.0,237830.0,467607.9,513820.5,221638.7,269565.5,299931.3,264833.7,0.0
225062.9,237294.0,466984.7,513118.8,221021.9,268984.1,299201.0,264222.9,0.0
224750.6,237085.6,466659.1,512692.1,220683.8,268634.1,298683.1,263851.5,0.0
225286.1,237494.5,467050.7,513087.6,221096.0,269001.7,299089.5,264233.8,0.0
225927.1,237954.0,467584.8,513712.1,221687.3,269574.8,299850.0,264838.2,0.0
225782.4,237822.4,467486.1,513654.7,221639.2,269554.8,299902.4,264823.6,0.0
225051.6,237278.2,466860.7,512949.0,221016.5,268966.0,299167.3,264208.7,0.0
224733.5,237057.8,466527.1,512513.8,220666.3,268605.2,298640.9,263826.6,0.0
225268.1,237462.8,466916.4,512906.4,221076.1,268970.4,299047.0,264206.8,0.0
225906.6,237922.3,467451.3,513535.6,221671.0,269547.4,299814.3,264815.2,0.0
225772.7,237805.5,467363.7,513487.2,221632.5,269538.4,299880.3,264811.7,0.0
225040.4,237264.6,466734.1,512776.6,221010.3,268949.7,299142.4,264191.5,0.0
224740.4,237066.5,466417.6,512356.2,220685.0,268613.2,298633.4,263826.7,0.0
225267.7,237467.3,466798.3,512739.4,221088.5,268971.5,299030.3,264196.4,0.0
225887.5,237910.0,467314.9,513347.0,221663.7,269528.0,299775.4,264781.7,0.0
225745.8,237782.8,467222.5,513299.0,221622.6,269518.3,299840.0,264777.5,0.0
225015.3,237241.3,466595.6,512593.8,221002.1,268931.8,299105.5,264162.5,0.0
224705.5,237034.5,466271.1,512165.1,220665.3,268581.6,298587.5,263788.9,0.0
225237.9,237440.3,466658.8,512554.3,221074.0,268945.0,298992.3,264167.9,0.0
225870.1,237896.6,467184.2,513169.6,221656.1,269509.7,299744.6,264766.3,0.0
225729.9,237769.5,467093.5,513118.7,221614.9,269498.7,299805.2,264759.6,0.0
224999.7,237227.9,466464.6,512412.1,220995.1,268911.1,299068.2,264141.8,0.0
224687.4,237016.4,466136.7,511982.3,220654.8,268561.0,298548.1,263766.0,0.0
225228.6,237429.0,466530.4,512377.2,221063.6,268927.6,298955.1,264145.5,0.0
225869.8,237889.3,467067.5,513005.6,221658.6,269501.8,299717.9,264752.9,0.0
225731.3,237764.2,466975.0,512953.6,221618.3,269486.5,299775.2,264743.7,0.0
224998.4,237220.6,466348.9,512248.8,220999.2,268899.2,299039.9,264127.5,0.0
224683.9,237007.3,466021.9,511822.0,220662.2,268550.4,298522.4,263754.3,0.0
225219.6,237417.6,466410.4,512213.1,221071.1,268914.9,298927.1,264132.3,0.0
225859.6,237879.0,466946.0,512841.5,221664.9,269490.0,299691.0,264739.2,0.0
225723.0,237757.3,466857.2,512794.0,221625.4,269481.8,299753.3,264734.4,0.0
224991.8,237216.4,466231.6,512086.9,221006.0,268896.7,299020.7,264120.3,0.0
224673.0,236998.3,465897.0,511647.0,220659.7,268537.3,298492.4,263736.4,0.0
225184.5,237379.4,466263.9,512016.4,221047.3,268880.0,298873.9,264093.6,0.0
225837.8,237852.3,466806.9,512653.3,221650.7,269464.4,299645.8,264709.6,0.0
225700.9,237728.4,466715.4,512603.8,221608.0,269452.4,299703.2,264701.2,0.0
224973.4,237185.4,466087.9,511896.9,220984.5,268863.8,298965.3,264081.9,0.0
224658.8,236968.4,465755.3,511459.7,220639.9,268507.0,298441.7,263700.6,0.0
225197.7,237379.7,466147.3,511853.3,221049.4,268873.8,298847.3,264079.5,0.0
225841.3,237843.8,466687.8,512482.7,221644.0,269452.3,299613.3,264685.7,0.0
225709.2,237729.0,466605.9,512441.8,221611.6,269448.9,299684.0,264685.7,0.0
224972.1,237181.7,465977.5,511736.3,220988.8,268860.1,298947.6,264067.5,0.0
224651.0,236957.6,465641.5,511298.3,220639.1,268495.6,298416.2,263681.7,0.0
225183.0,237359.7,466028.0,511685.4,221043.4,268852.1,298814.7,264052.9,0.0
225829.4,237829.1,466568.8,512319.0,221640.2,269429.4,299581.7,264662.4,0.0
225695.5,237712.1,466482.2,512275.2,221601.4,269420.6,299646.1,264658.3,0.0
224969.3,237174.3,465859.6,511572.7,220984.6,268836.0,298914.7,264045.2,0.0
224648.0,236952.6,465523.3,511133.6,220636.2,268473.3,298385.7,263659.8,0.0
225172.6,237350.5,465905.5,511517.6,221036.9,268828.6,298780.1,264029.2,0.0
225812.8,237811.9,466440.5,512144.6,221631.3,269403.9,299543.3,264635.1,0.0
225675.7,237686.7,466351.1,512097.9,221591.7,269393.7,299607.6,264630.2,0.0
224942.7,237141.2,465724.2,511395.0,220972.6,268808.7,298873.5,264014.0,0.0
224628.7,236930.6,465393.6,510961.5,220629.1,268453.9,298347.1,263632.3,0.0
225162.5,237341.9,465785.1,511355.4,221038.7,268822.9,298752.3,264011.3,0.0
225792.2,237792.5,466310.5,511971.3,221622.8,269387.3,299503.0,264605.5,0.0
225654.4,237671.8,466221.5,511921.0,221582.2,269376.3,299566.0,264599.0,0.0
224930.2,237136.5,465602.3,511222.9,220969.5,268794.6,298837.8,263990.3,0.0
224616.2,236922.1,465274.2,510794.1,220629.4,268441.5,298315.4,263615.3,0.0
225149.5,237327.1,465656.9,511179.8,221029.6,268799.6,298707.4,263986.1,0.0
225793.7,237786.6,466193.7,511811.4,221621.3,269377.3,299471.3,264594.3,0.0
225662.7,237665.6,466112.5,511771.0,221584.4,269376.0,299541.8,264595.1,0.0
224926.1,237117.2,465481.4,511060.7,220954.9,268783.6,298799.7,263971.5,0.0
224611.7,236905.5,465152.6,510630.4,220613.1,268429.9,298277.3,263592.7,0.0
225139.5,237305.9,465537.1,511019.4,221017.5,268789.9,298678.4,263966.7,0.0
225777.5,237760.3,466065.0,511640.0,221602.5,269354.7,299432.1,264564.1,0.0
225639.8,237635.5,465970.4,511590.3,221558.8,269339.2,299488.3,264554.8,0.0
224908.9,237091.9,465343.6,510886.2,220938.6,268749.3,298751.7,263938.2,0.0
224595.8,236881.4,465021.0,510458.3,220600.6,268398.8,298234.7,263565.2,0.0
225135.6,237295.9,465420.2,510859.6,221018.4,268771.3,298649.9,263953.7,0.0
225770.0,237751.8,465952.4,511483.2,221608.0,269342.4,299410.7,264555.6,0.0
225633.1,237627.8,465864.4,511437.3,221568.5,269332.8,299474.8,264550.3,0.0
224896.2,237079.5,465232.4,510725.5,220941.5,268739.4,298733.5,263928.7,0.0
224575.9,236863.1,464897.0,510287.5,220595.0,268380.7,298205.0,263546.8,0.0
225120.0,237279.1,465295.8,510690.3,221013.6,268756.7,298619.0,263934.8,0.0
225763.5,237741.5,465833.3,511321.1,221608.7,269333.4,299383.8,264542.2,0.0
225615.4,237607.4,465734.4,511263.4,221557.1,269310.6,299434.8,264527.5,0.0
224883.4,237065.7,465112.3,510562.3,220938.8,268726.0,298701.4,263915.4,0.0
224569.6,236851.7,464787.5,510133.3,220598.1,268374.4,298180.8,263542.0,0.0
225096.7,237252.0,465170.8,510519.5,220999.6,268733.3,298575.7,263914.0,0.0
225729.7,237705.1,465701.6,511144.1,221588.4,269302.2,299330.8,264513.9,0.0
225598.8,237588.1,465620.3,511102.7,221555.5,269298.5,299397.9,264511.7,0.0
224870.8,237047.4,464998.8,510398.9,220937.5,268714.1,298663.8,263896.3,0.0
224550.5,236829.2,464666.3,509962.0,220588.0,268352.5,298134.2,263511.8,0.0
225082.7,237235.0,465052.3,510355.2,220992.9,268712.8,298533.6,263886.1,0.0
225720.2,237692.6,465582.5,510980.7,221580.5,269283.6,299292.3,264489.3,0.0
225587.9,237577.2,465498.9,510941.5,221547.0,269282.2,299363.5,264492.5,0.0
224868.3,237048.7,464884.8,510250.5,220940.9,268711.4,298644.3,263892.2,0.0
224560.3,236840.0,464559.4,509825.3,220603.8,268365.6,298128.3,263520.7,0.0
225095.1,237246.2,464950.6,510221.2,221011.9,268732.8,298532.8,263899.1,0.0
225732.5,237703.8,465484.8,510846.6,221600.4,269303.0,299291.8,264500.5,0.0
225591.7,237578.2,465391.3,510792.7,221554.5,269286.8,299349.3,264489.5,0.0
224853.3,237027.8,464757.5,510077.4,220925.6,268691.1,298606.9,263865.8,0.0
224528.1,236801.6,464418.8,509633.9,220572.4,268322.4,298071.3,263476.8,0.0
225059.4,237208.6,464807.2,510028.0,220982.4,268685.9,298472.3,263853.5,0.0
225704.3,237672.6,465343.5,510660.6,221580.0,269262.0,299237.8,264462.3,0.0
225562.1,237542.6,465247.1,510609.4,221535.3,269245.6,299297.6,264453.2,0.0
224836.3,237006.6,464624.2,509909.3,220917.1,268661.1,298566.4,263839.8,0.0
224521.9,236794.1,464301.5,509481.5,220581.2,268310.5,298047.6,263466.2,0.0
225051.5,237197.1,464694.0,509873.8,220993.0,268676.8,298453.0,263847.5,0.0
225688.5,237652.5,465227.1,510498.8,221583.5,269248.8,299213.7,264452.7,0.0
225548.9,237524.6,465133.4,510447.6,221538.9,269234.2,299272.7,264442.5,0.0
224818.4,236982.1,464505.0,509741.3,220916.5,268644.3,298535.3,263823.7,0.0
224500.2,236762.7,464171.7,509304.5,220568.3,268284.5,298005.8,263438.5,0.0
225037.2,237173.8,464565.7,509699.9,220977.0,268652.3,298409.7,263817.5,0.0
225678.3,237636.3,465102.4,510329.1,221566.6,269227.5,299170.9,264421.9,0.0
225536.6,237507.8,465010.2,510281.2,221520.9,269214.5,299232.3,264413.6,0.0
224815.0,236973.6,464396.1,509591.1,220909.2,268639.5,298509.9,263809.4,0.0
224524.3,236785.1,464089.8,509181.3,220585.5,268308.0,298008.0,263451.0,0.0
225065.4,237200.3,464486.5,509581.0,220997.9,268679.1,298415.8,263832.0,0.0
225706.0,237658.8,465024.8,510215.2,221593.5,269256.4,299183.5,264440.2,0.0
225552.3,237517.6,464924.7,510159.7,221539.5,269233.2,299235.4,264423.9,0.0
224815.5,236972.0,464291.7,509448.2,220906.4,268636.1,298489.5,263798.9,0.0
224495.4,236753.2,463957.9,509011.2,220558.1,268276.9,297959.8,263413.2,0.0
225023.3,237152.6,464342.1,509398.3,220960.9,268637.0,298355.8,263782.5,0.0
225661.3,237607.8,464879.4,510025.8,221551.9,269211.0,299116.3,264386.6,0.0
225527.2,237489.1,464793.6,509983.9,221511.1,269201.1,299180.4,264380.8,0.0
224795.9,236947.8,464166.6,509281.7,220887.9,268613.0,298445.3,263763.4,0.0
224475.3,236729.8,463830.8,508849.0,220539.8,268252.3,297921.1,263382.2,0.0
224991.3,237118.0,464204.4,509229.8,220934.4,268602.3,298312.7,263745.8,0.0
225632.7,237577.0,464739.0,509858.7,221524.0,269172.7,299072.6,264347.9,0.0
225524.1,237482.1,464676.6,509839.1,221506.9,269186.0,299157.9,264364.7,0.0
224800.7,236948.0,464060.2,509142.6,220893.7,268607.1,298432.3,263758.2,0.0
224480.3,236728.0,463727.8,508705.7,220545.5,268248.0,297904.9,263375.9,0.0
225006.8,237124.8,464111.7,509092.7,220946.6,268606.6,298298.9,263748.1,0.0
225648.1,237584.2,464648.6,509721.5,221537.8,269181.4,299059.5,264354.2,0.0
225523.8,237473.5,464570.8,509684.6,221505.3,269181.0,299131.5,264360.3,0.0
224792.8,236930.9,463949.5,508986.3,220889.3,268598.7,298402.9,263755.4,0.0
224467.0,236708.8,463613.6,508549.4,220542.3,268237.8,297874.7,263376.3,0.0
224996.2,237113.3,463995.8,508935.8,220945.1,268595.7,298268.9,263751.3,0.0
225639.4,237576.2,464536.2,509570.5,221546.6,269178.3,299037.8,264372.3,0.0
225508.6,237459.0,464452.7,509533.7,221512.5,269174.8,299110.5,264384.1,0.0
224771.6,236909.9,463821.4,508827.6,220886.3,268582.9,298373.7,263775.0,0.0
224452.7,236692.0,463489.7,508396.3,220542.8,268229.1,297850.6,263405.8,0.0
224976.7,237089.1,463872.7,508784.0,220946.6,268589.7,298249.1,263788.6,0.0
225624.2,237559.5,464413.9,509421.6,221544.5,269168.7,299017.9,264410.1,0.0
225488.2,237438.5,464327.7,509383.8,221504.4,269159.5,299084.7,264417.6,0.0
224753.3,236890.3,463702.1,508682.3,220881.6,268572.7,298352.3,263811.2,0.0
224437.5,236676.7,463374.9,508254.5,220538.2,268217.7,297832.0,263440.3,0.0
224966.6,237081.1,463762.1,508650.2,220943.5,268578.3,298234.7,263822.2,0.0
225591.8,237526.1,464284.4,509270.5,221522.7,269137.7,298986.0,264421.8,0.0
225454.6,237399.8,464194.7,509226.0,221483.3,269125.4,299050.2,264423.8,0.0
224729.5,236859.9,463573.3,508528.1,220867.3,268542.0,298321.9,263820.7,0.0
224411.4,236643.4,463248.3,508102.4,220528.8,268190.6,297803.7,263453.4,0.0
224945.6,237055.2,463639.9,508501.1,220938.9,268555.9,298210.1,263839.8,0.0
225598.0,237528.1,464184.8,509141.6,221540.3,269135.8,298981.3,264460.6,0.0
225462.8,237402.5,464097.5,509096.8,221500.6,269123.3,299044.4,264461.2,0.0
224731.8,236857.3,463476.1,508395.6,220880.1,268533.9,298313.2,263851.0,0.0
224407.4,236633.1,463144.5,507962.7,220532.1,268172.9,297788.8,263471.8,0.0
224932.7,237033.8,463529.3,508353.3,220934.0,268530.8,298186.1,263845.6,0.0
225578.5,237502.1,464068.1,508986.9,221527.9,269105.7,298951.8,264456.9,0.0
225444.7,237381.7,463982.3,508947.1,221487.6,269097.4,299020.5,264459.8,0.0
224710.3,236838.1,463357.2,508244.8,220865.1,268505.6,298285.9,263846.1,0.0
224389.5,236621.4,463026.3,507813.4,220520.0,268145.7,297759.8,263467.0,0.0
224922.7,237029.0,463418.8,508212.9,220930.7,268511.9,298166.4,263851.1,0.0
225564.1,237484.5,463957.1,508847.2,221526.9,269088.7,298933.4,264462.6,0.0
225432.6,237365.8,463871.0,508805.1,221487.7,269077.1,298999.4,264460.1,0.0
224711.2,236835.4,463254.5,508113.4,220876.4,268498.4,298278.2,263855.4,0.0
224381.8,236608.2,462913.0,507671.4,220519.3,268130.3,297744.5,263465.9,0.0
224910.8,237013.7,463301.2,508064.9,220925.6,268492.8,298146.2,263843.2,0.0
225557.7,237475.5,463842.0,508698.8,221519.6,269069.8,298912.8,264454.2,0.0
225426.6,237349.5,463759.7,508661.1,221483.9,269061.9,298981.9,264458.5,0.0
224697.1,236808.5,463134.3,507960.8,220863.3,268473.8,298249.5,263845.9,0.0
224373.3,236589.0,462800.2,507527.8,220513.7,268110.9,297724.2,263463.3,0.0
224903.2,236992.1,463190.6,507921.3,220917.3,268469.8,298126.7,263840.4,0.0
225547.7,237457.8,463733.7,508557.1,221512.8,269046.9,298893.3,264452.2,0.0
225408.1,237331.8,463643.3,508511.5,221468.7,269032.1,298955.3,264445.0,0.0
224670.8,236782.8,463014.1,507805.6,220844.5,268440.3,298217.5,263824.9,0.0
224351.6,236565.5,462683.7,507371.7,220498.9,268080.4,297689.5,263443.1,0.0
224892.4,236980.5,463082.9,507770.3,220913.1,268449.4,298096.0,263827.6,0.0
225532.5,237440.2,463622.2,508402.3,221506.3,269025.1,298860.5,264435.8,0.0
225397.3,237315.5,463536.2,508361.8,221467.7,269015.5,298928.1,264431.5,0.0
224678.8,236785.3,462922.6,507675.0,220860.8,268440.5,298208.6,263826.1,0.0
224356.9,236567.5,462589.8,507242.4,220515.7,268082.4,297683.8,263441.5,0.0
224868.8,236951.2,462959.5,507618.3,220901.8,268424.0,298066.9,263796.1,0.0
225519.2,237419.6,463504.2,508258.8,221500.7,269003.6,298835.8,264407.5,0.0
225383.4,237294.6,463420.0,508219.4,221460.6,268994.6,298902.1,264404.4,0.0
224653.2,236752.0,462799.0,507519.8,220837.6,268408.2,298170.4,263789.1,0.0
224338.5,236539.0,462472.4,507089.8,220492.3,268052.3,297647.1,263408.4,0.0
224864.1,236937.0,462856.6,507479.7,220892.0,268407.9,298041.7,263775.5,0.0
225499.8,237391.9,463389.6,508108.7,221479.8,268976.7,298797.9,264376.7,0.0
225377.6,237285.4,463312.8,508080.0,221452.0,268979.0,298873.7,264384.6,0.0
224664.4,236761.1,462704.9,507396.2,220848.5,268409.1,298157.3,263784.3,0.0
224348.3,236549.0,462379.9,506966.1,220504.3,268052.5,297632.8,263404.7,0.0
224861.5,236939.3,462754.1,507344.7,220894.8,268398.7,298015.3,263761.5,0.0
225498.4,237394.5,463285.9,507973.4,221483.0,268969.2,298771.8,264362.8,0.0
225365.5,237270.4,463199.6,507934.6,221442.1,268961.2,298838.3,264363.6,0.0
224636.2,236727.2,462573.9,507233.6,220819.6,268374.6,298105.9,263752.1,0.0
224318.9,236510.5,462244.2,506801.0,220473.5,268018.5,297580.3,263372.2,0.0
224852.8,236919.4,462635.7,507198.1,220882.9,268387.6,297983.3,263752.2,0.0
225492.3,237378.9,463170.7,507830.7,221473.3,268961.9,298743.1,264358.5,0.0
225350.6,237248.8,463077.1,507783.0,221426.9,268943.8,298799.3,264348.3,0.0
224621.7,236707.5,462453.3,507083.7,220808.0,268356.0,298064.8,263734.5,0.0
224307.4,236494.1,462126.4,506654.7,220465.6,268003.2,297541.8,263357.9,0.0
224835.9,236895.9,462514.2,507048.1,220870.7,268364.3,297940.9,263733.1,0.0
225478.2,237356.2,463052.4,507683.8,221465.7,268940.0,298706.5,264343.5,0.0
225340.7,237232.2,462966.3,507643.1,221428.5,268930.1,298772.6,264341.9,0.0
224615.5,236698.1,462348.4,506949.0,220815.9,268348.0,298045.8,263733.6,0.0
224290.5,236473.7,462014.4,506514.5,220466.4,267984.7,297517.3,263349.3,0.0
224819.5,236877.0,462401.7,506907.1,220868.7,268343.8,297913.9,263721.4,0.0
225467.6,237346.4,462940.1,507542.9,221462.7,268919.8,298677.1,264329.3,0.0
225350.8,237242.4,462868.9,507521.1,221440.6,268927.7,298760.7,264345.2,0.0
224618.8,236695.7,462246.9,506824.3,220820.1,268343.5,298031.8,263734.1,0.0
224291.5,236469.5,461909.6,506384.3,220466.2,267979.4,297498.8,263344.8,0.0
224821.3,236872.7,462295.6,506776.7,220870.7,268338.6,297898.1,263718.3,0.0
225462.8,237333.0,462834.7,507414.2,221466.3,268916.3,298667.8,264329.6,0.0
225325.8,237209.5,462747.4,507373.5,221424.0,268904.2,298732.7,264320.8,0.0
224601.4,236677.5,462129.6,506680.6,220809.3,268323.3,298007.1,263709.1,0.0
224274.1,236453.0,461795.7,506245.1,220461.2,267959.3,297477.7,263323.0,0.0
224789.1,236842.0,462169.5,506625.6,220851.2,268303.3,297861.0,263682.1,0.0
225428.2,237300.3,462702.7,507252.6,221437.9,268868.5,298614.7,264282.4,0.0
225304.7,237189.7,462626.0,507221.4,221408.9,268866.1,298689.4,264290.0,0.0
224577.5,236653.7,462006.4,506524.0,220789.8,268282.9,297959.8,263678.0,0.0
224254.9,236432.8,461673.2,506089.5,220440.6,267924.0,297431.8,263293.8,0.0
224785.8,236837.6,462060.8,506483.1,220845.0,268282.1,297829.4,263666.4,0.0
225435.5,237306.9,462604.3,507125.0,221443.1,268863.7,298598.1,264278.1,0.0
225301.4,237182.2,462519.2,507087.7,221403.9,268857.2,298665.7,264277.3,0.0
224577.2,236646.3,461904.5,506396.8,220791.9,268280.2,297940.8,263670.7,0.0
224265.6,236440.9,461578.1,505970.3,220452.0,267929.3,297416.9,263292.7,0.0
224780.2,236829.5,461954.3,506352.8,220844.5,268279.6,297803.8,263653.7,0.0
225410.5,237277.5,462482.8,506978.2,221427.7,268843.7,298555.0,264248.4,0.0
225280.7,237160.9,462398.7,506941.3,221391.0,268836.3,298621.2,264244.4,0.0
224558.9,236626.7,461783.2,506250.1,220780.2,268258.4,297896.8,263637.3,0.0
224245.4,236413.6,461458.4,505823.0,220441.5,267907.6,297378.6,263259.3,0.0
224778.4,236818.6,461845.1,506212.9,220847.5,268267.7,297776.1,263628.8,0.0
225423.0,237281.9,462383.5,506848.9,221441.7,268843.2,298541.3,264236.3,0.0
225285.6,237157.3,462296.1,506808.1,221398.0,268829.9,298604.7,264228.1,0.0
224555.7,236615.9,461674.8,506112.5,220778.3,268244.7,297875.6,263613.3,0.0
224235.0,236397.1,461342.3,505681.3,220431.1,267885.7,297349.8,263230.3,0.0
224758.1,236793.8,461724.6,506069.7,220831.6,268243.3,297744.8,263599.4,0.0
225407.2,237263.3,462266.6,506707.6,221429.1,268822.6,298510.3,264208.7,0.0
225277.9,237145.4,462184.8,506669.3,221394.6,268816.4,298576.9,264205.1,0.0
224547.6,236603.3,461561.4,505968.9,220773.6,268230.3,297840.1,263587.0,0.0
224224.3,236381.0,461228.9,505536.5,220424.3,267871.7,297311.9,263201.1,0.0
224745.4,236774.2,461610.8,505923.3,220820.8,268225.8,297703.9,263565.2,0.0
225378.8,237226.9,462144.3,506552.3,221408.0,268794.4,298459.5,264164.7,0.0
225253.1,237113.2,462066.9,506519.9,221375.3,268792.3,298530.6,264167.2,0.0
224533.1,236583.6,461454.8,505832.2,220765.3,268218.1,297808.5,263561.8,0.0
224207.3,236363.1,461119.0,505398.1,220414.6,267855.6,297279.2,263175.0,0.0
224730.3,236761.7,461498.6,505782.6,220811.5,268209.2,297669.5,263539.1,0.0
225378.7,237230.1,462042.1,506422.4,221410.0,268791.7,298437.4,264150.9,0.0
225244.4,237107.0,461960.0,506386.5,221373.8,268788.2,298505.0,264150.5,0.0
224516.8,236566.1,461338.4,505689.4,220758.7,268204.5,297775.6,263537.0,0.0
224200.9,236353.1,461006.4,505255.9,220413.1,267843.8,297248.3,263153.5,0.0
224730.6,236759.8,461393.8,505647.1,220818.7,268205.4,297648.9,263526.0,0.0
225372.5,237221.3,461931.9,506281.6,221411.6,268781.1,298411.8,264129.5,0.0
225239.0,237099.6,461847.8,506245.9,221375.6,268774.8,298478.7,264125.9,0.0
224507.1,236559.2,461228.2,505551.8,220759.6,268194.4,297748.8,263513.3,0.0
224187.6,236343.1,460901.7,505124.5,220416.0,267840.0,297223.8,263133.5,0.0
224723.6,236753.2,461291.6,505520.1,220822.6,268202.9,297622.7,263508.6,0.0
225366.6,237213.0,461830.8,506153.8,221415.0,268777.0,298386.0,264114.8,0.0
225241.3,237100.1,461753.8,506122.4,221384.7,268775.6,298459.5,264117.7,0.0
224515.8,236564.8,461135.4,505430.1,220771.2,268196.7,297733.1,263508.2,0.0
224192.7,236343.9,460804.6,505000.1,220424.6,267838.7,297206.5,263125.0,0.0
224713.5,236739.9,461190.7,505390.9,220825.2,268195.6,297600.8,263495.2,0.0
225350.7,237195.7,461722.0,506016.9,221408.8,268761.2,298351.9,264093.1,0.0
225224.1,237079.3,461642.9,505985.2,221374.9,268759.0,298422.1,264094.4,0.0
224500.1,236543.1,461025.5,505294.3,220760.5,268177.8,297695.6,263484.0,0.0
224175.7,236321.6,460692.6,504863.2,220412.5,267815.8,297167.0,263100.5,0.0
224697.7,236718.6,461075.0,505251.3,220808.3,268171.4,297559.8,263468.3,0.0
225339.3,237181.4,461613.6,505882.8,221398.6,268744.3,298319.3,264072.4,0.0
225216.7,237070.1,461536.3,505851.9,221368.9,268742.7,298391.6,264077.8,0.0
224485.4,236523.0,460911.9,505151.6,220746.6,268153.7,297656.5,263463.0,0.0
224160.6,236298.2,460577.0,504716.4,220395.3,267788.5,297121.7,263076.0,0.0
224695.5,236706.1,460970.9,505115.8,220803.7,268154.2,297522.4,263453.6,0.0
225341.6,237169.2,461513.4,505755.5,221399.0,268734.4,298288.3,264065.4,0.0
225210.7,237052.0,461432.8,505721.4,221363.7,268731.1,298358.4,264068.2,0.0
224476.7,236509.5,460807.7,505022.6,220741.9,268145.0,297625.0,263452.1,0.0
224158.1,236293.6,460477.4,504597.2,220395.7,267789.0,297103.1,263073.7,0.0
224690.7,236699.1,460868.8,504997.8,220802.6,268152.0,297506.9,263452.3,0.0
225332.4,237160.3,461408.7,505634.6,221397.9,268728.0,298271.2,264060.0,0.0
225204.0,237046.3,461329.8,505604.3,221365.7,268727.8,298344.8,264064.5,0.0
224481.1,236513.2,460716.0,504919.8,220755.0,268154.2,297625.5,263464.5,0.0
224164.2,236300.6,460389.3,504493.3,220409.5,267799.4,297103.7,263087.5,0.0
224680.0,236691.6,460765.1,504871.0,220795.2,268141.9,297485.7,263445.2,0.0
225309.5,237137.2,461291.3,505492.3,221372.9,268701.2,298235.2,264038.8,0.0
225177.2,237013.8,461205.8,505453.7,221331.1,268689.5,298300.5,264032.6,0.0
224450.0,236475.6,460587.0,504757.8,220711.0,268105.4,297570.4,263417.7,0.0
224133.5,236262.1,460258.9,504328.1,220366.5,267749.3,297045.2,263034.7,0.0
224664.4,236666.7,460648.6,504724.4,220772.8,268113.1,297447.3,263408.4,0.0
225309.0,237128.9,461189.7,505364.1,221368.3,268692.6,298213.8,264017.7,0.0
225175.5,237005.8,461110.1,505332.7,221334.9,268689.7,298286.4,264022.3,0.0
224454.1,236475.5,460495.8,504641.4,220723.2,268109.6,297559.5,263415.8,0.0
224131.8,236254.7,460162.3,504207.0,220375.8,267746.5,297026.7,263030.4,0.0
224649.3,236646.3,460539.2,504589.7,220770.5,268094.3,297413.1,263392.3,0.0
225291.5,237110.7,461077.1,505222.3,221360.3,268664.8,298170.6,263993.4,0.0
225163.8,236996.5,460999.8,505193.2,221328.4,268661.1,298242.7,263997.9,0.0
224437.9,236456.3,460381.8,504501.5,220711.7,268076.5,297513.6,263387.7,0.0
224128.5,236247.8,460061.4,504081.3,220371.9,267724.2,296994.3,263013.7,0.0
224655.0,236648.3,460450.0,504477.0,220774.1,268082.5,297389.9,263385.2,0.0
225293.3,237102.2,460986.9,505112.9,221366.9,268656.3,298150.5,263988.2,0.0
225164.3,236983.0,460905.5,505081.2,221332.5,268653.0,298222.5,263990.0,0.0
224441.8,236449.5,460286.0,504388.6,220715.2,268071.1,297495.6,263379.3,0.0
224127.1,236236.8,459962.6,503965.5,220375.2,267721.8,296976.3,263004.7,0.0
224652.4,236637.8,460347.5,504359.0,220776.7,268082.7,297372.4,263376.3,0.0
225274.2,237077.2,460868.2,504975.0,221347.9,268636.7,298113.8,263960.5,0.0
225145.0,236959.9,460788.5,504940.1,221308.3,268630.8,298179.3,263956.6,0.0
224412.9,236418.6,460165.0,504241.7,220685.7,268044.2,297446.6,263338.4,0.0
224098.4,236205.6,459841.6,503818.2,220348.3,267694.7,296924.8,262962.6,0.0
224632.5,236616.7,460235.7,504217.0,220757.8,268059.5,297326.7,263340.0,0.0
225270.1,237076.7,460774.4,504853.7,221351.4,268633.5,298088.9,263945.2,0.0
225147.9,236968.3,460704.6,504832.6,221327.1,268638.8,298169.0,263952.9,0.0
224420.9,236429.3,460085.7,504142.4,220711.7,268056.5,297441.0,263340.9,0.0
224099.6,236208.3,459756.3,503714.1,220365.5,267699.5,296917.2,262960.7,0.0
224626.8,236611.3,460145.7,504109.0,220766.6,268059.2,297316.9,263333.4,0.0
225263.6,237069.2,460683.6,504742.3,221353.9,268628.7,298076.9,263935.9,0.0
225136.5,236955.4,460604.7,504711.3,221319.3,268624.3,298147.6,263940.0,0.0
224412.2,236419.2,459988.6,504021.4,220706.6,268047.3,297422.4,263334.8,0.0
224081.0,236190.1,459652.1,503580.4,220353.7,267682.2,296889.8,262947.9,0.0
224607.7,236591.4,460037.9,503971.3,220753.8,268039.4,297284.6,263323.6,0.0
225259.6,237065.4,460586.1,504616.8,221354.1,268625.9,298055.2,263945.0,0.0
225132.1,236948.8,460510.3,504589.3,221321.7,268629.6,298129.8,263957.9,0.0
224390.3,236391.9,459875.2,503881.8,220690.4,268033.3,297387.6,263344.1,0.0
224061.5,236164.5,459534.5,503445.5,220337.5,267668.4,296854.7,262966.0,0.0
224585.5,236563.1,459920.2,503839.7,220740.8,268029.5,297251.7,263347.1,0.0
225224.4,237023.1,460459.7,504477.8,221333.2,268605.3,298015.5,263963.1,0.0
225101.7,236914.6,460386.8,504451.7,221302.7,268605.8,298091.5,263981.3,0.0
224372.4,236372.3,459767.8,503761.0,220686.5,268024.3,297365.8,263384.0,0.0
224046.4,236150.9,459432.8,503327.6,220333.7,267659.0,296835.3,263007.3,0.0
224574.2,236553.7,459819.8,503723.0,220737.1,268016.5,297234.8,263389.9,0.0
225217.6,237020.7,460362.2,504367.1,221334.1,268596.1,298007.6,264010.9,0.0
225089.3,236906.7,460283.8,504339.7,221301.4,268596.1,298085.8,264025.5,0.0
224372.2,236378.5,459675.2,503658.4,220694.8,268022.8,297371.9,263434.7,0.0
224053.8,236162.1,459347.9,503234.1,220352.4,267666.9,296853.3,263065.6,0.0
224581.5,236562.5,459737.2,503630.5,220756.5,268024.6,297255.3,263446.2,0.0
225224.1,237021.1,460278.7,504267.4,221347.6,268597.7,298020.4,264059.0,0.0
225091.5,236900.1,460199.3,504234.2,221312.9,268591.8,298091.1,264064.7,0.0
224362.0,236360.1,459584.2,503543.2,220698.3,268010.5,297367.0,263461.9,0.0
224040.1,236139.4,459253.9,503110.4,220350.0,267647.9,296840.4,263082.7,0.0
224565.8,236538.7,459638.4,503502.3,220748.2,268001.4,297234.8,263455.7,0.0
225207.1,236998.5,460176.7,504139.2,221339.4,268577.3,297998.9,264064.3,0.0
225077.4,236880.3,460099.2,504109.8,221305.0,268573.8,298072.2,264069.2,0.0
224352.3,236343.1,459484.9,503422.2,220692.7,267993.8,297349.6,263467.1,0.0
224023.8,236114.9,459149.4,502986.7,220340.2,267628.5,296819.6,263083.2,0.0
224540.3,236504.0,459525.1,503367.6,220730.5,267973.2,297204.3,263445.5,0.0
225173.9,236961.0,460057.6,503997.8,221315.9,268540.8,297962.3,264049.0,0.0
225043.7,236844.4,459976.8,503964.9,221281.0,268537.0,298035.1,264055.1,0.0
224317.1,236304.9,459358.8,503275.6,220664.8,267955.2,297308.7,263449.6,0.0
223996.9,236087.2,459029.1,502849.0,220319.4,267597.9,296786.1,263073.4,0.0
224522.9,236487.4,459415.9,503245.3,220722.1,267957.0,297187.8,263450.6,0.0
225164.0,236947.5,459955.9,503882.8,221315.4,268530.8,297954.1,264057.8,0.0
225051.4,236845.7,459889.5,503863.7,221293.4,268538.9,298038.8,264071.9,0.0
224321.8,236303.5,459266.3,503168.1,220673.1,267951.8,297308.9,263457.9,0.0
223989.8,236074.8,458927.2,502732.0,220315.9,267581.1,296775.2,263069.3,0.0
224515.6,236472.8,459314.0,503126.5,220716.6,267937.2,297173.6,263443.1,0.0
225156.4,236931.3,459851.9,503764.9,221306.8,268510.3,297937.8,264052.0,0.0
225026.7,236811.6,459775.8,503740.6,221274.1,268507.3,298015.3,264060.8,0.0
224299.1,236272.3,459157.9,503049.3,220655.3,267921.6,297288.8,263451.9,0.0
223971.3,236046.0,458821.7,502614.7,220302.9,267555.0,296757.3,263064.8,0.0
224486.0,236432.4,459199.9,502997.3,220696.0,267900.5,297143.5,263427.5,0.0
225130.5,236896.7,459744.5,503637.8,221293.3,268478.1,297911.1,264039.8,0.0
225003.3,236783.5,459671.3,503613.1,221263.1,268477.4,297988.2,264046.3,0.0
224281.1,236249.9,459056.1,502923.9,220649.1,267896.4,297265.8,263438.8,0.0
223968.4,236041.0,458733.7,502502.7,220307.7,267543.0,296749.0,263065.7,0.0
224495.9,236446.8,459123.2,502899.1,220710.0,267901.4,297149.2,263440.7,0.0
225139.1,236908.4,459663.9,503537.8,221302.9,268474.9,297915.0,264049.8,0.0
225011.4,236790.7,459586.2,503506.9,221270.9,268470.3,297987.6,264054.6,0.0
224270.4,236238.0,458954.3,502803.8,220641.8,267873.7,297247.6,263431.3,0.0
223949.6,236019.8,458625.3,502379.4,220295.9,267514.8,296723.3,263048.6,0.0
224481.1,236429.1,459019.3,502781.1,220705.7,267878.8,297127.5,263425.7,0.0
225118.8,236887.5,459556.8,503417.7,221296.0,268451.5,297890.3,264029.5,0.0
224984.9,236762.3,459473.9,503382.8,221253.8,268441.9,297956.5,264024.9,0.0
224260.1,236227.4,458857.7,502691.0,220634.1,267857.3,297227.4,263412.7,0.0
223938.8,236008.6,458529.3,502262.0,220289.1,267500.2,296703.2,263032.6,0.0
224467.1,236411.3,458918.3,502656.5,220694.8,267860.0,297100.2,263404.5,0.0
225114.1,236876.0,459463.5,503299.4,221292.9,268438.8,297867.0,264012.6,0.0
224985.3,236757.1,459382.9,503267.3,221258.9,268432.8,297937.5,264010.9,0.0
224248.8,236207.7,458753.4,502564.5,220632.9,267839.6,297200.5,263388.8,0.0
223936.2,235998.1,458432.5,502145.7,220295.9,267489.1,296684.8,263017.6,0.0
224465.0,236403.8,458824.0,502543.5,220701.1,267848.9,297083.7,263392.4,0.0
225102.1,236864.0,459362.6,503180.3,221291.7,268420.5,297843.2,263993.9,0.0
224969.5,236746.4,459285.1,503152.0,221258.4,268416.8,297917.6,263995.4,0.0
224249.2,236217.3,458671.8,502467.1,220649.2,267841.9,297199.0,263392.3,0.0
223930.1,236000.8,458342.0,502039.3,220302.5,267484.5,296673.8,263010.8,0.0
224451.8,236394.1,458724.3,502426.9,220696.2,267836.8,297065.1,263376.1,0.0
225092.2,236850.3,459259.6,503058.9,221283.7,268406.1,297822.6,263976.7,0.0
224963.1,236735.5,459179.6,503028.1,221248.0,268402.2,297892.1,263979.1,0.0
224236.8,236198.8,458562.8,502338.6,220633.5,267822.6,297165.2,263371.3,0.0
223922.1,235987.0,458236.4,501915.2,220291.6,267468.1,296642.4,262992.8,0.0
224446.7,236386.3,458620.3,502306.3,220690.3,267822.8,297035.1,263361.8,0.0
225092.0,236849.0,459165.0,502949.5,221286.7,268402.0,297803.0,263976.0,0.0
224964.7,236735.7,459085.4,502914.8,221249.6,268394.4,297868.8,263973.4,0.0
224237.9,236195.6,458467.5,502223.1,220632.7,267812.1,297140.0,263361.4,0.0
223919.3,235977.0,458141.0,501800.2,220289.2,267457.5,296618.2,262981.9,0.0
224433.3,236366.0,458516.5,502180.3,220679.8,267800.8,297000.5,263339.4,0.0
225078.6,236830.1,459058.2,502816.9,221272.9,268375.1,297763.0,263945.0,0.0
224948.1,236708.8,458981.7,502790.0,221241.9,268374.1,297836.9,263949.0,0.0
224223.4,236171.0,458365.1,502101.7,220627.3,267794.0,297110.7,263339.4,0.0
223901.1,235952.7,458032.3,501671.0,220278.5,267432.5,296582.0,262954.3,0.0
224428.4,236358.4,458418.6,502065.8,220681.4,267789.8,296979.1,263326.3,0.0
225069.2,236819.3,458960.6,502707.4,221275.5,268366.5,297745.2,263935.4,0.0
224933.1,236696.8,458880.8,502676.3,221237.0,268360.1,297817.5,263935.9,0.0
224194.5,236147.4,458255.3,501975.8,220608.9,267765.7,297079.0,263313.4,0.0
223878.0,235933.2,457929.0,501548.5,220261.8,267407.3,296551.6,262928.9,0.0
224416.0,236347.0,458326.4,501953.3,220676.1,267778.8,296960.0,263309.3,0.0
225057.3,236806.7,458866.0,502589.6,221270.7,268354.7,297724.6,263916.1,0.0
224920.6,236681.2,458780.2,502549.9,221226.7,268342.4,297788.1,263907.6,0.0
224187.8,236137.3,458161.2,501856.3,220606.4,267759.5,297057.9,263295.3,0.0
223872.9,235926.2,457840.6,501435.3,220264.5,267408.9,296537.4,262921.4,0.0
224400.3,236325.9,458229.4,501828.2,220664.2,267766.0,296932.9,263291.8,0.0
225031.4,236772.3,458761.7,502455.2,221246.4,268330.7,297687.3,263887.0,0.0
224905.8,236656.3,458685.8,502423.7,221211.1,268327.4,297758.7,263885.5,0.0
224189.6,236128.2,458073.5,501740.5,220597.4,267749.3,297035.3,263278.4,0.0
223866.4,235908.9,457745.3,501314.2,220250.2,267390.3,296510.0,262896.1,0.0
224390.6,236307.4,458131.6,501706.2,220653.1,267748.2,296905.3,263265.0,0.0
225037.3,236773.1,458672.0,502345.8,221247.8,268324.1,297669.0,263870.0,0.0
224911.7,236661.2,458593.8,502316.7,221213.3,268319.1,297741.4,263868.5,0.0
224174.0,236112.9,457966.1,501617.1,220586.2,267725.8,297003.6,263246.1,0.0
223849.7,235890.0,457634.7,501188.6,220237.2,267364.0,296475.7,262861.9,0.0
224376.1,236290.1,458022.0,501585.1,220641.1,267723.9,296871.4,263234.2,0.0
225026.4,236760.8,458565.8,502225.7,221238.0,268302.4,297634.9,263841.0,0.0
224893.5,236643.5,458488.7,502195.8,221203.9,268297.5,297703.7,263841.5,0.0
224162.8,236106.3,457871.9,501507.3,220589.1,267715.7,296974.7,263229.7,0.0
223842.5,235890.4,457545.9,501082.0,220244.6,267360.8,296449.0,262848.8,0.0
224367.6,236290.5,457933.1,501472.5,220642.7,267716.5,296841.1,263214.5,0.0
225006.3,236747.8,458472.7,502105.3,221231.2,268286.3,297599.0,263815.3,0.0
224876.3,236627.6,458394.7,502073.7,221195.0,268280.6,297670.1,263813.9,0.0
224151.1,236091.3,457777.3,501384.6,220579.7,267699.4,296944.6,263202.9,0.0
223835.8,235874.5,457449.0,500956.6,220236.6,267342.7,296419.6,262821.9,0.0
224359.5,236271.9,457835.4,501347.8,220636.8,267699.4,296813.4,263191.5,0.0
224992.1,236726.4,458368.8,501978.9,221221.6,268267.1,297567.1,263790.0,0.0
224868.8,236613.4,458294.6,501953.8,221191.3,268269.1,297641.6,263794.3,0.0
224141.6,236073.0,457679.1,501262.4,220576.0,267685.9,296914.7,263184.6,0.0
223822.2,235855.1,457352.3,500833.9,220230.4,267324.7,296389.0,262801.6,0.0
224354.0,236259.8,457742.8,501229.2,220633.5,267683.7,296786.8,263172.7,0.0
224994.4,236722.2,458283.3,501868.0,221227.4,268259.7,297549.8,263776.2,0.0
224859.5,236601.6,458202.4,501837.7,221192.5,268254.4,297619.4,263774.5,0.0
224131.1,236064.7,457580.1,501144.1,220570.0,267667.3,296885.1,263155.6,0.0
223812.1,235849.5,457253.0,500721.0,220222.3,267312.7,296360.5,262773.1,0.0
224341.7,236252.9,457642.4,501119.8,220624.0,267671.4,296757.8,263143.3,0.0
224981.4,236712.9,458181.5,501758.8,221213.0,268242.8,297518.3,263745.6,0.0
224853.5,236600.0,458108.8,501733.6,221183.8,268243.8,297594.3,263751.1,0.0
224114.2,236049.0,457484.0,501035.2,220561.1,267654.0,296858.7,263133.7,0.0
223795.0,235832.6,457150.7,500603.6,220212.4,267290.4,296326.8,262745.8,0.0
224325.7,236238.5,457540.6,501002.6,220618.2,267651.1,296724.7,263119.6,0.0
224969.2,236700.2,458083.5,501643.0,221210.6,268228.0,297490.2,263729.0,0.0
224840.0,236582.2,458006.6,501609.8,221173.7,268224.2,297560.0,263728.5,0.0
224116.3,236046.2,457393.6,500922.3,220562.0,267646.0,296834.7,263121.4,0.0
223792.5,235824.0,457063.6,500496.0,220214.7,267287.8,296306.3,262739.6,0.0
224323.4,236230.1,457453.0,500892.3,220616.9,267646.5,296701.4,263111.7,0.0
224969.3,236694.5,457995.2,501531.4,221210.2,268220.7,297463.1,263717.9,0.0
224838.4,236577.5,457914.8,501499.9,221175.5,268214.0,297531.9,263716.9,0.0
224113.3,236040.4,457299.6,500809.5,220559.9,267631.6,296802.5,263105.2,0.0
223799.1,235826.2,456979.6,500388.5,220218.3,267277.5,296282.3,262729.9,0.0
224322.9,236225.3,457370.4,500785.0,220622.3,267637.2,296681.4,263104.5,0.0
224956.5,236674.4,457902.4,501416.9,221204.0,268204.2,297435.2,263701.8,0.0
224809.2,236535.4,457805.3,501370.5,221151.0,268182.6,297486.8,263685.3,0.0
224082.0,235995.6,457187.4,500680.9,220536.7,267602.6,296758.2,263075.4,0.0
223770.3,235785.8,456864.8,500260.5,220197.1,267254.6,296240.0,262700.3,0.0
224308.1,236194.7,457259.4,500665.3,220605.4,267622.1,296644.7,263078.3,0.0
224955.8,236662.0,457803.4,501310.3,221201.5,268201.9,297412.3,263686.9,0.0
224827.9,236547.1,457728.2,501283.4,221172.5,268202.3,297487.1,263690.1,0.0
224105.9,236015.9,457117.6,500598.1,220564.9,267629.2,296766.6,263085.9,0.0
223788.7,235802.5,456791.8,500172.5,220223.7,267273.3,296246.0,262708.5,0.0
224314.1,236204.7,457180.5,500567.4,220626.8,267631.4,296642.7,263080.4,0.0
224952.6,236665.3,457721.1,501204.5,221218.0,268204.2,297403.8,263687.0,0.0
224815.8,236539.8,457637.2,501166.4,221175.3,268192.0,297466.1,263683.2,0.0
224082.8,235994.6,457016.3,500469.1,220552.2,267603.4,296731.6,263066.5,0.0
223759.2,235773.6,456683.9,500036.9,220203.0,267239.8,296201.6,262680.5,0.0
224294.0,236181.4,457076.3,500435.6,220611.0,267600.8,296601.8,263054.8,0.0
224938.9,236643.7,457617.7,501073.2,221205.7,268176.5,297364.8,263660.1,0.0
224799.2,236517.1,457530.0,501032.4,221159.3,268162.2,297424.5,263649.5,0.0
224073.0,235977.3,456912.4,500343.9,220543.2,267582.5,296696.5,263040.6,0.0
223744.0,235749.4,456575.4,499910.5,220188.8,267217.5,296163.2,262652.8,0.0
224274.9,236154.0,456968.2,500311.9,220593.1,267578.8,296564.0,263029.3,0.0
224916.9,236616.0,457510.1,500951.9,221183.3,268154.0,297327.3,263634.2,0.0
224792.7,236503.5,457438.8,500929.1,221155.0,268158.4,297405.3,263640.7,0.0
224060.7,235957.0,456813.3,500231.0,220531.2,267567.3,296667.5,263020.5,0.0
223736.0,235736.2,456479.0,499798.9,220181.3,267203.8,296135.9,262633.4,0.0
224271.2,236146.0,456874.2,500202.3,220591.9,267572.6,296541.2,263014.4,0.0
224913.5,236608.3,457411.8,500835.8,221180.5,268143.3,297299.8,263616.3,0.0
224782.5,236487.4,457332.4,500803.9,221143.8,268136.6,297369.9,263615.4,0.0
224056.1,235947.5,456714.7,500117.0,220528.8,267553.3,296641.6,263004.7,0.0
223738.4,235732.4,456388.5,499697.2,220187.8,267197.5,296118.0,262624.5,0.0
224271.4,236142.4,456787.1,500102.7,220599.2,267563.3,296524.4,263001.6,0.0
224900.4,236593.1,457318.7,500729.9,221180.6,268126.5,297276.3,263592.9,0.0
224763.8,236472.2,457235.9,500695.3,221139.9,268116.2,297337.8,263585.1,0.0
224042.1,235940.0,456625.1,500011.9,220528.4,267538.4,296614.0,262979.3,0.0
223725.4,235724.2,456298.8,499587.3,220185.6,267183.2,296092.3,262600.6,0.0
224247.8,236121.9,456682.8,499978.2,220583.4,267538.9,296486.3,262970.9,0.0
224891.0,236584.5,457224.3,500618.6,221176.7,268113.5,297250.2,263579.2,0.0
224764.4,236471.9,457151.7,500594.7,221149.4,268113.6,297325.9,263584.7,0.0
224040.7,235936.9,456536.4,499908.1,220535.3,267533.8,296601.2,262975.7,0.0
223706.4,235703.3,456195.2,499473.3,220179.5,267168.7,296067.9,262586.3,0.0
224232.4,236101.7,456580.1,499868.7,220579.9,267527.1,296464.0,262955.5,0.0
224887.3,236575.7,457127.5,500515.1,221175.4,268106.9,297236.7,263567.1,0.0
224757.6,236456.5,457050.5,500488.8,221140.0,268101.8,297311.8,263569.6,0.0
224022.0,235907.8,456424.8,499791.6,220515.4,267509.8,296576.9,262950.8,0.0
223701.5,235688.2,456093.5,499364.3,220167.2,267151.5,296049.8,262568.9,0.0
224230.8,236090.2,456483.0,499760.1,220568.8,267509.6,296444.8,262941.7,0.0
224873.5,236550.3,457023.6,500398.1,221156.3,268081.3,297203.2,263548.9,0.0
224746.2,236439.0,456947.7,500367.3,221119.7,268076.7,297271.4,263554.3,0.0
224014.5,235898.8,456330.5,499675.0,220502.2,267492.9,296540.3,262946.3,0.0
223697.1,235685.8,456008.0,499254.2,220161.9,267142.4,296022.9,262579.1,0.0
224221.7,236085.0,456398.0,499652.1,220565.6,267505.3,296423.8,262963.5,0.0
224859.1,236542.4,456933.0,500286.1,221151.2,268073.8,297181.3,263574.3,0.0
224725.3,236421.2,456852.8,500253.6,221112.9,268067.0,297248.3,263583.8,0.0
223998.3,235883.2,456234.1,499561.0,220493.8,267482.1,296516.6,262980.8,0.0
223678.0,235668.0,455909.2,499140.9,220152.4,267128.0,295996.5,262614.6,0.0
224206.9,236072.3,456304.2,499546.4,220560.9,267494.9,296403.5,263003.1,0.0
224843.6,236532.6,456842.9,500184.1,221148.4,268066.8,297167.2,263616.8,0.0
224704.5,236410.0,456760.1,500151.8,221107.3,268058.4,297236.5,263623.7,0.0
223971.0,235863.3,456143.5,499463.9,220489.6,267474.2,296512.7,263023.5,0.0
223650.0,235642.2,455816.7,499039.3,220143.5,267115.4,295990.5,262651.0,0.0
224185.7,236051.8,456209.9,499441.4,220549.0,267476.5,296394.8,263033.8,0.0
224826.7,236511.0,456750.6,500084.5,221140.0,268052.9,297162.4,263647.3,0.0
224698.2,236394.0,456674.7,500061.2,221108.0,268054.4,297239.9,263658.4,0.0
223966.5,235850.5,456053.4,499370.1,220484.9,267469.3,296509.8,263050.4,0.0
223643.1,235629.7,455725.5,498943.5,220134.6,267110.6,295984.8,262675.2,0.0
224171.6,236028.3,456118.5,499342.2,220539.0,267471.8,296386.9,263055.1,0.0
224819.8,236496.8,456664.3,499987.9,221135.7,268052.0,297158.1,263670.6,0.0
224687.5,236378.3,456585.5,499960.5,221098.9,268046.8,297230.0,263674.9,0.0
223956.7,235836.1,455968.1,499270.8,220478.5,267460.3,296503.3,263067.3,0.0
223638.4,235622.2,455644.4,498849.5,220133.8,267103.2,295984.0,262693.1,0.0
224168.3,236025.8,456036.3,499250.0,220537.1,267462.3,296384.6,263071.2,0.0
224802.3,236477.7,456574.5,499889.1,221126.4,268031.9,297145.7,263677.4,0.0
224664.2,236354.7,456491.8,499854.7,221085.2,268019.1,297208.8,263673.3,0.0
223939.1,235818.4,455877.9,499168.4,220471.1,267436.0,296484.0,263066.9,0.0
223625.7,235603.9,455556.0,498752.2,220132.3,267085.8,295966.6,262694.9,0.0
224150.5,236001.3,455942.3,499152.5,220531.9,267443.3,296366.2,263069.1,0.0
224784.4,236452.7,456475.5,499788.1,221115.4,268009.4,297126.6,263673.4,0.0
224650.5,236329.6,456394.4,499758.1,221078.3,268002.5,297199.3,263675.9,0.0
223921.0,235789.5,455778.3,499070.5,220462.4,267418.2,296474.7,263068.4,0.0
223604.1,235574.8,455456.1,498651.3,220119.5,267061.7,295957.1,262694.7,0.0
224132.8,235975.7,455848.6,499053.7,220526.0,267420.4,296359.8,263073.0,0.0
224770.8,236431.8,456385.9,499690.8,221117.8,267989.1,297120.5,263678.4,0.0
224640.0,236315.5,456308.8,499662.4,221084.2,267982.9,297191.4,263680.8,0.0
223918.5,235787.5,455700.3,498981.3,220474.8,267407.0,296472.5,263078.4,0.0
223593.4,235564.3,455366.8,498551.5,220124.2,267042.8,295946.1,262693.6,0.0
224119.7,235965.0,455752.8,498949.3,220524.6,267398.5,296342.9,263066.5,0.0
224761.0,236425.0,456293.1,499588.7,221118.1,267972.7,297106.6,263672.7,0.0
224631.0,236307.4,456215.1,499559.6,221084.5,267968.5,297179.7,263676.4,0.0
223909.0,235775.4,455602.2,498876.1,220471.2,267388.7,296457.6,263072.2,0.0
223586.8,235557.0,455271.4,498450.4,220123.8,267027.9,295932.7,262691.8,0.0
224110.9,235950.5,455658.1,498846.6,220523.6,267384.0,296329.7,263064.9,0.0
224755.4,236410.6,456202.9,499490.5,221116.9,267959.8,297095.5,263673.3,0.0
224633.8,236300.2,456133.2,499465.9,221087.0,267963.6,297171.7,263679.2,0.0
223904.5,235755.6,455514.3,498771.9,220465.6,267378.9,296439.0,263064.7,0.0
223586.7,235539.4,455188.3,498350.7,220123.7,267024.0,295918.2,262687.0,0.0
224104.2,235930.5,455569.3,498740.7,220519.3,267373.0,296308.9,263052.3,0.0
224740.6,236387.0,456106.9,499376.3,221108.7,267941.6,297070.7,263654.6,0.0
224607.9,236268.5,456027.7,499344.3,221071.8,267934.3,297143.1,263652.5,0.0
223887.3,235735.3,455418.1,498661.5,220459.6,267356.5,296424.3,263045.0,0.0
223560.7,235510.4,455087.3,498234.3,220107.4,266991.8,295894.3,262656.0,0.0
224088.0,235908.2,455474.6,498628.2,220505.6,267345.7,296286.6,263020.8,0.0
224734.3,236372.4,456017.8,499268.5,221097.3,267919.9,297046.9,263621.2,0.0
224613.9,236265.5,455950.4,499249.7,221070.7,267923.8,297126.3,263625.9,0.0
223875.2,235714.4,455325.5,498551.9,220445.0,267331.5,296389.9,263002.3,0.0
223558.7,235501.8,455000.9,498128.7,220102.3,266974.4,295866.0,262620.3,0.0
224097.6,235915.8,455400.5,498535.4,220513.8,267341.2,296273.6,263000.8,0.0
224741.3,236378.7,455942.8,499176.7,221105.1,267915.3,297038.4,263607.6,0.0
224607.9,236260.7,455862.1,499144.3,221063.3,267906.0,297104.7,263605.5,0.0
223869.5,235714.2,455240.6,498449.3,220437.5,267316.9,296370.6,262990.2,0.0
223550.8,235500.5,454915.6,498025.8,220091.6,266959.5,295846.9,262609.3,0.0
224089.3,235914.0,455315.2,498435.1,220504.3,267328.1,296256.9,262991.0,0.0
224729.5,236371.4,455857.9,499077.2,221097.7,267905.1,297022.4,263599.1,0.0
224587.1,236241.0,455775.2,499043.4,221058.6,267895.3,297087.6,263595.8,0.0
223864.6,235709.0,455160.9,498356.1,220444.5,267310.7,296360.2,262985.7,0.0
223535.2,235482.3,454823.0,497921.6,220089.7,266940.6,295825.3,262593.9,0.0
224063.6,235881.6,455215.1,498322.7,220493.8,267300.5,296227.9,262968.3,0.0
224708.1,236343.4,455757.3,498968.7,221085.0,267875.5,296997.4,263577.3,0.0
224577.5,236225.7,455675.9,498940.6,221046.9,267867.9,297068.7,263577.1,0.0
223844.2,235683.2,455055.8,498248.8,220427.7,267281.2,296338.8,262961.8,0.0
223524.5,235463.4,454730.7,497823.1,220085.4,266922.5,295816.8,262580.3,0.0
224058.3,235871.5,455125.4,498224.6,220491.1,267285.0,296219.3,262956.2,0.0
224697.1,236329.5,455665.6,498865.1,221080.8,267858.3,296985.5,263562.4,0.0
224563.2,236209.2,455583.8,498833.2,221042.0,267849.9,297053.7,263558.6,0.0
223826.7,235661.7,454960.7,498137.5,220419.0,267260.8,296317.3,262938.6,0.0
223517.5,235457.7,454640.6,497716.9,220078.4,266906.8,295795.1,262560.6,0.0
224043.1,235858.7,455029.5,498113.8,220479.0,267262.8,296191.3,262930.0,0.0
224678.3,236307.5,455566.7,498753.1,221067.3,267833.8,296952.3,263532.2,0.0
224551.8,236193.5,455492.2,498729.5,221037.6,267831.8,297027.6,263536.8,0.0
223822.6,235653.2,454876.7,498039.0,220422.0,267249.4,296300.0,262925.0,0.0
223502.3,235431.9,454549.1,497613.0,220077.1,266893.8,295775.2,262542.8,0.0
224039.4,235840.0,454941.5,498015.9,220482.4,267256.6,296176.8,262918.0,0.0
224677.3,236298.4,455476.4,498648.3,221066.6,267822.6,296930.9,263513.8,0.0
224543.9,236178.5,455398.0,498620.0,221033.0,267819.3,297002.0,263513.8,0.0
223820.7,235640.8,454786.8,497937.1,220421.1,267242.0,296280.1,262907.3,0.0
223504.1,235425.7,454460.8,497516.0,220076.5,266885.8,295758.8,262527.6,0.0
224033.8,235831.5,454850.3,497915.3,220477.4,267244.6,296156.7,262898.4,0.0
224678.2,236296.2,455396.8,498562.7,221075.4,267826.2,296925.2,263508.9,0.0
224542.9,236172.8,455320.3,498534.5,221038.9,267820.8,296993.7,263507.8,0.0
223801.6,235619.4,454689.7,497830.6,220409.9,267222.8,296249.3,262880.6,0.0
223487.6,235408.2,454363.5,497407.4,220067.3,266866.3,295726.3,262500.5,0.0
224012.4,235808.3,454753.2,497805.7,220469.9,267224.3,296124.3,262872.3,0.0
224648.4,236264.2,455290.4,498439.6,221058.6,267793.8,296884.1,263473.5,0.0
224518.4,236146.6,455208.1,498406.3,221019.3,267786.5,296948.9,263469.3,0.0
223793.2,235607.4,454589.2,497716.5,220400.8,267204.9,296218.5,262856.5,0.0
223470.2,235384.3,454260.3,497289.2,220054.4,266845.8,295690.7,262470.7,0.0
224011.0,235799.4,454660.8,497697.7,220467.4,267214.6,296098.1,262850.1,0.0
224648.1,236254.1,455197.8,498334.5,221054.5,267785.3,296858.5,263449.8,0.0
224511.0,236130.0,455115.2,498301.4,221010.8,267772.8,296923.3,263441.3,0.0
223792.1,235601.8,454504.4,497618.4,220398.7,267192.1,296199.7,262834.7,0.0
223476.2,235387.0,454179.8,497198.0,220057.7,266838.3,295679.0,262457.7,0.0
224004.2,235790.9,454572.0,497601.9,220464.2,267203.1,296082.0,262834.9,0.0
224654.1,236265.4,455118.1,498247.9,221060.3,267783.1,296850.3,263444.7,0.0
224518.5,236143.5,455036.9,498215.0,221021.5,267774.9,296916.9,263440.4,0.0
223781.1,235596.1,454413.4,497517.0,220395.9,267184.8,296179.5,262818.5,0.0
223463.5,235381.6,454090.4,497094.2,220049.5,266830.3,295656.7,262435.3,0.0
223993.7,235784.2,454483.4,497496.8,220452.9,267193.9,296059.6,262807.7,0.0
224634.9,236242.1,455022.9,498137.9,221042.0,267766.0,296822.8,263411.5,0.0
224503.3,236123.8,454943.1,498108.8,221004.5,267758.2,296889.4,263408.7,0.0
223774.7,235581.1,454324.6,497419.1,220385.4,267173.7,296157.2,262792.3,0.0
223458.5,235365.1,454001.4,497000.6,220044.3,266820.8,295635.4,262414.3,0.0
223996.1,235781.3,454400.3,497407.3,220454.5,267185.7,296040.7,262794.7,0.0
224622.0,236228.6,454926.0,498032.6,221030.1,267745.6,296789.3,263385.6,0.0
224489.6,236108.6,454845.3,498001.3,220991.8,267739.5,296855.8,263383.4,0.0
223758.8,235566.4,454224.2,497310.1,220373.5,267152.3,296121.9,262767.9,0.0
223442.3,235350.4,453898.7,496890.1,220032.5,266796.8,295599.3,262388.8,0.0
223982.8,235763.9,454300.7,497303.4,220448.9,267170.5,296012.1,262773.7,0.0
224619.2,236220.8,454839.6,497943.3,221038.4,267744.1,296773.4,263376.8,0.0
224486.4,236100.9,454758.0,497912.2,220997.6,267735.7,296839.3,263371.5,0.0
223754.5,235557.9,454135.5,497217.5,220375.4,267149.9,296104.6,262753.9,0.0
223431.3,235336.7,453804.6,496789.4,220025.0,266788.6,295574.4,262367.4,0.0
223958.6,235738.1,454193.6,497188.6,220428.4,267147.4,295969.5,262738.9,0.0
224610.7,236206.7,454744.4,497839.6,221030.6,267731.7,296740.0,263353.1,0.0
224467.9,236073.2,454656.8,497801.0,220983.5,267716.3,296798.9,263341.5,0.0
223734.6,235531.4,454035.0,497106.4,220357.7,267126.7,296063.1,262722.3,0.0
223418.5,235318.1,453712.8,496686.7,220014.7,266772.8,295543.0,262344.1,0.0
223954.8,235726.8,454107.7,497093.7,220421.3,267136.5,295947.3,262720.7,0.0
224599.1,236189.0,454646.9,497737.0,221014.4,267713.5,296710.7,263325.4,0.0
224468.4,236072.2,454569.9,497709.2,220981.1,267712.2,296779.9,263327.1,0.0
223737.0,235528.5,453952.6,497016.8,220361.2,267127.4,296046.9,262714.9,0.0
223420.3,235312.8,453626.8,496592.1,220014.3,266768.6,295520.8,262332.4,0.0
223954.5,235720.6,454020.0,496996.2,220421.2,267132.2,295922.9,262707.6,0.0
224598.5,236182.4,454560.7,497640.1,221014.4,267708.2,296687.5,263314.6,0.0
224461.9,236061.2,454480.4,497609.7,220972.4,267698.9,296754.6,263311.0,0.0
223721.7,235511.8,453856.1,496913.1,220345.1,267109.0,296018.4,262691.8,0.0
223403.1,235292.7,453530.1,496489.0,220000.6,266753.7,295493.4,262311.9,0.0
223938.9,235701.4,453926.0,496890.9,220405.5,267115.4,295894.1,262687.2,0.0
224582.8,236166.0,454472.0,497536.7,220998.0,267694.8,296659.6,263295.7,0.0
224445.9,236041.8,454391.1,497505.7,220956.8,267686.6,296725.1,263291.0,0.0
223710.0,235492.0,453765.1,496805.9,220329.5,267093.0,295985.9,262666.3,0.0
223400.6,235282.7,453447.3,496391.2,219996.0,266746.0,295472.6,262293.6,0.0
223940.5,235696.5,453848.4,496805.1,220414.3,267119.7,295887.0,262679.8,0.0
224582.7,236159.5,454394.6,497451.7,221010.7,267698.7,296655.1,263290.0,0.0
224446.5,236040.9,454312.5,497418.8,220968.3,267689.1,296720.8,263284.7,0.0
223709.0,235494.4,453690.9,496725.7,220343.4,267100.6,295988.6,262669.1,0.0
223392.1,235278.4,453370.4,496309.0,220001.9,266750.7,295470.0,262293.5,0.0
223924.1,235685.7,453767.1,496712.3,220410.5,267116.3,295871.9,262670.8,0.0
224566.2,236146.5,454308.4,497351.7,221002.9,267691.9,296633.0,263276.1,0.0
224430.7,236024.0,454224.6,497317.9,220962.3,267682.1,296697.1,263269.8,0.0
223699.3,235480.2,453601.4,496623.4,220340.6,267093.3,295960.4,262652.8,0.0
223379.2,235262.0,453274.1,496199.4,219992.9,266732.7,295430.5,262270.1,0.0
223899.0,235653.9,453658.1,496590.0,220385.9,267082.0,295819.7,262633.1,0.0
224540.4,236115.1,454201.5,497230.1,220976.6,267656.9,296585.0,263238.2,0.0
224415.6,236001.6,454129.2,497205.2,220945.1,267655.2,296659.6,263241.3,0.0
223681.2,235454.7,453505.4,496510.2,220320.5,267063.4,295922.7,262621.3,0.0
223362.5,235238.6,453180.7,496091.5,219976.1,266706.2,295401.5,262243.7,0.0
223898.2,235649.5,453578.1,496499.2,220385.9,267072.6,295808.0,262623.6,0.0
224548.7,236119.2,454126.8,497148.3,220982.4,267656.3,296580.0,263238.2,0.0
224410.5,235992.7,454047.0,497118.1,220939.9,267646.4,296646.7,263234.7,0.0
223680.2,235453.1,453428.9,496426.9,220320.4,267062.1,295913.8,262618.3,0.0
223362.0,235234.9,453102.7,496002.8,219973.5,266705.1,295387.1,262233.7,0.0
223894.4,235640.2,453495.4,496404.4,220376.4,267064.6,295786.2,262606.5,0.0
224535.4,236098.9,454038.9,497047.7,220968.8,267641.1,296549.5,263212.9,0.0
224397.9,235975.7,453959.1,497018.8,220929.6,267634.2,296614.5,263210.2,0.0
223666.6,235435.2,453339.8,496327.3,220310.3,267048.6,295879.7,262593.6,0.0
223351.9,235222.5,453017.3,495907.8,219968.7,266693.5,295356.3,262215.5,0.0
223885.0,235629.5,453411.0,496312.2,220372.5,267054.5,295755.6,262590.9,0.0
224528.0,236092.5,453953.8,496956.0,220964.4,267630.9,296518.4,263197.1,0.0
224402.0,235982.4,453880.1,496932.2,220930.1,267629.4,296590.5,263200.4,0.0
223670.4,235436.7,453254.5,496233.3,220304.0,267038.0,295851.3,262577.8,0.0
223346.2,235212.0,452920.4,495801.8,219951.7,266673.3,295319.1,262187.8,0.0
223880.4,235623.4,453320.9,496212.6,220363.1,267041.6,295728.4,262569.9,0.0
224527.2,236091.5,453869.3,496864.7,220960.7,267623.5,296499.8,263183.4,0.0
224388.6,235965.7,453789.0,496835.3,220921.0,267616.2,296566.9,263180.2,0.0
223648.7,235416.5,453161.3,496136.4,220291.5,267023.4,295826.5,262558.4,0.0
223329.1,235197.0,452837.5,495716.4,219947.3,266669.7,295303.9,262180.5,0.0
223869.4,235612.7,453241.5,496127.1,220360.3,267039.3,295714.5,262563.5,0.0
224514.4,236078.3,453786.0,496768.8,220952.5,267615.4,296478.7,263170.1,0.0
224382.2,235959.6,453709.9,496740.6,220917.2,267611.3,296547.8,263170.6,0.0
223650.1,235415.2,453090.5,496049.3,220297.8,267024.6,295814.0,262553.8,0.0
223331.0,235198.8,452762.9,495623.8,219949.3,266663.4,295286.0,262170.2,0.0
223862.9,235606.2,453161.0,496031.1,220359.3,267029.3,295692.0,262552.4,0.0
224499.9,236063.6,453701.2,496674.4,220950.8,267603.7,296456.0,263165.3,0.0
224373.8,235953.2,453627.0,496651.2,220916.2,267602.9,296527.8,263174.4,0.0
223651.4,235419.8,453015.3,495966.4,220299.7,267023.9,295802.4,262572.3,0.0
223318.8,235187.4,452679.1,495535.7,219945.1,266657.9,295271.6,262191.2,0.0
223847.9,235589.4,453072.8,495943.1,220352.4,267021.7,295677.9,262577.8,0.0
224490.6,236050.9,453610.7,496585.4,220940.8,267592.8,296441.5,263191.9,0.0
224354.8,235928.8,453530.7,496557.5,220901.9,267585.5,296512.5,263200.9,0.0
223625.3,235391.2,452918.6,495876.4,220290.2,267008.8,295792.1,262606.9,0.0
223294.9,235164.3,452587.3,495448.7,219942.5,266650.2,295267.1,262235.5,0.0
223825.7,235571.0,452982.5,495853.4,220349.6,267012.9,295674.1,262623.3,0.0
224468.8,236032.6,453521.8,496496.6,220938.0,267584.5,296437.4,263239.0,0.0
224333.6,235910.0,453437.6,496466.1,220897.2,267576.0,296503.5,263244.8,0.0
223609.0,235374.6,452823.9,495783.0,220283.5,266997.9,295779.3,262647.2,0.0
223281.8,235147.3,452493.2,495359.2,219937.5,266640.3,295256.9,262275.9,0.0
223810.4,235546.3,452883.1,495758.6,220340.1,266997.4,295658.0,262655.8,0.0
224458.2,236009.7,453430.6,496406.1,220935.8,267574.8,296429.4,263274.6,0.0
224333.7,235894.5,453359.0,496386.3,220905.0,267573.7,296506.1,263288.0,0.0
223609.6,235358.3,452747.5,495702.6,220292.0,266991.9,295780.7,262684.8,0.0
223283.4,235134.8,452416.4,495275.9,219941.5,266628.1,295253.7,262304.2,0.0
223811.4,235535.0,452807.9,495674.9,220345.5,266986.1,295653.3,262679.3,0.0
224447.2,235988.8,453347.3,496310.9,220934.0,267556.1,296411.1,263282.4,0.0
224314.0,235871.4,453268.5,496281.7,220894.6,267548.6,296477.2,263283.0,0.0
223586.1,235335.4,452653.8,495595.3,220278.6,266965.6,295748.7,262675.4,0.0
223271.1,235121.4,452331.2,495176.2,219937.7,266611.7,295229.6,262301.8,0.0
223804.5,235526.9,452724.3,495582.1,220347.4,266977.6,295636.5,262683.8,0.0
224446.2,235987.9,453267.6,496229.1,220942.4,267553.8,296403.9,263298.3,0.0
224297.8,235850.5,453176.4,496191.1,220895.7,267535.3,296463.2,263290.5,0.0
223570.6,235312.8,452557.3,495501.4,220275.0,266946.7,295733.4,262678.7,0.0
223266.3,235112.6,452244.1,495093.4,219941.9,266600.8,295223.6,262313.7,0.0
223794.3,235514.9,452635.6,495498.8,220346.2,266959.0,295625.0,262690.9,0.0
224424.2,235963.3,453165.6,496130.4,220928.9,267521.4,296377.7,263287.7,0.0
224285.3,235840.8,453081.9,496097.1,220889.2,267510.8,296445.2,263283.5,0.0
223552.8,235299.5,452463.5,495407.8,220271.2,266924.6,295719.0,262673.5,0.0
223243.7,235087.3,452140.9,494989.7,219931.1,266571.7,295202.7,262299.8,0.0
223784.1,235499.4,452541.8,495399.5,220342.2,266940.1,295613.5,262683.3,0.0
224419.7,235952.1,453077.5,496037.7,220929.2,267508.3,296372.9,263285.7,0.0
224283.3,235828.7,452995.4,496008.7,220888.4,267499.1,296441.2,263284.8,0.0
223552.4,235286.2,452378.6,495320.1,220268.3,266912.6,295713.1,262673.8,0.0
223228.5,235063.6,452052.7,494897.6,219923.1,266552.4,295188.7,262294.3,0.0
223764.4,235471.3,452452.9,495308.3,220335.5,266921.3,295599.3,262677.8,0.0
224415.2,235939.9,452999.3,495954.2,220931.4,267499.4,296368.2,263286.1,0.0
224274.4,235810.4,452912.3,495915.3,220885.2,267482.2,296428.8,263275.5,0.0
223546.0,235271.0,452295.3,495226.4,220266.1,266897.2,295699.8,262662.6,0.0
223232.2,235059.5,451973.7,494808.4,219924.5,266544.0,295180.1,262286.5,0.0
223761.0,235461.7,452369.8,495214.7,220332.2,266908.4,295583.8,262666.3,0.0
224392.8,235912.5,452905.1,495851.8,220916.3,267476.1,296342.5,263266.2,0.0
224256.8,235792.0,452820.3,495819.7,220877.1,267467.5,296408.6,263259.2,0.0
223522.1,235243.8,452194.5,495123.3,220254.0,266874.5,295670.8,262636.1,0.0
223208.9,235031.0,451873.4,494705.5,219914.6,266520.8,295153.5,262257.4,0.0
223748.7,235442.4,452273.1,495115.5,220327.2,266888.9,295562.4,262637.8,0.0
224399.8,235914.4,452825.4,495767.1,220929.2,267471.6,296335.5,263252.2,0.0
224255.5,235785.7,452735.8,495726.5,220881.2,267452.8,296393.0,263238.0,0.0
223517.8,235237.5,452110.0,495027.3,220254.3,266858.8,295652.5,262613.9,0.0
223210.9,235031.3,451793.3,494615.2,219917.9,266507.3,295136.6,262241.1,0.0
223744.9,235438.0,452190.9,495021.5,220325.4,266872.1,295542.2,262617.9,0.0
224377.8,235890.6,452727.3,495655.2,220909.8,267438.8,296298.8,263214.3,0.0
224248.5,235774.6,452651.5,495624.8,220874.2,267431.3,296367.5,263212.6,0.0
223519.0,235232.7,452033.8,494933.9,220252.5,266842.2,295635.5,262595.8,0.0
223198.5,235012.4,451704.1,494507.2,219900.6,266478.3,295107.4,262208.4,0.0
223731.0,235419.6,452102.6,494914.8,220310.5,266844.4,295513.2,262588.3,0.0
224372.0,235882.3,452649.2,495560.1,220906.0,267420.8,296278.8,263197.1,0.0
