EEG 1,EEG 2,EEG 3,EEG 4,EEG 5,EEG 6,EEG 7,EEG 8,TRIG
207403.4,215257.1,218256.1,237948.9,685099.9,185024.7,180051.3,200289.6,0.0
208073.0,215586.2,218616.1,238470.2,685387.4,185353.5,180451.7,200976.5,0.0
209213.0,216223.0,219297.3,239230.6,686465.4,185985.6,181022.5,202444.3,0.0
209306.0,216311.8,219267.7,239134.7,686860.1,186065.5,181010.6,202668.9,0.0
208417.1,215829.4,218566.5,238343.3,686098.3,185578.2,180509.1,201593.7,0.0
207386.5,215240.1,217787.7,237589.5,685065.3,185011.0,180036.3,200279.2,0.0
208057.6,215573.5,218156.3,238117.9,685369.3,185342.7,180438.0,200963.2,0.0
209205.3,216216.8,218844.9,238887.2,686441.3,185977.3,181012.0,202436.3,0.0
209304.5,216310.0,218820.4,238799.9,686837.8,186058.9,181002.8,202667.8,0.0
208424.0,215833.0,218135.3,238024.3,686093.7,185585.7,180516.8,201601.8,0.0
207379.8,215230.6,217346.0,237255.8,685053.6,185003.4,180027.9,200265.9,0.0
208034.8,215548.4,217708.5,237770.5,685339.1,185322.2,180418.9,200934.6,0.0
209184.6,216196.5,218405.3,238543.7,686407.4,185958.5,180998.0,202407.3,0.0
209286.6,216294.2,218391.0,238461.3,686805.6,186044.0,180994.1,202644.9,0.0
208402.7,215817.4,217702.3,237678.3,686054.9,185562.9,180498.9,201573.6,0.0
207371.8,215229.6,216933.2,236925.8,685046.9,184997.2,180027.6,200253.0,0.0
208053.8,215574.0,217324.8,237474.4,685351.1,185340.1,180443.8,200944.5,0.0
209199.3,216208.9,218022.1,238250.3,686403.7,185973.5,181017.2,202415.1,0.0
209274.3,216274.9,217985.1,238140.1,686770.7,186029.1,180982.9,202622.7,0.0
208399.1,215804.6,217306.8,237367.0,686028.4,185554.6,180492.2,201561.7,0.0
207375.5,215221.8,216549.1,236628.5,685053.9,184996.6,180031.3,200252.6,0.0
208037.2,215548.1,216923.9,237155.7,685344.8,185319.0,180428.3,200927.3,0.0
209187.8,216192.0,217627.9,237933.3,686393.8,185954.2,181005.8,202403.7,0.0
209280.2,216274.6,217608.8,237846.1,686774.3,186022.8,180988.2,202629.8,0.0
208411.8,215810.9,216938.5,237080.5,686043.8,185552.9,180503.3,201575.3,0.0
207378.1,215220.6,216172.9,236333.0,685062.1,184983.1,180031.2,200253.9,0.0
208043.3,215552.3,216551.3,236864.4,685333.6,185310.4,180433.1,200928.2,0.0
209185.3,216184.7,217248.6,237634.4,686378.3,185940.1,181004.4,202397.6,0.0
209286.5,216276.3,217242.5,237555.0,686779.8,186020.4,180996.8,202634.1,0.0
208410.3,215805.8,216568.4,236784.0,686045.1,185544.0,180505.4,201573.1,0.0
207370.9,215207.4,215798.1,236029.0,685045.9,184966.3,180022.1,200240.7,0.0
208029.3,215533.4,216180.3,236563.3,685324.4,185292.9,180420.1,200908.8,0.0
209184.6,216178.8,216893.6,237351.8,686381.3,185933.7,181001.0,202391.3,0.0
209299.8,216280.2,216901.0,237287.6,686788.5,186024.3,181003.5,202640.9,0.0
208427.4,215808.1,216236.7,236523.8,686052.4,185552.3,180516.4,201582.2,0.0
207382.5,215209.3,215469.0,235768.8,685041.6,184973.5,180035.8,200247.9,0.0
208042.7,215543.3,215854.0,236303.9,685337.9,185302.0,180436.0,200919.4,0.0
209189.2,216182.4,216560.6,237087.0,686391.8,185937.6,181006.8,202392.9,0.0
209293.7,216272.9,216560.6,237014.7,686793.6,186021.4,180998.2,202635.8,0.0
208421.4,215801.9,215896.6,236251.0,686059.8,185546.6,180508.5,201578.2,0.0
207380.3,215210.1,215133.9,235499.9,685023.7,184974.9,180032.4,200248.3,0.0
208028.6,215526.3,215510.9,236023.3,685301.5,185290.5,180422.1,200903.1,0.0
209182.8,216170.2,216228.3,236810.8,686370.9,185925.5,180998.9,202383.6,0.0
209280.2,216253.9,216226.4,236736.3,686767.8,186005.1,180988.0,202625.1,0.0
208403.7,215777.0,215561.8,235975.7,686034.4,185530.7,180496.3,201570.4,0.0
207365.5,215185.9,214801.0,235227.4,685062.3,184956.8,180015.7,200239.8,0.0
208022.2,215518.4,215185.3,235760.3,685340.1,185278.6,180408.9,200895.1,0.0
209193.2,216177.0,215923.2,236568.5,686397.8,185932.9,181000.1,202386.7,0.0
209319.5,216288.5,215949.3,236517.6,686818.7,186036.2,181009.8,202648.7,0.0
208437.9,215805.8,215281.2,235747.2,686079.4,185554.6,180509.8,201586.5,0.0
207384.3,215202.9,214513.2,234985.5,685029.8,184969.9,180020.2,200247.6,0.0
208029.8,215522.3,214893.1,235513.0,685303.3,185286.4,180410.5,200898.6,0.0
209192.3,216173.8,215622.5,236315.8,686383.7,185929.9,180993.3,202386.6,0.0
209296.9,216264.1,215630.5,236247.8,686788.7,186009.8,180983.2,202632.2,0.0
208434.2,215802.3,214982.2,235495.7,686065.6,185546.1,180502.7,201590.5,0.0
207387.0,215202.6,214223.4,234745.6,685048.2,184972.2,180023.1,200255.7,0.0
208004.1,215492.0,214577.5,235246.7,685303.4,185264.3,180387.0,200878.4,0.0
209179.2,216152.8,215321.0,236059.4,686378.2,185917.6,180982.8,202377.5,0.0
209300.3,216255.9,215347.7,236009.5,686793.3,186013.2,180991.7,202639.5,0.0
208438.0,215796.4,214700.9,235263.7,686069.1,185550.2,180514.0,201597.3,0.0
207390.3,215197.4,213940.0,234516.6,685038.3,184972.5,180027.5,200255.9,0.0
208025.3,215507.8,214316.3,235040.8,685297.6,185285.1,180411.4,200894.3,0.0
209184.0,216154.3,215051.2,235843.8,686369.2,185928.4,180995.1,202383.1,0.0
209297.2,216248.8,215068.7,235784.9,686774.9,186011.7,180987.3,202632.4,0.0
208443.6,215793.2,214430.0,235044.3,686057.9,185552.6,180510.8,201597.2,0.0
207402.6,215200.6,213679.8,234303.9,685045.3,184980.5,180032.4,200266.7,0.0
208030.2,215505.9,214053.5,234822.3,685308.6,185286.2,180410.2,200898.0,0.0
209194.5,216154.9,214793.6,235631.1,686378.4,185934.2,180999.0,202391.4,0.0
209307.0,216251.0,214814.7,235577.5,686788.6,186021.0,180999.7,202645.6,0.0
208439.8,215783.7,214161.7,234823.1,686055.8,185545.5,180508.9,201594.9,0.0
207397.5,215192.2,213415.5,234082.0,685027.4,184977.1,180035.5,200264.8,0.0
208019.1,215493.3,213785.9,234597.9,685289.9,185281.7,180412.4,200896.6,0.0
209184.1,216145.2,214525.0,235406.9,686367.3,185928.5,180998.1,202387.8,0.0
209289.1,216232.5,214541.4,235343.6,686769.8,186007.4,180984.4,202634.6,0.0
208429.1,215770.4,213902.3,234599.7,686051.8,185546.0,180502.7,201598.2,0.0
207382.1,215173.6,213148.8,233853.2,685026.6,184974.4,180021.2,200258.4,0.0
208001.0,215473.8,213519.8,234366.2,685267.8,185274.3,180393.4,200878.2,0.0
209160.9,216119.4,214258.0,235174.0,686334.1,185915.5,180976.4,202364.6,0.0
209285.2,216224.8,214293.7,235132.8,686757.8,186014.0,180984.0,202634.9,0.0
208431.1,215765.0,213662.8,234395.5,686044.3,185556.5,180506.3,201601.5,0.0
207371.2,215155.8,212903.4,233642.3,685049.4,184969.6,180011.5,200251.3,0.0
208002.5,215468.0,213286.5,234169.0,685314.5,185282.8,180397.7,200885.8,0.0
209167.2,216116.2,214022.7,234978.9,686357.6,185921.1,180979.0,202368.3,0.0
209297.8,216226.6,214059.9,234941.3,686785.9,186019.5,180986.8,202639.3,0.0
208439.1,215765.9,213421.5,234197.7,686066.4,185554.0,180502.9,201601.8,0.0
207385.4,215168.9,212671.9,233452.6,685029.4,184976.2,180022.4,200263.7,0.0
207986.9,215459.0,213032.8,233961.2,685270.2,185264.2,180384.8,200870.8,0.0
209158.4,216114.8,213783.0,234781.0,686350.9,185913.4,180975.3,202365.6,0.0
209293.3,216223.8,213829.2,234752.1,686778.5,186014.5,180988.9,202643.2,0.0
208444.1,215771.6,213206.3,234023.2,686069.7,185560.3,180516.3,201617.4,0.0
207376.8,215160.9,212444.0,233266.0,685018.9,184969.5,180018.4,200259.8,0.0
207984.5,215455.5,212806.3,233769.3,685260.2,185260.5,180378.0,200864.4,0.0
209151.9,216107.6,213553.3,234585.5,686338.1,185905.8,180963.9,202355.5,0.0
209282.5,216214.9,213597.7,234555.4,686764.1,186004.2,180975.0,202630.7,0.0
208415.4,215740.1,212955.9,233816.4,686042.7,185527.5,180487.5,201595.7,0.0
207349.4,215125.8,212194.6,233066.7,685053.2,184936.1,179994.4,200243.5,0.0
207985.0,215456.6,212585.1,233590.0,685299.3,185258.2,180375.6,200854.4,0.0
209182.1,216144.4,213361.8,234427.1,686390.1,185937.7,180981.7,202367.2,0.0
209300.4,216233.5,213398.1,234394.4,686819.8,186024.1,180985.6,202646.2,0.0
208417.0,215735.7,212744.7,233648.7,686074.4,185529.2,180489.4,201604.6,0.0
207359.3,215134.5,211995.8,232904.7,685056.1,184947.5,180008.4,200254.7,0.0
207983.1,215460.0,212377.2,233415.4,685305.4,185262.1,180382.3,200854.4,0.0
209186.8,216156.3,213158.0,234258.0,686413.1,185943.5,180994.9,202372.3,0.0
209313.3,216252.2,213202.7,234234.6,686849.1,186034.7,181006.8,202661.1,0.0
208416.1,215740.5,212539.1,233478.5,686091.7,185530.7,180502.7,201608.8,0.0
207337.6,215119.1,211773.0,232723.0,685015.4,184928.9,180004.7,200243.8,0.0
207962.9,215445.1,212160.7,233238.7,685269.9,185246.4,180381.6,200844.2,0.0
209158.1,216127.8,212933.4,234071.8,686378.6,185919.4,180981.5,202351.7,0.0
209286.8,216228.8,212979.7,234048.1,686821.6,186015.9,180992.5,202644.8,0.0
208411.1,215742.2,212339.9,233314.6,686083.4,185532.0,180506.4,201610.7,0.0
207336.0,215124.1,211582.0,232559.5,685031.4,184937.7,180010.1,200244.3,0.0
207973.9,215459.9,211982.1,233087.9,685285.1,185262.8,180396.3,200853.0,0.0
209174.4,216147.4,212758.1,233923.4,686391.6,185939.6,181001.0,202367.5,0.0
209295.1,216237.5,212795.0,233889.5,686828.6,186028.6,181004.2,202655.4,0.0
208411.6,215737.1,212144.6,233148.6,686081.8,185532.8,180508.0,201617.9,0.0
207337.1,215117.6,211382.6,232395.5,685034.5,184934.3,180013.0,200252.3,0.0
207974.8,215456.7,211782.6,232924.5,685292.6,185265.0,180405.8,200859.8,0.0
209161.7,216127.3,212547.3,233749.5,686386.4,185926.4,180999.2,202360.7,0.0
209274.2,216205.8,212579.9,233713.5,686816.8,186002.8,180992.9,202639.5,0.0
208402.6,215721.4,211944.4,232979.2,686080.8,185517.1,180502.7,201609.2,0.0
207336.4,215114.5,211196.1,232230.7,685023.3,184935.9,180017.0,200253.2,0.0
207963.1,215447.2,211588.2,232749.2,685269.5,185254.9,180393.9,200847.6,0.0
209169.2,216140.1,212373.2,233596.0,686386.6,185931.1,181000.7,202365.5,0.0
209291.3,216232.0,212420.3,233570.7,686827.5,186019.2,181004.7,202655.7,0.0
208402.7,215725.5,211763.1,232819.2,686076.6,185513.3,180497.4,201606.0,0.0
207311.4,215091.2,210987.9,232047.5,685025.2,184900.9,179986.9,200223.8,0.0
207936.8,215421.8,211381.5,232569.5,685275.6,185223.1,180370.0,200820.9,0.0
209151.9,216122.4,212177.6,233426.0,686392.3,185915.1,180988.3,202349.9,0.0
209290.4,216226.0,212237.7,233414.5,686847.1,186017.5,181003.6,202657.3,0.0
208418.9,215738.3,211604.3,232686.2,686112.9,185536.5,180516.7,201634.5,0.0
207342.2,215120.4,210843.6,231929.0,685033.5,184943.8,180020.7,200261.9,0.0
207951.3,215439.2,211220.1,232433.1,685263.1,185250.9,180388.8,200836.7,0.0
209146.2,216119.1,211996.3,233271.0,686376.1,185921.0,180988.6,202344.6,0.0
209277.4,216213.0,212050.7,233255.0,686823.6,186014.4,180998.1,202643.1,0.0
208399.7,215714.1,211410.0,232517.3,686080.8,185516.7,180499.2,201610.1,0.0
207333.8,215105.9,210664.3,231771.5,685007.3,184929.7,180010.9,200252.2,0.0
207949.1,215428.5,211052.6,232280.5,685256.4,185243.0,180384.8,200831.1,0.0
209143.8,216105.1,211830.5,233118.3,686368.4,185909.6,180983.3,202336.4,0.0
209277.3,216203.1,211886.4,233102.2,686811.4,186003.5,180994.4,202637.7,0.0
208405.1,215713.8,211251.8,232373.2,686079.9,185515.6,180504.7,201611.9,0.0
207329.7,215099.1,210492.2,231614.7,685026.3,184916.3,180004.8,200238.8,0.0
207947.0,215425.8,210878.9,232129.0,685251.5,185230.3,180383.4,200821.0,0.0
209156.3,216117.4,211667.5,232980.6,686363.4,185912.3,180994.1,202342.0,0.0
209312.0,216234.8,211745.3,232988.6,686836.9,186031.0,181025.4,202667.5,0.0
208442.2,215742.6,211114.6,232258.6,686102.5,185543.0,180534.0,201644.4,0.0
207340.5,215101.8,210336.1,231479.7,685035.9,184921.0,180008.1,200248.7,0.0
207941.1,215414.5,210711.6,231982.4,685254.8,185219.3,180368.1,200810.2,0.0
209158.6,216115.8,211514.5,232846.9,686367.6,185910.9,180990.0,202341.6,0.0
209289.5,216209.5,211569.4,232832.1,686816.4,186003.7,180999.9,202643.9,0.0
208428.6,215727.8,210942.5,232110.5,686089.9,185521.5,180513.0,201628.0,0.0
207350.7,215109.1,210187.0,231357.0,685013.5,184927.6,180015.2,200258.3,0.0
207957.4,215426.6,210573.5,231864.1,685242.0,185239.7,180389.7,200831.3,0.0
209173.4,216125.5,211372.9,232724.5,686371.8,185929.2,181009.9,202359.4,0.0
209300.7,216212.4,211421.1,232704.1,686820.6,186018.6,181013.3,202657.3,0.0
208425.6,215715.2,210784.4,231972.1,686083.6,185526.5,180514.8,201630.2,0.0
207351.7,215102.5,210029.4,231220.1,685024.1,184931.1,180015.2,200257.9,0.0
207958.1,215420.1,210415.1,231734.5,685263.8,185243.9,180387.4,200827.2,0.0
209167.5,216110.8,211209.6,232587.2,686372.7,185925.8,180998.1,202350.7,0.0
209300.5,216204.4,211266.4,232570.0,686817.8,186016.4,181000.9,202653.3,0.0
208428.9,215711.0,210634.3,231837.6,686086.8,185526.5,180505.4,201629.7,0.0
207326.7,215070.6,209862.8,231067.9,685037.0,184913.0,179992.9,200239.2,0.0
207929.5,215390.3,210245.7,231578.5,685263.7,185216.4,180361.0,200799.5,0.0
209154.8,216098.0,211053.4,232450.4,686375.4,185910.2,180983.9,202336.8,0.0
209301.5,216205.0,211123.0,232450.3,686837.3,186015.0,181006.5,202657.5,0.0
208441.2,215721.3,210500.0,231731.2,686114.4,185533.0,180522.9,201646.1,0.0
207362.2,215109.3,209751.4,230981.5,685039.1,184942.2,180030.4,200279.6,0.0
207948.1,215410.8,210125.9,231477.2,685253.0,185236.7,180389.1,200828.0,0.0
209160.8,216104.2,210923.7,232335.5,686378.8,185915.5,180999.4,202349.5,0.0
209295.4,216199.8,210983.4,232323.9,686833.2,186009.8,181007.9,202655.9,0.0
208432.8,215711.7,210362.0,231603.6,686107.4,185526.2,180519.2,201639.7,0.0
207336.7,215081.2,209598.6,230839.4,685037.6,184921.9,180013.1,200259.7,0.0
207916.4,215378.6,209965.0,231330.5,685242.6,185215.5,180367.7,200808.8,0.0
209146.4,216091.5,210777.1,232200.9,686370.3,185909.1,180993.5,202346.2,0.0
209276.0,216182.1,210832.3,232185.9,686816.2,185991.8,180995.4,202647.1,0.0
208429.7,215711.9,210226.8,231482.5,686109.6,185525.7,180523.0,201647.2,0.0
207346.5,215093.4,209474.8,230727.0,685032.1,184930.6,180023.5,200271.5,0.0
207919.8,215384.2,209835.1,231210.3,685240.9,185214.9,180366.2,200805.6,0.0
209127.2,216071.3,210630.7,232067.4,686354.0,185894.6,180973.4,202326.7,0.0
209279.8,216183.8,210707.5,232073.2,686816.1,186001.8,180996.7,202648.5,0.0
208426.3,215707.7,210090.1,231360.8,686102.5,185526.7,180517.4,201643.5,0.0
207328.8,215072.4,209326.3,230596.8,685030.7,184916.3,180007.2,200258.3,0.0
207915.1,215376.3,209703.0,231095.5,685254.8,185212.0,180365.7,200804.9,0.0
209144.3,216079.6,210515.4,231968.0,686368.3,185903.0,180987.4,202337.4,0.0
209286.9,216175.9,210578.2,231962.8,686815.8,185997.3,180994.3,202645.9,0.0
208431.3,215692.3,209958.2,231246.0,686097.0,185517.3,180509.9,201637.1,0.0
207336.3,215063.0,209196.0,230480.7,685027.6,184910.9,180004.0,200253.0,0.0
207918.1,215368.6,209574.1,230978.7,685249.9,185206.4,180364.4,200796.6,0.0
209161.8,216089.7,210404.7,231868.2,686381.9,185912.3,181002.5,202348.0,0.0
209303.4,216181.3,210464.3,231856.7,686828.8,186000.9,181004.7,202659.6,0.0
208440.7,215685.4,209835.1,231131.4,686103.6,185515.5,180509.4,201643.2,0.0
207349.0,215059.0,209074.9,230369.0,685037.6,184914.9,180005.1,200260.5,0.0
207930.1,215365.3,209446.9,230866.7,685257.1,185210.4,180362.8,200798.0,0.0
209154.8,216067.0,210259.1,231737.0,686367.8,185897.2,180983.3,202327.9,0.0
209295.8,216165.8,210325.5,231732.9,686819.8,185991.5,180994.0,202641.3,0.0
208451.0,215694.0,209717.8,231028.9,686114.4,185522.3,180520.9,201648.4,0.0
207342.5,215050.0,208943.6,230252.2,685019.1,184902.8,179999.9,200249.9,0.0
207917.1,215350.8,209313.6,230743.4,685231.6,185192.1,180351.4,200780.1,0.0
209156.8,216070.1,210142.1,231630.6,686363.4,185894.8,180985.6,202328.7,0.0
209303.8,216172.6,210214.4,231630.0,686822.9,185989.9,180995.8,202654.0,0.0
208468.2,215706.9,209614.4,230932.1,686123.1,185526.9,180524.8,201670.4,0.0
207368.2,215074.2,208850.3,230166.6,685039.3,184920.0,180014.7,200283.5,0.0
207933.7,215371.6,209213.2,230653.0,685243.6,185204.3,180363.5,200803.7,0.0
209153.7,216071.5,210024.4,231524.1,686360.7,185893.0,180982.8,202334.5,0.0
209312.3,216182.7,210106.9,231535.4,686831.1,185999.2,181006.5,202666.6,0.0
208478.7,215720.8,209510.6,230840.4,686138.0,185538.8,180537.2,201685.0,0.0
207381.6,215091.2,208749.8,230073.8,685042.8,184936.7,180024.7,200297.2,0.0
207936.0,215371.2,209100.3,230549.1,685231.0,185211.3,180358.2,200802.9,0.0
209151.9,216060.8,209899.5,231409.8,686343.3,185883.4,180964.1,202322.7,0.0
209307.4,216168.5,209978.2,231419.0,686814.0,185987.6,180984.0,202655.9,0.0
208456.9,215689.1,209367.4,230711.0,686104.8,185510.6,180501.6,201660.6,0.0
207357.8,215061.3,208611.4,229950.4,685010.2,184906.9,179996.0,200275.0,0.0
207928.1,215364.3,208987.0,230447.6,685220.3,185203.1,180355.5,200804.1,0.0
209153.2,216063.6,209800.0,231324.2,686341.6,185889.0,180973.1,202334.0,0.0
209319.1,216181.6,209889.1,231341.0,686818.6,185999.6,181000.5,202674.8,0.0
208474.2,215706.1,209279.0,230632.7,686111.5,185523.2,180519.2,201683.5,0.0
207363.8,215067.1,208511.8,229859.6,685013.8,184909.6,180002.9,200288.3,0.0
207904.8,215340.6,208861.3,230328.8,685200.9,185179.3,180336.8,200787.9,0.0
209130.5,216041.5,209677.5,231204.9,686321.3,185869.7,180959.0,202322.8,0.0
209306.6,216168.2,209774.3,231228.6,686803.8,185989.3,180993.2,202670.4,0.0
208464.5,215693.0,209170.6,230523.5,686102.4,185517.6,180513.4,201680.8,0.0
207368.5,215066.3,208414.3,229763.7,685026.6,184915.8,180008.9,200295.9,0.0
207922.0,215352.0,208773.7,230246.5,685222.1,185199.1,180355.0,200805.0,0.0
209149.6,216054.8,209587.7,231122.8,686332.6,185887.4,180978.8,202337.7,0.0
209321.2,216175.5,209679.0,231144.0,686817.1,186003.5,181009.4,202684.6,0.0
208472.9,215692.6,209069.1,230436.3,686113.0,185526.2,180524.2,201691.8,0.0
207376.6,215070.7,208307.5,229669.7,685040.4,184918.6,180015.0,200301.5,0.0
207926.0,215354.8,208659.7,230144.2,685219.5,185191.9,180354.7,200799.4,0.0
209153.6,216055.0,209475.0,231020.7,686327.7,185879.7,180973.0,202331.2,0.0
209324.6,216176.2,209572.5,231047.0,686818.9,186000.0,181004.6,202682.3,0.0
208486.4,215703.9,208971.4,230346.3,686124.6,185533.8,180528.0,201699.7,0.0
207383.9,215074.1,208207.0,229578.8,685023.4,184926.1,180010.9,200300.3,0.0
207917.6,215350.5,208552.0,230045.8,685189.6,185190.1,180338.7,200783.2,0.0
209148.3,216053.0,209370.0,230930.5,686311.9,185879.5,180962.4,202318.7,0.0
209323.5,216171.9,209464.2,230955.8,686794.4,185995.8,180994.4,202667.1,0.0
208496.3,215709.6,208875.8,230267.4,686106.9,185535.8,180527.7,201692.0,0.0
207391.9,215079.8,208116.1,229500.8,685057.7,184929.4,180015.9,200300.4,0.0
207934.1,215360.9,208468.1,229976.6,685250.3,185201.6,180353.9,200795.4,0.0
209165.5,216062.2,209284.8,230859.8,686343.8,185890.6,180976.9,202331.2,0.0
209331.0,216170.7,209371.6,230876.9,686820.7,186000.0,181001.2,202676.7,0.0
208497.6,215700.8,208773.7,230175.6,686128.4,185534.0,180525.6,201697.1,0.0
207393.9,215069.5,208013.6,229406.4,685031.8,184927.5,180015.6,200303.0,0.0
207930.4,215346.9,208364.8,229878.6,685205.4,185201.9,180357.5,200794.2,0.0
209150.0,216039.5,209172.0,230748.1,686320.3,185884.4,180969.9,202322.5,0.0
209336.1,216171.0,209276.1,230783.5,686814.9,186011.0,181009.8,202683.7,0.0
208495.4,215693.2,208672.9,230081.5,686116.6,185537.0,180526.6,201699.1,0.0
207373.0,215044.2,207893.7,229297.4,685034.3,184914.1,179996.0,200286.5,0.0
207917.5,215331.6,208250.9,229775.1,685216.8,185192.3,180338.9,200778.0,0.0
209148.5,216034.5,209073.8,230659.1,686325.8,185882.2,180964.5,202316.6,0.0
209324.5,216156.4,209174.3,230687.7,686810.1,185993.8,180994.3,202671.2,0.0
208512.5,215710.3,208599.5,230009.6,686145.3,185547.7,180538.9,201718.7,0.0
207374.9,215047.5,207807.2,229208.8,685036.3,184911.2,179998.0,200295.6,0.0
207893.0,215307.8,208142.5,229668.6,685195.4,185169.4,180326.8,200766.9,0.0
209136.1,216024.5,208972.4,230561.7,686315.4,185864.4,180957.9,202307.5,0.0
209320.3,216150.6,209077.7,230598.3,686810.5,185986.7,180995.1,202671.0,0.0
208496.7,215688.4,208488.4,229910.4,686133.8,185531.5,180528.5,201706.8,0.0
207383.3,215050.0,207720.3,229135.0,685040.3,184917.0,180009.9,200303.6,0.0
207899.0,215308.9,208054.8,229591.1,685198.7,185167.5,180331.6,200769.7,0.0
209119.6,216002.3,208867.4,230465.2,686303.4,185845.9,180945.1,202300.9,0.0
209319.3,216144.3,208983.5,230509.4,686806.9,185981.7,180992.0,202675.3,0.0
208511.3,215697.0,208413.7,229838.3,686140.6,185538.2,180536.1,201720.8,0.0
207399.1,215063.4,207654.5,229069.0,685041.8,184928.7,180019.7,200320.2,0.0
207920.2,215332.1,207995.0,229528.1,685196.9,185191.9,180344.7,200787.6,0.0
209147.8,216029.2,208812.9,230410.5,686314.2,185880.3,180965.7,202321.2,0.0
209325.5,216147.0,208910.6,230441.3,686804.5,185996.5,180998.3,202680.0,0.0
208494.1,215674.4,208311.7,229741.6,686115.4,185523.8,180516.2,201699.4,0.0
207391.9,215048.6,207552.8,228976.0,685022.7,184919.2,180004.8,200303.2,0.0
207907.0,215311.6,207884.5,229432.4,685170.3,185174.4,180327.3,200762.6,0.0
209149.1,216022.9,208713.6,230326.1,686297.9,185871.8,180960.1,202308.6,0.0
209341.9,216157.3,208827.6,230370.8,686802.9,185999.7,181003.2,202682.7,0.0
208503.9,215678.4,208229.6,229672.4,686113.1,185528.3,180520.1,201705.6,0.0
207394.1,215044.3,207465.9,228905.3,685015.8,184919.9,180005.5,200307.4,0.0
207919.4,215321.3,207811.2,229372.7,685177.5,185191.5,180340.9,200781.1,0.0
209143.1,216017.6,208622.1,230249.0,686292.8,185875.2,180956.5,202314.0,0.0
209332.0,216147.5,208728.6,230286.7,686802.4,185998.4,180993.6,202687.1,0.0
208509.7,215683.9,208142.5,229598.3,686126.8,185535.0,180521.0,201721.2,0.0
207391.0,215042.5,207372.7,228820.8,685030.1,184916.7,179998.7,200314.6,0.0
207901.9,215305.7,207706.7,229272.1,685185.4,185171.6,180322.9,200771.3,0.0
209143.8,216014.5,208534.7,230163.9,686302.1,185864.5,180955.1,202315.8,0.0
209337.0,216147.5,208649.9,230205.0,686805.9,185993.6,181000.2,202691.7,0.0
208518.6,215688.2,208068.3,229521.5,686135.4,185536.8,180535.6,201731.8,0.0
207398.4,215044.8,207299.1,228743.7,685029.3,184918.0,180013.3,200323.1,0.0
207904.2,215304.0,207629.8,229194.4,685170.8,185173.3,180337.5,200777.3,0.0
209137.1,216004.7,208452.2,230080.8,686285.6,185861.3,180962.0,202314.7,0.0
209327.5,216134.8,208564.6,230122.0,686791.6,185988.3,181006.8,202693.2,0.0
208508.5,215675.6,207980.5,229439.8,686121.5,185531.9,180537.8,201736.1,0.0
207389.6,215033.9,207204.4,228658.5,685025.4,184910.3,180007.8,200323.0,0.0
207889.7,215288.3,207531.0,229106.5,685160.4,185158.5,180323.4,200766.6,0.0
209130.8,215993.9,208360.7,229999.5,686268.3,185850.8,180949.1,202303.5,0.0
209340.9,216138.4,208489.7,230058.4,686792.5,185991.9,181003.8,202695.4,0.0
208532.9,215688.6,207919.3,229386.1,686134.9,185543.3,180548.1,201750.5,0.0
207394.5,215026.9,207131.2,228590.2,685050.3,184906.9,180007.0,200322.1,0.0
207894.4,215280.8,207457.2,229035.1,685180.3,185154.0,180323.2,200759.0,0.0
209160.1,216010.5,208309.8,229950.2,686291.4,185864.7,180969.9,202320.9,0.0
209365.3,216155.1,208437.5,230007.2,686815.6,186003.3,181024.4,202714.6,0.0
208538.1,215685.0,207846.6,229316.5,686140.3,185537.6,180551.1,201750.5,0.0
207411.6,215039.7,207067.1,228529.3,685040.8,184912.4,180021.2,200330.9,0.0
207905.8,215292.5,207391.4,228974.6,685168.3,185157.4,180333.4,200765.1,0.0
209150.6,216002.3,208226.1,229871.4,686279.4,185852.0,180963.7,202309.3,0.0
209348.6,216138.0,208341.4,229918.5,686789.7,185982.3,181005.3,202691.7,0.0
208543.9,215694.0,207775.0,229251.4,686136.6,185538.5,180552.7,201754.1,0.0
207424.6,215057.3,207009.6,228479.4,685051.1,184925.9,180034.6,200346.4,0.0
207900.1,215292.4,207318.3,228909.5,685185.9,185156.6,180331.1,200761.1,0.0
209151.8,216012.3,208156.5,229813.3,686291.4,185856.2,180964.0,202311.3,0.0
209352.6,216149.9,208275.7,229864.9,686801.8,185988.7,181006.8,202697.5,0.0
208541.3,215694.4,207697.3,229188.6,686139.9,185535.0,180540.3,201748.9,0.0
207411.8,215046.9,206925.2,228406.0,685042.3,184915.6,180011.2,200335.2,0.0
207893.0,215290.9,207241.0,228843.8,685172.8,185155.7,180320.1,200758.6,0.0
209137.8,216002.0,208074.3,229745.7,686284.7,185852.6,180954.3,202305.9,0.0
209346.1,216145.0,208198.3,229804.5,686805.9,185990.8,181007.1,202702.7,0.0
208531.2,215688.8,207618.0,229126.1,686145.8,185538.4,180542.8,201757.2,0.0
207391.2,215034.3,206834.1,228332.3,685049.6,184905.8,180005.7,200329.8,0.0
207875.2,215283.8,207151.8,228768.5,685183.8,185145.6,180317.3,200751.6,0.0
209123.8,215995.3,207985.1,229668.1,686285.9,185842.2,180949.5,202297.7,0.0
209337.0,216139.5,208115.7,229731.7,686811.8,185983.6,181003.2,202696.1,0.0
208526.8,215685.9,207537.7,229054.1,686150.1,185528.8,180535.9,201750.2,0.0
207391.1,215036.4,206762.8,228268.0,685041.6,184908.0,180007.8,200333.0,0.0
207875.1,215282.0,207082.7,228705.8,685157.8,185149.3,180317.9,200752.9,0.0
209129.6,215997.6,207920.2,229611.9,686277.6,185849.6,180956.7,202305.7,0.0
209326.5,216125.9,208031.1,229655.4,686790.2,185972.5,180996.7,202693.0,0.0
208523.8,215679.3,207464.5,228985.7,686141.6,185528.9,180541.0,201762.4,0.0
207395.0,215037.8,206691.8,228201.4,685034.3,184911.0,180016.8,200349.5,0.0
207856.9,215268.9,206996.2,228624.7,685145.6,185140.9,180316.8,200753.4,0.0
209103.3,215978.6,207830.2,229524.4,686260.0,185834.9,180946.1,202295.2,0.0
209314.6,216121.7,207958.7,229581.6,686778.9,185972.6,180997.3,202693.1,0.0
208519.1,215677.9,207396.8,228916.6,686132.8,185532.8,180545.6,201762.5,0.0
207378.9,215016.7,206610.7,228121.1,685055.9,184901.5,180005.0,200330.8,0.0
207856.8,215260.2,206924.0,228555.2,685191.4,185142.2,180312.7,200741.7,0.0
209109.8,215975.2,207761.6,229460.6,686279.9,185843.0,180946.6,202293.5,0.0
209327.1,216123.4,207896.5,229529.7,686810.1,185989.6,181006.2,202705.2,0.0
208526.3,215676.1,207328.5,228862.7,686165.3,185546.8,180549.5,201773.6,0.0
207376.0,215018.0,206537.7,228061.2,685046.3,184914.1,180008.5,200339.5,0.0
207852.4,215268.1,206857.1,228500.5,685180.7,185162.4,180325.9,200755.3,0.0
209092.4,215969.7,207682.9,229391.6,686281.8,185847.2,180948.0,202292.0,0.0
209309.2,216114.4,207815.3,229454.5,686805.8,185986.7,181003.4,202697.1,0.0
208506.9,215663.5,207243.9,228781.1,686155.3,185536.4,180542.2,201762.3,0.0
207381.2,215022.8,206475.6,228000.5,685049.5,184919.3,180016.4,200344.0,0.0
207848.7,215260.3,206785.4,228424.0,685158.4,185148.3,180318.6,200740.0,0.0
209097.6,215970.1,207622.9,229329.6,686267.9,185845.2,180954.0,202290.5,0.0
209320.8,216121.6,207758.8,229398.2,686796.6,185990.5,181011.0,202704.3,0.0
208520.4,215672.8,207191.7,228728.4,686151.1,185543.0,180551.7,201773.0,0.0
207384.7,215023.6,206411.4,227938.9,685047.9,184918.6,180017.7,200346.8,0.0
207851.8,215263.0,206719.3,228364.3,685155.8,185151.1,180318.3,200745.0,0.0
209116.4,215987.5,207572.2,229283.6,686277.9,185861.2,180964.3,202307.1,0.0
209330.1,216126.9,207702.3,229345.7,686805.5,185999.3,181015.3,202713.3,0.0
208528.0,215676.1,207134.8,228677.0,686156.5,185550.9,180556.5,201780.2,0.0
207393.5,215027.7,206359.3,227891.4,685066.6,184926.6,180028.5,200355.8,0.0
207843.8,215251.0,206652.3,228303.7,685181.9,185143.4,180318.1,200738.4,0.0
209101.9,215969.6,207496.5,229216.3,686283.2,185845.9,180959.2,202295.5,0.0
209326.6,216119.0,207634.1,229284.6,686810.9,185989.7,181017.6,202709.7,0.0
208542.3,215682.1,207078.1,228629.1,686181.0,185555.3,180570.7,201792.5,0.0
207391.5,215018.9,206286.3,227826.8,685055.2,184915.1,180027.8,200353.2,0.0
207846.0,215254.3,206586.5,228244.8,685160.8,185140.8,180325.1,200739.0,0.0
209105.0,215972.0,207432.5,229158.2,686280.1,185843.9,180967.9,202297.2,0.0
209330.4,216120.1,207570.6,229229.9,686815.9,185988.3,181027.2,202713.0,0.0
208550.0,215686.7,207019.3,228579.8,686184.2,185558.3,180580.1,201797.3,0.0
207402.8,215024.2,206233.4,227778.3,685047.8,184921.6,180032.8,200357.3,0.0
207846.0,215244.3,206525.8,228185.7,685141.6,185136.2,180321.2,200731.3,0.0
209102.5,215961.6,207367.8,229098.5,686258.4,185835.4,180957.6,202286.2,0.0
209335.2,216119.1,207513.7,229177.9,686803.3,185989.1,181025.5,202713.7,0.0
208556.6,215685.5,206965.4,228524.8,686176.1,185559.1,180583.2,201801.4,0.0
207414.0,215027.6,206181.1,227726.3,685053.8,184929.4,180045.0,200368.1,0.0
207847.4,215238.3,206459.0,228121.7,685127.9,185136.2,180323.4,200726.6,0.0
209107.4,215955.2,207307.1,229040.2,686244.9,185841.9,180967.6,202285.2,0.0
209345.3,216116.5,207458.5,229125.3,686798.1,185999.5,181037.4,202717.9,0.0
208558.0,215674.6,206900.2,228463.8,686165.4,185559.0,180581.5,201796.9,0.0
207401.5,215004.9,206103.9,227654.1,685056.3,184914.1,180029.2,200351.0,0.0
207842.0,215224.9,206393.6,228060.3,685141.4,185130.0,180319.5,200718.5,0.0
209102.8,215943.8,207239.2,228976.3,686243.1,185832.1,180959.1,202275.7,0.0
209336.1,216099.6,207386.0,229055.8,686790.8,185985.1,181023.5,202706.5,0.0
208559.6,215668.7,206838.9,228406.2,686164.2,185556.5,180578.5,201798.1,0.0
207414.2,215012.6,206053.9,227609.7,685034.6,184924.2,180037.8,200361.1,0.0
207849.7,215233.9,206340.6,228017.1,685124.6,185140.2,180323.3,200726.0,0.0
209107.7,215951.0,207183.5,228931.9,686241.9,185839.4,180960.0,202280.1,0.0
209324.5,216091.4,207312.4,228996.0,686766.7,185972.9,181009.9,202691.8,0.0
208548.2,215661.6,206767.5,228348.4,686143.0,185546.4,180569.3,201789.1,0.0
207413.1,215019.0,205994.0,227555.8,685070.3,184926.8,180039.0,200364.8,0.0
207839.6,215232.2,206274.5,227952.0,685157.6,185133.6,180318.1,200718.8,0.0
209097.5,215946.9,207119.8,228867.8,686246.9,185837.6,180960.4,202277.8,0.0
209337.8,216107.0,207270.2,228954.3,686798.0,185992.7,181032.0,202714.0,0.0
208568.8,215682.9,206733.8,228312.9,686182.4,185569.5,180593.1,201817.3,0.0
207400.0,215004.8,205928.3,227494.1,685054.4,184917.2,180029.1,200359.3,0.0
207815.2,215205.6,206196.1,227883.0,685137.6,185114.2,180297.4,200699.5,0.0
209079.1,215923.9,207045.5,228802.8,686235.9,185816.0,180939.6,202255.6,0.0
209334.1,216098.1,207208.9,228900.3,686793.8,185983.6,181018.3,202704.7,0.0
208559.5,215667.5,206661.4,228249.2,686170.9,185550.3,180573.1,201801.5,0.0
207414.5,215011.0,205879.2,227452.2,685076.2,184923.0,180036.7,200368.3,0.0
207845.7,215229.7,206168.3,227857.1,685164.5,185140.6,180324.6,200723.1,0.0
209096.6,215935.1,207005.0,228762.7,686248.0,185827.6,180951.5,202266.4,0.0
209336.4,216093.3,207151.8,228845.3,686795.2,185977.3,181014.1,202700.1,0.0
208573.2,215673.0,206613.4,228207.6,686185.4,185556.7,180576.3,201807.6,0.0
207421.3,215012.9,205826.9,227404.3,685055.3,184920.7,180031.2,200367.8,0.0
207834.8,215219.1,206100.0,227790.5,685117.5,185122.6,180307.0,200707.0,0.0
209097.5,215933.2,206946.7,228707.3,686233.8,185822.4,180948.8,202264.0,0.0
209345.9,216096.2,207103.2,228800.6,686788.4,185978.4,181020.8,202708.8,0.0
208580.8,215674.0,206562.7,228157.1,686177.7,185556.6,180582.5,201817.3,0.0
207434.8,215019.1,205780.5,227360.6,685074.2,184927.8,180043.8,200383.5,0.0
207835.3,215212.0,206043.0,227738.7,685125.6,185117.3,180307.0,200707.6,0.0
209097.0,215929.0,206888.7,228655.3,686224.0,185819.7,180948.5,202264.4,0.0
209352.7,216099.2,207048.6,228753.2,686792.1,185985.2,181027.6,202716.7,0.0
208580.2,215666.6,206503.1,228105.5,686178.9,185554.7,180584.8,201820.4,0.0
207418.5,214998.1,205704.7,227292.2,685064.8,184909.6,180033.7,200372.0,0.0
207811.4,215183.7,205962.2,227664.7,685122.8,185094.3,180293.5,200689.3,0.0
209083.2,215911.3,206822.4,228593.9,686229.1,185804.6,180945.1,202256.3,0.0
209349.2,216092.1,206996.2,228699.8,686797.8,185978.8,181031.5,202718.5,0.0
208585.2,215668.7,206459.9,228060.4,686197.6,185561.5,180600.7,201834.6,0.0
207416.2,214992.4,205657.7,227243.4,685063.6,184913.7,180045.0,200380.5,0.0
207816.8,215191.5,205920.6,227621.6,685119.4,185104.7,180310.5,200698.8,0.0
209086.4,215914.8,206774.1,228546.5,686227.0,185809.5,180954.5,202256.2,0.0
209350.6,216091.0,206946.5,228653.8,686798.9,185984.7,181040.3,202720.7,0.0
208578.0,215657.8,206403.1,228006.0,686187.4,185555.2,180593.7,201825.3,0.0
207430.6,215005.8,205618.0,227202.2,685072.5,184919.1,180047.8,200383.0,0.0
207835.8,215209.6,205885.1,227585.1,685124.6,185115.0,180314.8,200705.5,0.0
209105.9,215933.3,206741.6,228511.9,686234.1,185822.3,180962.0,202268.9,0.0
209353.9,216092.0,206900.2,228605.1,686793.3,185979.2,181033.3,202720.9,0.0
208587.7,215660.5,206358.4,227958.8,686182.9,185547.9,180586.5,201828.1,0.0
207434.1,215000.6,205564.1,227149.3,685064.6,184905.5,180036.1,200381.8,0.0
207836.0,215202.0,205831.1,227533.7,685122.9,185101.4,180306.7,200704.4,0.0
209105.7,215923.1,206690.9,228464.9,686232.6,185813.3,180959.0,202270.7,0.0
209355.0,216085.9,206847.3,228556.0,686791.7,185965.8,181025.5,202717.0,0.0
208594.6,215660.7,206309.7,227919.0,686184.6,185538.2,180581.9,201827.7,0.0
207453.3,215011.5,205532.4,227122.6,685074.5,184911.5,180045.2,200396.8,0.0
207842.0,215204.0,205788.6,227492.9,685122.2,185098.7,180307.0,200705.2,0.0
209102.2,215919.1,206635.0,228411.9,686225.7,185800.0,180947.5,202260.0,0.0
209355.5,216080.5,206796.3,228505.9,686786.4,185962.1,181019.1,202715.5,0.0
208604.0,215665.2,206267.4,227872.1,686194.8,185548.2,180584.7,201836.7,0.0
207444.8,215003.3,205477.6,227063.4,685073.8,184911.3,180037.4,200389.5,0.0
207827.3,215190.5,205731.1,227433.5,685119.0,185095.6,180296.7,200690.4,0.0
209103.1,215918.6,206594.0,228368.9,686234.6,185808.5,180949.3,202260.1,0.0
209362.9,216087.7,206759.5,228471.5,686798.1,185971.3,181025.5,202723.1,0.0
208599.7,215657.2,206221.8,227830.5,686191.0,185541.9,180583.7,201839.2,0.0
207455.4,215006.7,205442.0,227033.0,685069.3,184916.5,180049.4,200405.7,0.0
207824.3,215181.1,205679.5,227387.7,685099.9,185087.0,180295.3,200690.6,0.0
209085.9,215897.9,206528.8,228310.8,686208.1,185786.5,180935.9,202247.4,0.0
209351.1,216071.5,206699.3,228418.1,686780.9,185956.8,181018.7,202717.6,0.0
208597.1,215651.8,206167.0,227782.9,686183.2,185538.1,180581.0,201843.0,0.0
207454.9,215003.4,205390.9,226989.1,685069.6,184916.6,180046.8,200413.6,0.0
207832.7,215186.3,205638.2,227352.8,685101.8,185097.4,180300.5,200705.2,0.0
209093.5,215895.8,206482.1,228268.1,686196.5,185791.5,180933.5,202253.2,0.0
209360.7,216068.0,206653.0,228375.1,686770.0,185959.3,181013.6,202719.7,0.0
208601.2,215638.9,206113.8,227733.5,686167.5,185531.8,180571.2,201838.3,0.0
207444.9,214976.7,205323.3,226923.1,685076.4,184896.4,180024.4,200392.2,0.0
207811.4,215151.3,205563.0,227277.8,685101.8,185070.4,180271.5,200671.6,0.0
209091.6,215881.1,206428.1,228216.3,686198.1,185786.3,180929.3,202243.8,0.0
209368.7,216063.4,206608.5,228330.4,686779.2,185961.2,181017.2,202721.8,0.0
208631.5,215655.3,206093.8,227711.9,686200.6,185554.5,180589.7,201858.7,0.0
207467.7,214986.8,205298.1,226895.7,685099.5,184908.4,180033.4,200401.2,0.0
207833.7,215165.6,205541.6,227252.8,685146.6,185081.3,180286.9,200681.4,0.0
209112.9,215898.5,206409.0,228195.2,686228.4,185797.2,180943.2,202250.8,0.0
209385.3,216078.6,206587.3,228306.8,686803.3,185974.5,181027.8,202726.0,0.0
208632.2,215656.6,206058.6,227668.7,686210.1,185554.9,180589.4,201851.8,0.0
207469.8,214995.5,205267.1,226854.0,685080.9,184916.9,180039.6,200401.4,0.0
207829.8,215170.3,205502.2,227204.0,685095.8,185088.0,180283.7,200672.7,0.0
209101.0,215892.5,206359.7,228136.5,686201.7,185798.5,180935.1,202236.4,0.0
209378.2,216074.2,206539.2,228255.8,686794.5,185979.6,181027.3,202722.5,0.0
208625.7,215652.7,206004.0,227622.2,686202.9,185559.1,180586.6,201851.5,0.0
207461.7,214986.2,205207.3,226806.2,685082.0,184919.0,180032.6,200397.3,0.0
207818.3,215160.5,205441.4,227155.4,685117.2,185091.1,180279.7,200668.1,0.0
209091.3,215887.3,206300.3,228090.8,686212.3,185801.9,180933.5,202235.5,0.0
209376.4,216080.2,206488.4,228217.0,686808.2,185991.9,181036.5,202732.9,0.0
208631.1,215664.4,205961.4,227585.0,686225.1,185577.2,180605.5,201870.8,0.0
207468.8,214999.3,205167.7,226772.0,685090.0,184936.4,180056.4,200422.7,0.0
207813.9,215162.5,205394.8,227114.1,685097.9,185096.7,180293.7,200685.1,0.0
209070.7,215867.3,206237.6,228033.8,686189.9,185788.2,180929.0,202233.5,0.0
209348.3,216046.4,206417.3,228152.4,686775.2,185966.3,181020.2,202721.9,0.0
208603.3,215630.2,205892.8,227523.5,686196.2,185555.3,180589.9,201862.8,0.0
207445.2,214970.7,205105.3,226714.7,685075.4,184921.0,180041.2,200415.0,0.0
207792.8,215143.2,205338.2,227063.9,685093.9,185087.2,180284.6,200674.5,0.0
209066.5,215869.0,206200.3,228001.0,686199.8,185795.8,180935.4,202239.5,0.0
209350.0,216052.6,206385.4,228123.3,686788.6,185975.6,181024.6,202730.5,0.0
208606.4,215637.5,205861.2,227492.0,686206.4,185558.1,180589.9,201867.2,0.0
207443.5,214971.4,205065.4,226673.3,685073.6,184913.9,180034.9,200409.6,0.0
207810.3,215158.9,205314.5,227036.1,685106.8,185098.7,180294.1,200681.9,0.0
209081.1,215878.5,206170.5,227968.4,686202.0,185803.5,180941.7,202241.2,0.0
209360.2,216055.0,206347.1,228084.6,686780.8,185975.4,181027.5,202725.7,0.0
208623.5,215643.0,205825.6,227459.6,686200.6,185563.0,180599.7,201866.0,0.0
207459.6,214979.0,205034.9,226644.1,685077.1,184922.1,180051.1,200411.1,0.0
207795.8,215139.6,205257.2,226979.3,685086.2,185081.8,180288.5,200658.1,0.0
209066.5,215856.5,206113.8,227913.2,686176.7,185787.4,180937.6,202218.3,0.0
209366.0,216057.5,206309.2,228045.6,686779.2,185977.1,181040.6,202722.5,0.0
208639.0,215658.5,205796.6,227428.8,686214.7,185572.1,180620.0,201876.7,0.0
207468.0,214986.5,204995.6,226606.8,685084.1,184923.9,180062.3,200416.6,0.0
207805.3,215144.8,205222.8,226947.5,685084.1,185082.6,180302.7,200664.0,0.0
209083.5,215866.3,206085.8,227885.8,686178.8,185790.7,180955.5,202229.3,0.0
209362.1,216041.1,206261.5,228001.2,686767.1,185967.9,181036.8,202716.0,0.0
208635.8,215637.2,205747.1,227382.3,686196.6,185562.6,180607.3,201865.9,0.0
207475.5,214976.9,204956.5,226572.8,685093.8,184925.5,180055.5,200413.0,0.0
207806.5,215132.3,205177.1,226904.7,685086.9,185081.5,180289.1,200649.5,0.0
209097.3,215869.4,206052.7,227855.8,686183.9,185804.9,180954.2,202228.8,0.0
209390.8,216063.4,206241.1,227983.2,686781.4,185991.2,181049.0,202728.5,0.0
208656.9,215651.5,205719.5,227360.8,686208.9,185579.0,180617.4,201874.8,0.0
207488.8,214981.5,204926.0,226550.5,685106.1,184936.5,180066.0,200418.8,0.0
207809.1,215130.5,205138.3,226875.8,685099.8,185082.1,180293.7,200646.1,0.0
209093.8,215861.5,206008.3,227819.5,686186.3,185797.2,180952.5,202218.2,0.0
209397.3,216063.5,206209.3,227959.1,686796.6,185993.3,181060.9,202734.5,0.0
208658.1,215648.1,205685.5,227331.7,686222.6,185577.6,180629.5,201883.6,0.0
207474.2,214964.4,204873.9,226499.3,685084.9,184919.8,180059.6,200412.5,0.0
207797.7,215117.8,205086.8,226826.6,685073.3,185071.6,180288.7,200642.2,0.0
209077.8,215845.4,205949.0,227766.3,686169.3,185783.0,180942.6,202208.4,0.0
209388.7,216052.1,206156.3,227914.4,686791.0,185990.7,181058.7,202732.4,0.0
208662.8,215655.0,205646.8,227300.6,686229.6,185594.4,180637.8,201892.5,0.0
207484.1,214980.2,204847.0,226478.6,685102.1,184950.8,180077.8,200432.1,0.0
207802.8,215131.3,205057.4,226803.5,685097.6,185099.3,180302.1,200655.9,0.0
209075.8,215852.2,205909.9,227735.0,686175.3,185796.1,180944.2,202210.1,0.0
209379.9,216052.4,206111.8,227875.1,686789.5,185992.1,181049.4,202723.3,0.0
208648.0,215647.9,205597.4,227256.7,686223.4,185587.8,180623.9,201880.6,0.0
207468.1,214975.3,204792.4,226431.9,685089.6,184944.5,180066.5,200423.7,0.0
207772.5,215117.4,204991.3,226743.4,685078.9,185087.0,180286.1,200638.3,0.0
209054.8,215848.8,205859.0,227686.5,686176.3,185801.8,180945.8,202208.2,0.0
209357.1,216046.7,206062.4,227827.0,686786.0,185994.6,181055.0,202726.8,0.0
208637.4,215650.1,205557.4,227219.2,686228.2,185596.5,180640.4,201894.8,0.0
207461.0,214981.6,204754.8,226395.8,685086.1,184954.1,180082.5,200435.6,0.0
207770.0,215125.1,204956.8,226711.2,685067.7,185097.3,180302.0,200648.1,0.0
209046.1,215847.1,205814.3,227648.0,686169.0,185802.4,180951.4,202211.1,0.0
209362.2,216058.5,206029.7,227797.2,686791.7,186008.9,181064.8,202740.1,0.0
208641.4,215655.9,205523.2,227185.2,686238.6,185606.4,180641.3,201902.1,0.0
207451.1,214966.9,204706.5,226348.4,685095.6,184944.7,180070.0,200425.3,0.0
207758.1,215110.8,204906.0,226659.3,685062.3,185083.2,180285.8,200627.5,0.0
209042.5,215835.3,205769.7,227600.2,686156.8,185789.5,180937.1,202190.8,0.0
209353.2,216033.1,205971.9,227744.5,686766.5,185983.0,181044.5,202710.9,0.0
208639.0,215633.6,205467.3,227138.1,686210.1,185584.8,180629.1,201879.9,0.0
207471.2,214968.2,204673.2,226320.9,685074.8,184946.7,180077.6,200425.4,0.0
207770.4,215106.5,204871.5,226632.0,685044.6,185083.5,180293.8,200629.9,0.0
209052.1,215833.8,205734.4,227574.1,686146.1,185792.0,180947.0,202194.0,0.0
209361.1,216034.8,205935.0,227716.3,686758.2,185985.1,181052.1,202713.9,0.0
208648.5,215641.4,205434.2,227116.6,686211.8,185592.6,180638.8,201890.9,0.0
207476.0,214973.8,204635.9,226301.5,685100.7,184952.5,180082.8,200434.3,0.0
207774.0,215114.2,204833.3,226609.1,685082.8,185090.7,180298.8,200634.8,0.0
209053.3,215838.4,205695.6,227546.4,686165.1,185798.7,180949.3,202200.1,0.0
209374.5,216050.3,205909.6,227699.5,686794.8,186008.4,181068.6,202737.0,0.0
208663.9,215659.8,205410.8,227094.0,686253.4,185618.0,180655.6,201916.2,0.0
207469.1,214966.8,204590.8,226250.4,685103.4,184955.2,180077.1,200434.0,0.0
207759.3,215097.3,204778.6,226551.3,685065.8,185085.9,180290.3,200622.9,0.0
209044.6,215823.6,205643.8,227494.3,686155.9,185795.1,180946.4,202190.0,0.0
209362.4,216025.1,205853.3,227644.8,686777.5,185995.2,181056.6,202720.0,0.0
208650.3,215627.8,205356.9,227041.8,686234.9,185602.9,180643.8,201899.1,0.0
207461.8,214943.8,204543.9,226203.2,685096.3,184943.5,180070.0,200420.5,0.0
207762.7,215088.4,204743.0,226513.1,685081.4,185084.6,180290.5,200616.1,0.0
209052.9,215825.1,205617.1,227467.0,686176.3,185803.7,180953.4,202191.3,0.0
209376.5,216037.9,205831.4,227623.8,686799.5,186007.0,181068.5,202729.8,0.0
208656.2,215635.3,205318.4,227010.5,686248.4,185601.3,180640.3,201898.7,0.0
207468.0,214950.8,204506.5,226174.7,685109.9,184943.2,180067.7,200423.0,0.0
207771.3,215098.3,204710.6,226491.0,685079.7,185087.5,180293.2,200621.1,0.0
209054.8,215822.0,205571.9,227431.6,686167.5,185795.6,180944.4,202185.0,0.0
209360.8,216013.8,205770.3,227571.6,686779.4,185985.6,181044.3,202708.8,0.0
208653.5,215622.8,205276.9,226971.8,686240.5,185594.2,180637.8,201895.5,0.0
207470.6,214949.9,204474.5,226144.5,685096.8,184946.9,180078.2,200432.5,0.0
207750.2,215079.5,204658.0,226439.6,685041.5,185076.1,180285.1,200607.7,0.0
209042.1,215813.3,205532.5,227395.1,686147.4,185794.2,180946.7,202182.1,0.0
209372.6,216028.4,205755.8,227561.2,686782.5,186005.5,181066.7,202728.3,0.0
208669.9,215638.7,205262.2,226964.5,686250.2,185619.2,180658.6,201917.8,0.0
207466.9,214943.8,204434.5,226113.9,685104.5,184952.3,180073.6,200431.1,0.0
207737.4,215065.5,204613.5,226401.8,685050.0,185075.8,180277.0,200600.2,0.0
209032.1,215801.7,205492.8,227355.0,686147.1,185795.2,180942.8,202174.5,0.0
209367.0,216023.6,205714.3,227515.2,686782.8,186002.5,181063.3,202722.4,0.0
208660.6,215633.6,205215.0,226912.2,686249.2,185605.1,180648.1,201908.0,0.0
207470.1,214948.8,204403.3,226074.8,685105.9,184945.4,180076.1,200432.5,0.0
207739.5,215069.0,204583.2,226365.2,685055.2,185066.4,180277.2,200598.1,0.0
209017.3,215785.5,205444.8,227310.6,686142.4,185770.8,180928.3,202160.0,0.0
209350.1,215998.3,205665.1,227474.3,686772.5,185980.1,181048.6,202708.5,0.0
208662.4,215620.6,205184.0,226887.0,686252.5,185601.8,180649.8,201911.8,0.0
207477.3,214939.9,204371.5,226050.5,685102.3,184943.8,180079.8,200438.7,0.0
207748.0,215065.5,204550.6,226342.8,685038.8,185068.7,180285.1,200604.6,0.0
209031.4,215793.2,205414.8,227289.3,686134.6,185777.5,180943.3,202170.7,0.0
209353.0,215995.7,205623.3,227441.4,686762.6,185975.3,181053.8,202712.8,0.0
208651.7,215608.3,205131.1,226846.3,686236.1,185587.7,180644.8,201905.8,0.0
207456.3,214922.1,204314.3,226004.8,685107.8,184926.5,180074.3,200426.5,0.0
207725.3,215046.0,204495.8,226296.2,685057.3,185048.2,180279.6,200590.1,0.0
209022.4,215782.5,205374.1,227253.5,686135.8,185766.1,180943.8,202166.4,0.0
209368.4,216006.9,205607.1,227428.6,686785.6,185986.9,181075.1,202731.5,0.0
208663.0,215613.3,205107.5,226822.6,686248.9,185590.3,180653.2,201916.1,0.0
207476.3,214934.7,204297.0,225988.1,685114.7,184935.6,180080.6,200442.0,0.0
207729.4,215044.3,204463.1,226265.8,685052.2,185044.0,180273.2,200586.9,0.0
209014.5,215769.5,205329.3,227212.5,686125.6,185751.0,180929.5,202154.1,0.0
209353.9,215989.8,205556.8,227381.1,686770.9,185966.8,181055.9,202717.5,0.0
208656.1,215602.1,205068.0,226785.8,686245.8,185577.7,180645.6,201916.6,0.0
207474.1,214927.1,204261.2,225953.0,685103.1,184926.1,180080.1,200447.1,0.0
207744.1,215055.7,204442.1,226243.8,685037.1,185054.0,180288.6,200603.2,0.0
209028.7,215781.4,205307.7,227193.1,686134.1,185764.7,180943.7,202169.3,0.0
209359.8,215994.0,205524.9,227355.2,686772.7,185969.8,181058.9,202721.7,0.0
208651.3,215596.7,205025.2,226749.2,686235.3,185571.2,180636.9,201909.7,0.0
207473.2,214925.7,204223.6,225920.3,685103.4,184926.7,180075.2,200445.8,0.0
207729.0,215040.7,204395.6,226204.0,685047.1,185045.8,180275.0,200594.0,0.0
209015.1,215764.3,205262.2,227149.7,686123.8,185751.1,180928.0,202154.8,0.0
209359.8,215986.6,205494.0,227322.7,686767.4,185967.2,181053.0,202719.4,0.0
208674.2,215613.3,205014.5,226734.7,686250.8,185585.9,180649.1,201922.8,0.0
207496.0,214945.2,204213.9,225906.0,685116.3,184942.0,180089.3,200458.2,0.0
207725.6,215039.3,204361.5,226165.1,685039.9,185037.9,180266.4,200579.9,0.0
209002.3,215756.8,205222.8,227111.3,686118.1,185743.5,180920.2,202138.3,0.0
209348.7,215981.0,205451.4,227283.1,686761.8,185963.9,181051.3,202709.1,0.0
208657.9,215598.7,204964.1,226689.4,686244.2,185578.9,180644.9,201916.7,0.0
207466.2,214914.5,204154.9,225852.2,685118.1,184924.8,180076.5,200444.3,0.0
207716.4,215029.7,204324.4,226128.0,685062.1,185040.5,180273.1,200586.0,0.0
209018.2,215772.2,205204.0,227090.4,686132.5,185760.3,180945.7,202163.4,0.0
209357.5,215986.5,205430.1,227258.5,686780.3,185973.6,181069.5,202727.6,0.0
208654.7,215590.5,204934.2,226656.8,686252.9,185577.9,180648.9,201923.0,0.0
207471.9,214916.9,204132.3,225830.6,685121.8,184929.9,180084.2,200458.1,0.0
207707.8,215021.0,204290.4,226097.7,685047.4,185035.2,180269.6,200581.6,0.0
208987.4,215738.7,205150.8,227041.2,686117.4,185740.1,180917.0,202136.0,0.0
209334.6,215958.1,205381.9,227215.9,686766.1,185954.6,181042.1,202705.1,0.0
208658.7,215591.0,204906.0,226633.2,686263.1,185577.5,180644.0,201923.8,0.0
207467.0,214908.6,204094.1,225790.5,685123.6,184920.1,180072.2,200447.6,0.0
207712.9,215022.8,204263.1,226067.7,685060.1,185034.8,180268.3,200580.8,0.0
209005.6,215754.3,205139.3,227026.8,686139.9,185748.7,180931.4,202147.5,0.0
209347.3,215967.8,205364.2,227195.5,686781.5,185957.9,181051.0,202713.5,0.0
208664.6,215587.7,204885.4,226612.5,686275.0,185578.5,180648.1,201930.3,0.0
207471.0,214904.7,204071.0,225770.5,685131.3,184919.3,180073.2,200450.3,0.0
207705.4,215013.2,204226.6,226034.1,685052.8,185025.6,180261.1,200569.2,0.0
208995.9,215743.6,205098.5,226988.3,686130.0,185740.4,180921.6,202134.3,0.0
209353.9,215973.3,205339.4,227173.4,686788.3,185964.4,181054.8,202716.6,0.0
208679.0,215603.1,204868.5,226596.5,686284.9,185590.3,180659.1,201940.3,0.0
207497.2,214926.6,204063.6,225762.4,685146.9,184936.6,180092.6,200468.2,0.0
207699.0,214998.6,204188.7,225998.8,685046.3,185009.9,180251.5,200554.3,0.0
209003.4,215738.4,205069.9,226963.4,686123.7,185731.5,180922.2,202129.3,0.0
209373.8,215977.9,205323.2,227158.5,686796.2,185968.6,181067.9,202726.2,0.0
208677.6,215586.4,204829.6,226557.7,686277.7,185573.2,180649.8,201929.3,0.0
207494.2,214912.1,204024.8,225723.5,685135.1,184922.5,180083.9,200458.3,0.0
207720.0,215008.9,204171.8,225983.2,685034.7,185020.0,180263.1,200565.9,0.0
208998.6,215725.2,205031.9,226929.3,686111.9,185722.5,180914.2,202122.8,0.0
209361.4,215959.6,205272.7,227116.3,686771.5,185947.2,181049.8,202708.6,0.0
208688.3,215588.2,204800.9,226538.1,686273.5,185576.3,180655.5,201936.3,0.0
207496.2,214909.3,203990.3,225697.0,685143.3,184920.5,180085.7,200463.2,0.0
207722.5,215012.3,204142.8,225956.4,685050.9,185021.8,180270.0,200571.7,0.0
209020.8,215747.0,205023.4,226920.0,686125.6,185740.2,180938.5,202145.4,0.0
209360.8,215955.3,205244.6,227088.3,686771.8,185944.4,181056.2,202714.3,0.0
208693.2,215591.2,204775.7,226516.9,686283.4,185575.5,180662.5,201946.5,0.0
207509.6,214920.3,203971.0,225685.5,685144.2,184927.0,180094.8,200476.7,0.0
207713.3,215002.7,204107.9,225931.4,685030.3,185016.0,180265.3,200568.4,0.0
208986.3,215711.5,204961.6,226865.4,686093.8,185707.8,180907.5,202114.0,0.0
209352.2,215946.3,205205.8,227052.5,686760.1,185936.5,181048.1,202707.0,0.0
208689.7,215584.6,204743.6,226482.2,686273.3,185576.0,180662.3,201946.3,0.0
207490.3,214897.1,203922.1,225628.9,685129.9,184914.1,180083.6,200463.2,0.0
207689.7,214977.3,204050.1,225865.9,685032.2,184993.2,180246.2,200545.1,0.0
208985.5,215709.9,204926.0,226828.8,686101.3,185706.7,180910.6,202115.3,0.0
209358.4,215949.4,205177.6,227024.7,686775.2,185941.8,181056.8,202718.3,0.0
208683.8,215572.7,204698.5,226439.1,686272.1,185562.0,180649.8,201942.3,0.0
207496.4,214896.5,203893.2,225602.6,685136.1,184915.3,180080.5,200468.7,0.0
207692.5,214977.4,204024.4,225840.3,685040.9,184998.8,180245.3,200548.2,0.0
208991.1,215712.8,204904.5,226807.8,686120.7,185715.2,180915.0,202119.1,0.0
209364.4,215951.6,205154.8,227004.0,686789.8,185947.4,181060.1,202718.4,0.0
208698.7,215587.3,204691.0,226430.3,686302.7,185581.9,180668.6,201955.1,0.0
207502.3,214905.0,203880.0,225585.6,685148.3,184923.6,180095.1,200477.2,0.0
207690.7,214977.7,204003.8,225816.7,685027.4,184997.4,180256.6,200549.3,0.0
208985.3,215710.7,204879.5,226775.9,686108.2,185705.8,180919.9,202112.4,0.0
209352.5,215946.6,205123.6,226967.0,686771.1,185931.0,181056.6,202707.8,0.0
208689.0,215580.3,204657.8,226397.1,686286.0,185564.7,180665.0,201947.8,0.0
207517.5,214918.6,203864.4,225571.7,685149.8,184927.9,180109.8,200486.0,0.0
207699.2,214987.3,203982.1,225796.0,685020.8,184998.6,180266.9,200547.5,0.0
208986.2,215707.7,204847.2,226746.8,686095.6,185701.3,180921.3,202101.9,0.0
209366.6,215949.5,205102.6,226950.9,686769.4,185936.2,181065.0,202707.8,0.0
208692.9,215574.0,204626.7,226372.4,686275.9,185556.7,180659.3,201938.5,0.0
207496.0,214888.4,203813.8,225528.8,685134.0,184898.8,180083.2,200460.6,0.0
207703.3,214984.8,203956.1,225778.0,685025.9,184992.8,180260.5,200544.1,0.0
209005.1,215722.0,204835.9,226742.1,686110.3,185708.3,180927.6,202117.0,0.0
209360.6,215937.6,205065.1,226915.2,686763.6,185920.3,181051.3,202703.2,0.0
208696.5,215567.5,204598.1,226341.2,686275.3,185550.8,180658.3,201942.9,0.0
207501.2,214884.7,203785.1,225497.6,685133.5,184892.5,180083.2,200465.8,0.0
207690.1,214963.7,203908.0,225733.6,685024.1,184972.8,180245.3,200532.0,0.0
208985.3,215690.7,204784.7,226697.5,686095.6,185687.8,180910.0,202098.7,0.0
209373.6,215939.0,205047.5,226905.1,686779.2,185928.9,181064.1,202718.6,0.0
208721.0,215583.2,204591.1,226342.4,686305.9,185571.4,180680.8,201973.2,0.0
207515.2,214891.6,203770.5,225487.5,685152.4,184909.2,180101.3,200486.5,0.0
207680.1,214951.7,203879.6,225701.2,685008.7,184970.3,180247.5,200530.2,0.0
208982.8,215687.3,204762.5,226668.9,686083.5,185686.5,180914.8,202099.7,0.0
209366.2,215929.0,205016.8,226870.3,686764.6,185922.1,181060.0,202710.8,0.0
208713.0,215572.0,204558.3,226304.8,686290.1,185560.0,180672.8,201963.0,0.0
207510.8,214881.5,203739.1,225451.4,685160.1,184894.3,180092.8,200479.7,0.0
207685.1,214948.3,203852.5,225673.0,685040.3,184962.8,180249.7,200533.3,0.0
208979.3,215681.4,204724.0,226633.1,686088.8,185672.5,180913.8,202096.2,0.0
209360.0,215920.9,204978.8,226831.4,686768.9,185905.2,181058.1,202708.3,0.0
208705.8,215560.5,204521.3,226265.6,686295.8,185541.2,180667.0,201959.3,0.0
207514.6,214882.8,203713.4,225426.7,685149.3,184888.2,180095.2,200484.1,0.0
207693.9,214960.2,203832.6,225649.1,685015.1,184962.8,180249.7,200532.6,0.0
208978.7,215680.6,204700.8,226602.2,686083.5,185667.0,180906.6,202084.2,0.0
209359.5,215919.4,204959.5,226805.3,686761.9,185904.0,181057.7,202700.7,0.0
208716.8,215568.8,204507.6,226247.2,686295.3,185548.1,180677.7,201961.0,0.0
207547.0,214911.9,203714.9,225422.5,685170.7,184916.7,180124.2,200503.3,0.0
207699.3,214962.6,203810.4,225622.0,685011.3,184969.3,180260.7,200530.7,0.0
208976.6,215676.3,204670.7,226570.7,686073.7,185667.7,180913.7,202082.8,0.0
209356.3,215914.5,204924.2,226773.5,686750.1,185901.5,181056.9,202695.9,0.0
208729.1,215579.3,204493.7,226235.0,686307.1,185564.0,180691.7,201976.2,0.0
207512.2,214877.1,203660.4,225371.8,685155.2,184885.1,180099.5,200477.1,0.0
207682.4,214946.6,203772.9,225589.8,685030.4,184953.8,180254.7,200515.0,0.0
208972.8,215671.8,204647.6,226551.6,686091.5,185662.6,180918.8,202077.6,0.0
209360.4,215915.9,204908.1,226759.3,686769.3,185901.7,181066.0,202700.0,0.0
208726.4,215574.8,204463.8,226208.9,686314.1,185554.6,180689.5,201971.5,0.0
207530.9,214893.3,203648.5,225363.8,685164.9,184899.1,180114.6,200491.4,0.0
207688.3,214952.5,203754.0,225576.5,685012.9,184963.0,180262.9,200521.8,0.0
208969.5,215667.1,204618.9,226529.8,686077.2,185662.2,180917.7,202071.5,0.0
209371.8,215922.7,204891.5,226751.7,686772.5,185911.4,181074.1,202704.2,0.0
208716.1,215558.4,204431.2,226183.8,686300.4,185546.6,180678.8,201959.4,0.0
207520.5,214877.4,203620.2,225338.9,685151.2,184890.8,180104.3,200480.5,0.0
207678.6,214937.8,203726.9,225550.3,684997.7,184953.0,180252.0,200509.8,0.0
208972.8,215666.7,204600.0,226510.7,686073.1,185666.6,180916.9,202071.4,0.0
209366.7,215915.5,204868.6,226724.3,686765.7,185914.0,181072.7,202703.7,0.0
208731.1,215571.5,204426.9,226177.0,686309.8,185565.2,180697.0,201977.4,0.0
207530.2,214885.1,203610.5,225327.8,685156.4,184900.8,180115.6,200491.7,0.0
207670.3,214934.7,203701.7,225525.2,685013.6,184947.6,180249.0,200502.7,0.0
208955.9,215655.3,204565.5,226476.2,686069.5,185650.0,180902.8,202055.5,0.0
209366.8,215916.8,204842.2,226701.2,686772.8,185911.3,181069.0,202700.6,0.0
208736.1,215578.0,204407.7,226160.0,686328.5,185572.7,180703.8,201985.9,0.0
207518.4,214879.0,203570.5,225290.0,685156.4,184894.9,180108.8,200484.7,0.0
207658.4,214928.6,203658.0,225485.9,684996.0,184945.1,180244.8,200495.3,0.0
208965.5,215672.7,204544.7,226462.5,686075.2,185669.5,180924.7,202071.9,0.0
209362.7,215924.2,204813.9,226678.9,686773.6,185916.2,181082.5,202708.3,0.0
208710.0,215561.0,204355.0,226113.8,686305.3,185548.6,180690.2,201966.4,0.0
207517.0,214882.4,203544.5,225269.2,685163.3,184895.8,180117.9,200490.6,0.0
207665.7,214938.2,203643.9,225473.3,685004.2,184958.5,180263.6,200509.5,0.0
208961.7,215664.8,204518.6,226437.0,686073.3,185669.3,180926.3,202070.5,0.0
209356.0,215907.5,204780.3,226645.7,686760.1,185908.3,181073.5,202697.4,0.0
208724.3,215562.6,204336.8,226097.8,686310.3,185561.3,180699.4,201976.1,0.0
207533.0,214889.1,203528.6,225258.1,685188.1,184911.4,180131.9,200505.7,0.0
207666.0,214933.1,203617.6,225451.7,685039.5,184959.3,180266.0,200505.7,0.0
208944.7,215643.1,204479.9,226400.0,686068.3,185654.2,180916.6,202048.2,0.0
209345.8,215894.4,204749.0,226617.3,686759.4,185897.1,181070.0,202684.6,0.0
208718.5,215554.7,204309.9,226072.3,686314.4,185554.0,180693.2,201967.3,0.0
207518.4,214867.4,203492.8,225222.6,685163.5,184889.9,180110.9,200481.4,0.0
207650.7,214912.3,203582.0,225415.7,685007.3,184935.4,180245.8,200483.0,0.0
208949.1,215645.2,204461.2,226383.9,686069.5,185648.5,180914.8,202050.4,0.0
209364.2,215909.7,204745.6,226615.2,686777.6,185908.3,181085.0,202706.7,0.0
208731.9,215562.7,204303.7,226068.1,686332.1,185560.0,180708.7,201988.1,0.0
207519.0,214863.1,203472.2,225202.6,685167.6,184881.7,180108.9,200486.0,0.0
207639.2,214898.4,203547.8,225383.7,685000.2,184919.3,180230.9,200471.7,0.0
208941.4,215637.9,204428.3,226355.8,686064.3,185637.4,180901.8,202037.3,0.0
209337.9,215885.5,204692.5,226570.5,686755.3,185879.4,181052.5,202672.5,0.0
208708.6,215544.0,204252.6,226024.2,686314.0,185536.4,180680.2,201957.3,0.0
207516.2,214869.4,203445.7,225179.5,685171.2,184886.1,180110.2,200480.7,0.0
207647.9,214916.3,203533.9,225370.5,684999.9,184936.8,180247.8,200475.8,0.0
208947.0,215645.3,204410.2,226339.0,686060.3,185647.4,180914.2,202036.6,0.0
209364.2,215908.3,204689.5,226573.1,686775.4,185903.5,181082.2,202695.4,0.0
208732.2,215562.6,204247.5,226026.1,686330.6,185553.4,180704.1,201978.2,0.0
207529.6,214876.1,203426.1,225172.5,685174.8,184889.7,180120.6,200489.3,0.0
207630.5,214896.3,203484.1,225337.5,684991.8,184911.0,180233.2,200459.0,0.0
208930.4,215633.9,204368.2,226313.0,686067.1,185627.0,180907.8,202029.7,0.0
209349.9,215897.0,204651.2,226546.5,686774.6,185884.5,181077.1,202690.4,0.0
208723.4,215551.7,204213.7,226000.8,686334.3,185534.2,180700.9,201977.7,0.0
207516.6,214860.0,203391.3,225139.2,685170.1,184864.0,180110.4,200483.6,0.0
207644.0,214905.2,203478.1,225326.7,684993.5,184911.4,180245.6,200469.9,0.0
208948.5,215640.2,204364.7,226302.0,686068.3,185632.0,180922.0,202039.2,0.0
209376.8,215914.2,204657.4,226542.5,686791.4,185898.0,181097.2,202710.7,0.0
208744.0,215566.9,204211.6,225990.5,686348.2,185539.1,180712.6,201994.0,0.0
207524.0,214863.3,203377.6,225122.3,685181.9,184861.9,180115.9,200493.5,0.0
207617.3,214882.2,203436.9,225286.5,684991.9,184886.7,180230.2,200456.2,0.0
208922.8,215622.2,204321.6,226260.3,686063.6,185605.9,180905.7,202021.7,0.0
209354.8,215897.5,204615.8,226505.0,686783.5,185870.9,181087.3,202695.9,0.0
208719.4,215542.8,204167.2,225951.7,686337.6,185510.5,180703.8,201981.5,0.0
207519.3,214857.1,203349.8,225098.5,685183.1,184849.0,180124.3,200495.8,0.0
207615.5,214880.5,203410.2,225261.7,684981.6,184873.2,180239.7,200457.0,0.0
208912.5,215613.3,204291.0,226233.5,686051.8,185589.3,180913.2,202023.2,0.0
209339.7,215883.1,204581.9,226473.6,686773.8,185853.4,181088.3,202695.8,0.0
208710.3,215533.7,204137.7,225921.1,686331.3,185499.0,180706.2,201982.3,0.0
207514.8,214854.5,203324.7,225069.9,685181.1,184841.7,180127.9,200499.5,0.0
207623.0,214888.7,203395.9,225243.4,684988.6,184879.3,180250.6,200469.4,0.0
208910.7,215608.6,204263.3,226203.4,686043.6,185581.0,180909.6,202020.3,0.0
209332.2,215872.6,204549.7,226442.9,686761.1,185841.6,181079.6,202690.1,0.0
208716.4,215534.5,204115.1,225904.5,686332.6,185500.4,180709.0,201988.6,0.0
207518.4,214852.1,203298.3,225050.6,685186.1,184840.8,180127.3,200502.2,0.0
207616.5,214878.8,203362.7,225216.6,684983.4,184871.7,180246.3,200460.6,0.0
208908.9,215605.2,204239.0,226185.0,686037.1,185583.2,180914.1,202015.3,0.0
209338.5,215874.0,204532.2,226431.0,686767.9,185848.4,181087.7,202689.6,0.0
208734.6,215547.5,204106.6,225896.4,686349.8,185512.0,180720.7,201996.4,0.0
207522.5,214848.5,203274.2,225022.0,685181.9,184838.3,180124.5,200495.5,0.0
207609.2,214865.6,203332.8,225180.2,684968.5,184862.2,180238.2,200441.3,0.0
208902.7,215593.8,204206.7,226146.2,686026.3,185570.5,180903.6,201994.0,0.0
209329.7,215865.0,204493.8,226386.3,686746.1,185834.3,181073.4,202664.9,0.0
208720.2,215534.6,204068.0,225855.4,686325.8,185500.4,180708.9,201977.1,0.0
207533.1,214863.1,203264.9,225015.6,685179.9,184850.6,180137.2,200505.8,0.0
207627.5,214889.6,203333.2,225187.2,684988.4,184882.5,180257.0,200459.9,0.0
208914.8,215606.7,204202.2,226145.3,686042.1,185582.4,180916.4,202005.6,0.0
209352.2,215883.1,204497.4,226391.4,686764.4,185848.6,181096.1,202685.6,0.0
208731.2,215536.5,204058.7,225849.3,686330.1,185498.4,180717.1,201982.5,0.0
207532.1,214852.0,203242.5,224995.8,685176.3,184836.7,180133.0,200498.1,0.0
207602.8,214859.5,203285.4,225138.1,684964.6,184844.2,180231.9,200428.6,0.0
208895.6,215584.9,204160.8,226105.3,686015.4,185547.0,180898.1,201983.9,0.0
209334.6,215862.5,204462.2,226359.6,686751.8,185814.4,181082.0,202672.8,0.0
208727.6,215528.3,204034.7,225828.3,686335.0,185471.7,180712.6,201984.3,0.0
207527.7,214842.4,203212.5,224968.4,685185.1,184803.6,180125.4,200493.6,0.0
207617.1,214872.0,203275.3,225131.7,684987.8,184830.7,180244.1,200439.4,0.0
208916.1,215604.7,204156.3,226105.1,686045.4,185538.8,180916.2,201998.4,0.0
209346.5,215871.6,204449.4,226350.2,686769.6,185800.6,181090.6,202679.8,0.0
208731.2,215531.0,204015.0,225807.4,686344.4,185454.4,180714.6,201984.0,0.0
207529.4,214844.4,203189.4,224945.5,685178.1,184787.2,180124.8,200491.3,0.0
207613.2,214866.8,203243.5,225104.1,684967.8,184810.8,180238.2,200428.3,0.0
208909.8,215595.5,204123.8,226078.8,686031.8,185522.9,180912.7,201987.7,0.0
209345.1,215864.8,204419.7,226326.1,686759.3,185788.9,181090.7,202676.2,0.0
208731.2,215521.6,203982.4,225778.6,686331.3,185436.4,180710.5,201978.3,0.0
207535.6,214842.0,203170.1,224924.9,685190.8,184777.0,180131.1,200497.1,0.0
207609.2,214856.6,203219.7,225072.2,684977.6,184794.2,180239.6,200426.7,0.0
208907.9,215587.2,204099.2,226045.0,686034.4,185505.2,180912.5,201987.6,0.0
209361.5,215874.2,204410.1,226308.6,686776.0,185782.9,181102.0,202688.8,0.0
208757.5,215541.3,203983.6,225776.1,686362.5,185447.7,180733.2,202002.6,0.0
207552.7,214850.1,203162.9,224916.1,685219.1,184782.3,180145.1,200511.8,0.0
207602.5,214844.2,203187.9,225042.3,685001.8,184774.7,180229.5,200414.5,0.0
208905.9,215579.4,204071.5,226019.7,686030.1,185489.2,180905.5,201975.2,0.0
209362.0,215865.8,204382.5,226284.0,686776.4,185770.9,181092.4,202678.5,0.0
208763.9,215537.3,203963.3,225757.2,686370.9,185441.7,180728.1,202001.9,0.0
207550.4,214841.7,203133.4,224886.9,685204.9,184771.4,180134.1,200507.3,0.0
207602.5,214837.9,203166.2,225023.8,684969.6,184775.3,180230.7,200418.2,0.0
208902.0,215570.3,204047.6,225999.1,686030.1,185487.0,180903.3,201974.2,0.0
209351.6,215851.6,204351.1,226253.7,686763.0,185757.7,181085.7,202669.4,0.0
208771.7,215543.1,203947.4,225741.1,686372.9,185442.5,180740.7,202012.0,0.0
207573.8,214862.1,203129.8,224884.1,685214.7,184782.7,180157.7,200528.0,0.0
207622.6,214856.0,203159.3,225012.6,684976.2,184780.6,180249.8,200429.8,0.0
208904.7,215568.8,204025.6,225974.1,686016.9,185475.1,180906.7,201970.3,0.0
209356.4,215849.7,204332.9,226237.9,686761.5,185748.9,181090.6,202671.4,0.0
208751.0,215515.3,203906.1,225704.6,686350.3,185409.3,180718.5,201988.0,0.0
207543.9,214822.2,203081.5,224840.6,685205.2,184742.2,180126.2,200493.8,0.0
207619.6,214847.0,203135.9,224995.4,684988.6,184769.4,180243.0,200418.4,0.0
208914.5,215578.4,204014.2,225966.8,686023.9,185477.1,180912.0,201968.2,0.0
209357.8,215851.2,204312.3,226217.9,686762.8,185742.8,181088.1,202663.5,0.0
208767.2,215526.6,203899.5,225699.1,686368.6,185420.1,180734.1,201996.8,0.0
207566.1,214844.6,203079.8,224837.8,685216.2,184757.7,180149.5,200506.9,0.0
207608.5,214841.2,203106.9,224965.2,684974.4,184758.3,180244.6,200404.3,0.0
208910.3,215576.3,203991.8,225946.5,686024.9,185473.1,180919.3,201963.3,0.0
209365.0,215858.2,204297.7,226208.1,686772.1,185747.8,181102.5,202671.4,0.0
208758.2,215517.7,203869.6,225672.1,686358.6,185406.4,180728.3,201989.9,0.0
207559.8,214836.4,203054.3,224815.3,685206.3,184746.0,180143.8,200503.9,0.0
207595.8,214825.4,203074.6,224933.2,684954.1,184738.6,180228.2,200391.5,0.0
208885.0,215548.4,203948.1,225902.0,686002.6,185449.4,180897.8,201945.1,0.0
209348.1,215837.7,204261.8,226170.3,686752.6,185734.0,181087.2,202659.1,0.0
208763.2,215517.9,203850.2,225655.5,686365.4,185410.0,180731.9,202000.1,0.0
207551.4,214824.1,203020.4,224784.6,685216.3,184736.7,180137.3,200505.3,0.0
207596.6,214828.1,203055.9,224917.1,684986.8,184742.8,180233.3,200402.3,0.0
208899.1,215564.9,203947.3,225900.7,686023.9,185462.4,180913.8,201964.6,0.0
209351.6,215840.2,204252.9,226159.8,686770.2,185736.9,181098.0,202672.5,0.0
208762.1,215512.9,203837.8,225638.6,686375.0,185406.7,180736.8,202007.2,0.0
207547.7,214813.3,203005.8,224764.2,685210.9,184730.3,180137.5,200506.3,0.0
207590.0,214815.7,203037.6,224896.0,684967.6,184735.9,180234.4,200399.6,0.0
208877.2,215535.9,203911.7,225864.0,685997.9,185437.5,180896.5,201942.9,0.0
209339.1,215820.2,204222.4,226128.8,686748.9,185714.1,181083.2,202654.8,0.0
208756.9,215503.1,203814.0,225615.5,686358.8,185392.0,180726.7,201999.3,0.0
207549.1,214811.8,202986.5,224747.6,685200.4,184726.7,180130.4,200505.5,0.0
207580.1,214800.3,203002.5,224861.8,684964.3,184720.9,180214.8,200379.5,0.0
208886.7,215538.9,203891.5,225846.4,686014.5,185440.5,180896.3,201940.7,0.0
209356.4,215831.0,204209.2,226119.9,686767.8,185726.8,181092.5,202663.7,0.0
208777.6,215514.5,203803.8,225605.4,686384.0,185405.3,180737.6,202010.6,0.0
207576.3,214830.1,202986.6,224745.3,685222.6,184744.1,180152.6,200523.9,0.0
207590.3,214806.1,202992.6,224851.0,684955.6,184724.7,180225.1,200383.8,0.0
208885.9,215535.5,203870.6,225823.9,686005.8,185435.0,180896.6,201932.9,0.0
209363.1,215833.8,204197.6,226106.0,686767.3,185728.6,181098.0,202664.4,0.0
208785.1,215515.9,203791.1,225591.9,686384.0,185407.4,180740.9,202011.7,0.0
207566.4,214816.7,202954.6,224714.3,685215.9,184725.8,180136.7,200508.7,0.0
207577.9,214796.8,202963.0,224821.5,684956.6,184705.9,180213.2,200375.5,0.0
208889.3,215540.7,203858.3,225811.8,686004.5,185431.5,180900.4,201942.3,0.0
209365.6,215836.1,204181.2,226090.9,686774.6,185721.4,181097.7,202672.0,0.0
208773.8,215508.0,203761.1,225565.0,686382.3,185387.5,180731.6,202012.5,0.0
207553.8,214807.6,202922.7,224687.2,685216.2,184710.9,180127.7,200509.1,0.0
207566.7,214787.2,202932.1,224795.0,684967.4,184699.3,180207.7,200372.7,0.0
208861.0,215514.7,203814.8,225772.7,686003.1,185412.5,180881.6,201924.2,0.0
209339.8,215813.2,204147.6,226056.5,686766.9,185709.3,181086.3,202663.1,0.0
208765.7,215496.0,203744.3,225544.2,686385.3,185388.5,180732.6,202015.8,0.0
207566.0,214810.8,202920.9,224678.3,685226.3,184724.7,180141.3,200526.3,0.0
207570.0,214785.0,202919.0,224776.6,684953.6,184702.2,180211.4,200373.8,0.0
208873.0,215522.1,203804.4,225762.4,686007.8,185420.8,180893.8,201931.8,0.0
209355.1,215822.5,204134.5,226048.0,686775.6,185717.8,181101.0,202676.3,0.0
208765.1,215491.7,203717.2,225522.0,686387.7,185386.2,180733.9,202021.8,0.0
207568.4,214809.3,202902.3,224662.8,685233.3,184725.9,180145.8,200535.0,0.0
207566.4,214776.8,202900.5,224757.6,684949.7,184699.6,180209.8,200373.9,0.0
208869.4,215511.9,203783.7,225740.9,685998.5,185414.1,180887.8,201926.5,0.0
209354.8,215811.9,204115.2,226028.6,686763.6,185706.3,181091.1,202668.1,0.0
208780.0,215494.6,203710.0,225517.3,686386.9,185386.9,180736.6,202024.0,0.0
207573.3,214808.6,202886.5,224649.3,685230.3,184722.9,180144.1,200531.9,0.0
207564.8,214775.4,202883.4,224742.0,684949.8,184697.7,180211.0,200369.2,0.0
208869.9,215512.9,203773.0,225726.8,685989.8,185414.3,180890.1,201922.5,0.0
209348.6,215807.2,204093.9,226005.7,686750.3,185698.7,181081.9,202653.8,0.0
208776.0,215491.7,203686.2,225493.4,686381.2,185381.2,180727.3,202013.3,0.0
207573.2,214807.8,202868.6,224629.6,685229.3,184719.9,180141.8,200528.0,0.0
207574.3,214783.6,202867.2,224722.7,684948.7,184698.0,180212.4,200364.5,0.0
208869.2,215510.3,203745.3,225695.7,685990.6,185408.5,180885.0,201910.1,0.0
209351.0,215805.1,204077.3,225983.1,686755.9,185704.0,181090.8,202654.4,0.0
208800.1,215510.4,203690.7,225489.6,686399.9,185400.4,180753.9,202028.9,0.0
207593.6,214818.9,202866.8,224622.0,685241.4,184731.6,180159.5,200536.3,0.0
207582.1,214782.0,202859.3,224712.0,684953.1,184705.1,180228.3,200371.2,0.0
208864.0,215495.8,203723.5,225677.8,685971.9,185405.5,180893.6,201909.2,0.0
209339.5,215784.1,204041.8,225955.9,686737.6,185690.1,181088.4,202646.6,0.0
208782.1,215482.6,203647.7,225457.5,686385.7,185383.9,180745.5,202023.4,0.0
207568.0,214790.3,202817.9,224582.0,685227.7,184711.1,180144.7,200527.1,0.0
207563.8,214768.5,202820.6,224681.4,684949.8,184692.6,180217.4,200365.3,0.0
208850.7,215489.3,203689.8,225648.7,685982.7,185392.3,180880.1,201902.0,0.0
209344.6,215796.5,204026.2,225940.9,686755.7,185690.6,181087.5,202653.2,0.0
208788.6,215490.6,203635.6,225443.0,686396.4,185383.0,180745.0,202027.9,0.0
207586.3,214803.0,202816.4,224577.9,685247.4,184715.9,180155.4,200539.3,0.0
207553.5,214753.0,202790.6,224648.6,684950.1,184665.9,180205.6,200345.9,0.0
208843.4,215472.7,203667.0,225622.0,685979.9,185368.2,180872.7,201885.9,0.0
209340.5,215779.2,204007.7,225921.7,686750.3,185671.4,181080.2,202644.0,0.0
208777.2,215471.5,203607.2,225413.2,686389.3,185357.5,180729.8,202013.4,0.0
207562.6,214779.4,202778.3,224539.8,685229.4,184686.0,180134.3,200517.2,0.0
207548.6,214752.4,202774.4,224634.2,684937.8,184657.5,180208.5,200342.9,0.0
208834.1,215470.4,203642.1,225602.3,685966.9,185348.7,180872.5,201880.0,0.0
209338.5,215785.7,203986.9,225907.6,686757.9,185650.3,181089.9,202649.9,0.0
208788.4,215487.6,203602.9,225418.3,686411.2,185342.4,180753.2,202035.7,0.0
207589.8,214804.0,202783.7,224553.8,685251.3,184676.6,180161.6,200546.7,0.0
207543.9,214743.6,202747.4,224612.8,684938.9,184622.2,180199.0,200337.2,0.0
208832.7,215467.7,203621.9,225588.0,685976.6,185326.7,180870.1,201876.1,0.0
209333.7,215779.6,203964.1,225889.3,686759.2,185633.5,181087.7,202643.0,0.0
208786.2,215483.8,203580.4,225398.1,686416.4,185337.6,180753.9,202032.4,0.0
207570.8,214786.2,202749.5,224523.8,685252.1,184667.1,180153.5,200534.8,0.0
207530.5,214734.8,202717.7,224590.7,684958.1,184622.0,180202.4,200331.2,0.0
208834.6,215471.7,203605.5,225577.8,685999.2,185343.5,180886.3,201884.5,0.0
209332.0,215777.6,203946.6,225877.8,686774.6,185644.2,181094.9,202644.7,0.0
208786.9,215486.2,203569.3,225393.8,686433.0,185350.2,180760.3,202036.0,0.0
207585.4,214804.5,202748.9,224527.6,685271.7,184691.4,180166.7,200551.0,0.0
207532.5,214741.9,202706.5,224584.6,684952.6,184640.8,180207.4,200339.9,0.0
208825.6,215468.1,203583.5,225564.0,685995.2,185355.8,180883.1,201883.5,0.0
209333.3,215779.7,203930.1,225869.0,686778.1,185662.6,181096.2,202651.5,0.0
208785.5,215481.2,203550.7,225381.5,686437.9,185363.2,180759.3,202044.0,0.0
207584.3,214799.2,202731.9,224516.6,685276.0,184700.8,180167.2,200553.2,0.0
207543.0,214749.1,202703.6,224587.9,684963.2,184656.3,180217.6,200346.4,0.0
208827.0,215469.0,203574.6,225559.0,685993.1,185359.3,180885.3,201881.2,0.0
209330.2,215778.4,203915.3,225860.4,686774.6,185665.4,181100.1,202649.3,0.0
208775.3,215473.4,203523.9,225358.0,686424.3,185358.6,180756.2,202033.0,0.0
207575.6,214790.5,202706.0,224492.8,685264.4,184699.2,180168.0,200548.7,0.0
207529.3,214740.1,202676.5,224559.0,684945.6,184655.0,180219.5,200337.7,0.0
208812.6,215455.9,203545.5,225526.6,685975.2,185356.7,180884.0,201870.1,0.0
209333.0,215782.4,203904.6,225845.1,686776.7,185678.1,181110.3,202659.7,0.0
208779.8,215477.4,203510.1,225346.2,686430.3,185369.1,180762.1,202046.5,0.0
207573.0,214788.1,202685.7,224472.1,685262.9,184700.9,180166.3,200550.0,0.0
207520.2,214727.6,202649.4,224530.4,684936.3,184650.0,180208.8,200328.3,0.0
208807.6,215448.9,203524.6,225508.5,685964.0,185353.2,180877.0,201865.0,0.0
209329.8,215776.7,203886.1,225831.7,686764.8,185674.8,181105.4,202654.9,0.0
208787.0,215479.2,203500.6,225342.5,686427.8,185373.6,180764.7,202050.8,0.0
207577.7,214787.6,202672.9,224469.0,685277.5,184704.9,180167.5,200556.2,0.0
207505.6,214713.9,202622.5,224513.8,684964.6,184640.3,180196.8,200317.8,0.0
208796.1,215438.4,203501.7,225496.8,685972.9,185352.8,180875.4,201858.4,0.0
209314.6,215761.7,203858.4,225813.7,686769.8,185669.2,181101.8,202643.4,0.0
208787.2,215479.5,203492.3,225336.8,686446.1,185383.0,180778.5,202055.8,0.0
207583.4,214787.8,202661.8,224460.8,685282.4,184713.3,180179.1,200562.1,0.0
207514.2,214717.9,202607.0,224503.9,684943.4,184652.1,180207.2,200320.5,0.0
208807.5,215446.2,203487.9,225487.9,685978.6,185364.6,180882.0,201862.0,0.0
209316.6,215757.9,203834.9,225795.0,686767.6,185669.2,181093.8,202641.6,0.0
208778.4,215466.5,203454.4,225307.7,686435.9,185368.9,180757.5,202044.9,0.0
207575.7,214780.4,202631.3,224437.1,685276.0,184705.8,180161.9,200555.4,0.0
207511.2,214718.7,202588.8,224486.3,684940.8,184649.7,180197.5,200318.7,0.0
208813.4,215456.0,203479.5,225475.9,685987.5,185372.1,180882.9,201871.0,0.0
209324.5,215766.7,203823.7,225781.6,686776.9,185675.6,181094.4,202649.7,0.0
208792.0,215475.2,203448.7,225298.8,686451.2,185376.3,180758.9,202054.8,0.0
207586.6,214785.9,202628.4,224426.9,685291.4,184711.8,180166.3,200562.4,0.0
207521.2,214723.9,202584.1,224473.4,684947.6,184653.7,180204.4,200321.8,0.0
208807.7,215443.0,203458.8,225449.9,685973.3,185358.3,180875.2,201858.6,0.0
209339.6,215771.3,203821.1,225774.2,686778.8,185677.1,181103.5,202653.7,0.0
208800.7,215474.3,203437.2,225284.5,686447.9,185374.6,180762.5,202052.5,0.0
207586.3,214774.7,202606.5,224407.0,685283.9,184701.3,180160.3,200555.1,0.0
207512.1,214706.7,202559.8,224451.8,684951.4,184638.3,180195.6,200309.5,0.0
208809.1,215440.3,203443.9,225436.1,685983.6,185350.6,180875.3,201849.8,0.0
209342.3,215771.1,203809.8,225761.8,686789.3,185679.0,181107.7,202651.0,0.0
208806.3,215475.9,203432.2,225276.1,686461.6,185383.7,180770.8,202057.9,0.0
207604.7,214791.3,202609.6,224406.4,685290.8,184719.6,180173.0,200569.1,0.0
207525.6,214718.8,202553.8,224445.9,684947.4,184652.5,180201.8,200315.4,0.0
208808.4,215436.0,203427.3,225419.5,685973.8,185354.2,180873.9,201848.4,0.0
209343.3,215767.5,203795.6,225748.9,686786.1,185680.8,181107.3,202656.8,0.0
208813.8,215473.8,203421.6,225269.4,686463.6,185386.5,180774.1,202068.2,0.0
207602.8,214780.6,202586.3,224385.1,685285.8,184711.6,180168.8,200565.0,0.0
207532.5,214720.8,202544.0,224436.2,684959.4,184660.9,180211.5,200324.2,0.0
208815.3,215440.6,203418.4,225412.6,685985.3,185363.7,180882.4,201855.5,0.0
209364.9,215784.7,203797.3,225753.0,686805.4,185702.0,181129.8,202673.8,0.0
208841.8,215501.6,203426.8,225273.8,686491.6,185410.2,180800.9,202090.5,0.0
207628.6,214804.7,202594.4,224391.3,685320.3,184737.6,180197.9,200593.1,0.0
207538.7,214728.4,202530.8,224420.6,684969.6,184670.1,180223.5,200331.0,0.0
208815.3,215441.1,203398.4,225390.2,685990.9,185370.5,180892.0,201858.4,0.0
209350.3,215771.1,203765.8,225718.8,686799.7,185697.3,181128.3,202669.5,0.0
208839.3,215499.7,203406.8,225255.4,686498.2,185421.0,180810.6,202103.0,0.0
207625.5,214801.9,202572.4,224374.6,685321.9,184746.2,180204.3,200604.1,0.0
207546.6,214739.8,202523.6,224418.9,684970.4,184688.0,180239.9,200347.8,0.0
208844.1,215472.0,203411.4,225408.4,685999.1,185404.5,180920.2,201887.9,0.0
209371.8,215793.5,203769.6,225726.5,686808.6,185719.7,181141.3,202684.8,0.0
208849.0,215504.6,203400.7,225250.4,686493.1,185430.0,180812.0,202106.1,0.0
207640.2,214812.1,202571.5,224371.4,685324.4,184758.9,180211.3,200611.1,0.0
207539.4,214727.9,202503.6,224395.5,684955.0,184683.4,180233.7,200336.1,0.0
208834.4,215458.1,203384.1,225378.8,685974.2,185389.2,180909.8,201869.2,0.0
209383.2,215800.2,203763.8,225722.0,686808.2,185725.9,181154.3,202690.0,0.0
208864.8,215514.8,203398.6,225248.9,686498.2,185436.9,180823.2,202114.1,0.0
207656.7,214822.9,202567.7,224370.0,685331.4,184764.3,180219.4,200618.6,0.0
207547.5,214731.4,202490.2,224390.3,684952.3,184681.4,180234.5,200334.6,0.0
208828.0,215446.5,203355.4,225359.7,685958.0,185376.0,180901.1,201857.9,0.0
209379.0,215788.0,203735.8,225701.3,686792.5,185711.3,181147.7,202684.4,0.0
208862.8,215508.8,203375.0,225234.3,686487.6,185429.9,180826.2,202115.9,0.0
207654.1,214819.1,202549.6,224358.0,685322.8,184761.0,180224.7,200622.9,0.0
207543.8,214727.7,202474.3,224372.9,684952.7,184675.3,180235.5,200332.1,0.0
208826.8,215444.9,203345.6,225348.9,685970.1,185376.3,180906.6,201857.1,0.0
209374.2,215782.5,203721.6,225690.2,686787.6,185710.6,181148.4,202678.8,0.0
208881.0,215523.8,203375.3,225237.6,686501.3,185440.7,180843.0,202127.3,0.0
207671.8,214830.1,202545.6,224356.3,685337.7,184768.5,180243.5,200634.1,0.0
207544.1,214724.1,202453.3,224355.9,684950.0,184673.4,180243.4,200329.2,0.0
208827.3,215442.6,203326.9,225333.8,685965.5,185375.4,180912.4,201854.5,0.0
209369.9,215775.6,203700.5,225672.0,686781.5,185704.7,181149.0,202675.6,0.0
208860.0,215497.7,203344.6,225210.4,686480.9,185422.0,180828.9,202113.3,0.0
207661.8,214812.4,202523.9,224338.4,685323.8,184757.2,180231.7,200628.2,0.0
207534.6,214708.3,202434.0,224339.1,684933.8,184661.5,180232.0,200320.6,0.0
208826.2,215434.1,203314.9,225325.4,685955.1,185371.6,180910.9,201854.3,0.0
209388.7,215786.3,203705.1,225679.1,686790.3,185716.7,181160.8,202693.8,0.0
208875.9,215505.2,203341.8,225209.8,686489.2,185430.3,180835.2,202128.7,0.0
207665.3,214809.0,202509.3,224324.4,685327.5,184756.6,180228.3,200630.0,0.0
207535.0,214702.4,202417.0,224321.2,684933.7,184658.9,180226.4,200312.4,0.0
208829.5,215435.6,203300.0,225307.7,685945.0,185370.6,180907.4,201845.6,0.0
209393.7,215785.7,203688.9,225659.3,686787.1,185716.2,181158.0,202683.9,0.0
208885.5,215504.1,203330.1,225189.5,686490.4,185433.9,180832.8,202121.7,0.0
207686.3,214818.9,202508.4,224315.7,685333.7,184771.0,180237.2,200636.8,0.0
207560.5,214722.4,202424.9,224323.4,684947.3,184682.9,180248.7,200331.9,0.0
208855.7,215456.4,203312.7,225317.5,685975.5,185402.8,180939.4,201871.8,0.0
209381.6,215769.7,203662.1,225632.2,686773.4,185710.5,181154.0,202675.2,0.0
208875.2,215488.7,203300.8,225165.6,686476.6,185421.3,180825.7,202113.0,0.0
207678.8,214803.9,202480.4,224293.2,685328.1,184756.8,180230.9,200632.5,0.0
207542.1,214697.1,202386.9,224287.6,684927.5,184657.4,180232.0,200313.3,0.0
208834.8,215428.6,203272.3,225279.9,685948.9,185371.0,180917.2,201846.0,0.0
209385.3,215767.5,203649.4,225624.9,686776.4,185705.5,181155.0,202678.1,0.0
208868.4,215479.2,203280.2,225148.5,686473.5,185412.4,180816.8,202112.3,0.0
207674.9,214801.3,202464.0,224280.5,685326.5,184752.6,180222.6,200632.6,0.0
207546.0,214707.1,202382.5,224287.1,684937.9,184664.4,180232.8,200321.3,0.0
208829.0,215427.4,203255.5,225265.3,685948.9,185366.0,180910.8,201842.6,0.0
209384.3,215766.5,203634.8,225606.4,686775.8,185701.1,181151.3,202677.1,0.0
208889.9,215499.2,203289.7,225154.4,686493.8,185428.0,180837.1,202133.1,0.0
207686.4,214811.7,202466.3,224280.4,685339.9,184763.2,180237.8,200647.3,0.0
207537.3,214696.4,202361.9,224267.2,684931.0,184657.8,180228.7,200315.1,0.0
208812.6,215409.5,203229.3,225239.8,685931.8,185354.4,180897.3,201829.2,0.0
209376.9,215755.0,203616.2,225591.9,686765.8,185694.0,181146.1,202671.1,0.0
208883.9,215487.7,203267.1,225133.4,686489.9,185420.8,180834.5,202129.4,0.0
207679.4,214797.4,202439.6,224249.6,685339.0,184751.2,180230.5,200638.8,0.0
207516.4,214676.4,202323.1,224225.3,684932.9,184636.0,180214.9,200294.3,0.0
208809.2,215407.3,203209.7,225220.1,685949.5,185350.2,180902.2,201825.8,0.0
209380.1,215758.3,203603.9,225577.3,686784.1,185695.4,181152.8,202672.0,0.0
208882.2,215489.1,203254.1,225121.1,686504.8,185422.8,180838.0,202130.0,0.0
207665.4,214791.3,202417.0,224232.8,685336.7,184748.4,180229.4,200637.1,0.0
207519.5,214685.5,202319.4,224227.0,684944.5,184650.4,180232.7,200309.5,0.0
208795.5,215398.2,203186.7,225199.5,685950.3,185344.3,180903.0,201822.5,0.0
209359.1,215739.9,203570.6,225545.8,686779.8,185682.5,181147.3,202664.9,0.0
208870.5,215474.5,203226.8,225092.9,686500.5,185412.6,180836.2,202124.7,0.0
207674.2,214791.3,202408.0,224221.9,685342.8,184752.0,180241.5,200643.5,0.0
207519.8,214677.9,202301.3,224206.3,684934.2,184648.9,180233.2,200302.8,0.0
208800.2,215396.4,203172.7,225184.5,685940.8,185351.2,180905.2,201819.8,0.0
209369.3,215742.3,203560.9,225539.9,686773.8,185688.7,181153.6,202668.9,0.0
208886.8,215484.1,203220.6,225094.1,686509.0,185424.1,180845.6,202138.5,0.0
207665.0,214778.5,202377.5,224197.5,685338.9,184740.7,180226.2,200635.7,0.0
207504.4,214660.3,202266.7,224174.9,684932.8,184632.0,180210.4,200287.1,0.0
208805.5,215397.6,203160.0,225173.2,685934.3,185352.4,180904.0,201820.7,0.0
209386.5,215753.8,203561.7,225538.0,686791.6,185703.3,181163.6,202679.7,0.0
208885.3,215473.6,203203.9,225071.8,686502.5,185417.4,180837.5,202127.0,0.0
207683.8,214784.8,202377.8,224192.0,685338.9,184749.3,180233.9,200637.8,0.0
207518.5,214664.9,202267.6,224171.8,684922.1,184638.3,180221.7,200285.4,0.0
208802.0,215387.4,203142.1,225155.1,685925.7,185340.7,180899.2,201799.3,0.0
209382.1,215744.2,203535.7,225516.7,686766.7,185686.0,181153.5,202657.4,0.0
208896.8,215485.2,203193.3,225066.6,686505.9,185421.3,180844.8,202133.0,0.0
207684.9,214792.7,202360.4,224179.8,685356.4,184747.7,180237.3,200640.9,0.0
207512.4,214663.8,202243.0,224151.3,684961.1,184628.4,180220.2,200281.0,0.0
208804.8,215392.2,203126.4,225142.3,685932.3,185337.6,180908.5,201807.3,0.0
209391.1,215750.8,203531.6,225516.7,686785.6,185696.2,181177.8,202677.5,0.0
208897.3,215475.4,203180.8,225059.6,686511.1,185422.3,180857.8,202141.0,0.0
207688.4,214781.6,202342.9,224170.5,685348.7,184745.1,180235.5,200642.1,0.0
207512.8,214657.2,202221.3,224134.3,684923.8,184625.1,180212.6,200274.4,0.0
208798.5,215382.0,203102.6,225122.0,685931.3,185332.3,180897.2,201793.1,0.0
209386.0,215740.5,203505.5,225491.1,686780.9,185684.4,181157.6,202660.7,0.0
208898.4,215470.1,203156.7,225034.5,686511.1,185407.5,180839.6,202126.7,0.0
207703.0,214789.1,202337.0,224163.5,685364.6,184748.2,180243.2,200647.0,0.0
207510.3,214650.1,202200.1,224118.1,684927.9,184620.4,180212.1,200263.9,0.0
208801.9,215384.2,203087.1,225108.7,685929.8,185337.2,180902.6,201788.2,0.0
209393.2,215747.6,203496.3,225485.0,686788.1,185694.6,181168.0,202663.1,0.0
208917.8,215493.5,203164.5,225046.9,686536.1,185433.1,180865.0,202146.8,0.0
207714.1,214805.5,202340.7,224170.3,685385.7,184767.4,180262.9,200665.5,0.0
207509.4,214651.7,202197.7,224115.1,684934.2,184628.5,180225.1,200276.6,0.0
208798.2,215380.6,203078.0,225101.9,685937.7,185340.3,180910.9,201798.6,0.0
209372.9,215728.3,203466.0,225456.3,686777.1,185680.2,181156.3,202658.5,0.0
208880.9,215456.8,203116.7,224999.6,686507.8,185400.2,180835.8,202127.5,0.0
207692.5,214782.8,202304.4,224133.3,685364.4,184741.6,180242.9,200650.5,0.0
207500.1,214645.5,202171.8,224088.3,684923.8,184611.5,180213.5,200264.1,0.0
208786.0,215369.3,203050.7,225073.9,685924.9,185317.0,180894.9,201777.6,0.0
209391.1,215745.8,203469.1,225462.8,686792.9,185686.7,181171.8,202666.9,0.0
208902.4,215476.1,203121.3,225008.7,686528.1,185412.5,180853.7,202137.9,0.0
207686.3,214776.2,202285.2,224118.8,685366.8,184735.0,180239.7,200642.8,0.0
207497.4,214643.5,202160.3,224079.9,684930.0,184611.9,180215.8,200260.7,0.0
208801.0,215386.1,203058.2,225082.3,685933.5,185335.1,180912.4,201792.1,0.0
209393.5,215746.7,203464.7,225454.6,686793.1,185691.0,181174.8,202668.3,0.0
208908.0,215477.7,203118.9,225001.7,686530.3,185415.5,180856.6,202142.1,0.0
207712.6,214797.9,202300.7,224127.0,685376.8,184753.1,180258.9,200665.6,0.0
207499.6,214642.7,202151.7,224064.5,684927.1,184609.4,180212.0,200260.2,0.0
208777.1,215358.8,203024.3,225043.9,685913.0,185310.4,180890.7,201768.5,0.0
209379.4,215730.8,203434.5,225422.3,686776.1,185673.3,181158.6,202653.4,0.0
208908.7,215475.8,203100.3,224982.5,686528.8,185413.9,180851.5,202140.8,0.0
207711.4,214790.5,202279.5,224106.2,685381.3,184751.3,180250.1,200660.5,0.0
207501.5,214638.7,202132.5,224045.0,684921.9,184610.6,180208.1,200259.2,0.0
208781.5,215356.7,203005.7,225026.3,685909.6,185311.7,180885.4,201764.1,0.0
209388.5,215729.1,203430.5,225414.9,686776.9,185681.3,181162.5,202655.0,0.0
208923.3,215481.0,203100.1,224975.4,686531.4,185421.7,180857.3,202145.6,0.0
207706.7,214779.5,202261.3,224082.8,685375.7,184741.9,180239.9,200651.2,0.0
207489.9,214625.8,202111.2,224022.1,684929.1,184600.2,180200.1,200246.6,0.0
208760.2,215334.4,202976.1,224994.3,685897.0,185294.8,180871.1,201744.7,0.0
209380.3,215719.9,203406.5,225393.7,686779.2,185676.6,181159.0,202649.8,0.0
208902.4,215458.1,203068.7,224949.6,686532.1,185414.0,180851.8,202140.2,0.0
207702.3,214774.2,202245.7,224069.5,685376.6,184747.3,180250.4,200661.2,0.0
207493.4,214631.8,202102.8,224014.5,684928.2,184611.8,180216.8,200257.1,0.0
208763.3,215340.5,202967.1,224988.7,685914.8,185302.6,180887.4,201751.2,0.0
209374.1,215714.4,203391.3,225381.9,686777.6,185670.2,181164.2,202648.0,0.0
208912.6,215465.5,203067.9,224948.5,686539.7,185415.7,180867.3,202150.9,0.0
207715.3,214779.8,202252.3,224075.2,685386.6,184753.5,180273.1,200676.7,0.0
207506.4,214633.2,202109.8,224018.7,684935.4,184616.8,180239.9,200272.4,0.0
208754.0,215325.0,202951.4,224968.9,685900.4,185287.8,180885.3,201746.1,0.0
209356.6,215693.3,203365.5,225353.7,686756.5,185647.3,181152.2,202634.8,0.0
208913.2,215463.0,203057.7,224941.0,686540.3,185413.8,180870.7,202154.6,0.0
207706.1,214770.7,202227.5,224056.0,685385.3,184743.7,180260.9,200671.6,0.0
207464.9,214600.6,202057.0,223970.8,684911.9,184580.8,180200.1,200235.8,0.0
208745.3,215320.1,202932.0,224953.6,685905.7,185282.4,180878.1,201739.0,0.0
209379.2,215715.4,203373.3,225365.5,686794.1,185673.6,181172.6,202658.6,0.0
208898.3,215444.5,203025.5,224911.4,686542.0,185400.7,180851.6,202140.8,0.0
207698.2,214756.7,202202.3,224029.8,685395.8,184733.3,180247.6,200660.7,0.0
207462.1,214592.9,202039.1,223950.1,684937.3,184579.3,180193.7,200230.3,0.0
208749.2,215319.9,202920.0,224936.1,685919.0,185287.5,180878.9,201739.2,0.0
209368.0,215696.8,203345.3,225331.3,686784.5,185658.1,181157.3,202640.9,0.0
208901.0,215437.8,203013.5,224893.3,686544.1,185393.3,180850.0,202138.8,0.0
207698.1,214746.3,202183.1,224006.4,685385.9,184718.2,180239.4,200653.8,0.0
207460.2,214582.8,202020.8,223929.1,684912.3,184566.5,180190.0,200220.4,0.0
208733.6,215298.3,202895.9,224913.5,685899.0,185267.3,180870.4,201721.9,0.0
209355.2,215681.4,203323.1,225314.2,686771.9,185642.3,181154.0,202633.0,0.0
208896.8,215435.9,202999.4,224885.8,686547.4,185392.4,180859.4,202144.9,0.0
207683.6,214739.9,202166.7,223997.3,685391.5,184718.8,180244.8,200653.9,0.0
207469.7,214602.6,202030.4,223944.5,684942.7,184592.4,180218.5,200241.2,0.0
208725.8,215298.5,202881.5,224906.8,685905.6,185271.8,180875.3,201715.8,0.0
209328.4,215658.5,203292.3,225290.0,686759.9,185625.3,181136.9,202608.2,0.0
208879.2,215419.7,202974.8,224866.0,686537.8,185379.9,180846.3,202126.8,0.0
207690.7,214747.8,202163.0,223995.3,685402.3,184729.2,180253.7,200661.8,0.0
207446.5,214583.7,201997.0,223910.9,684922.4,184574.7,180195.8,200218.8,0.0
208714.6,215294.6,202861.9,224885.0,685896.3,185267.6,180867.5,201705.7,0.0
209351.6,215690.0,203305.1,225299.7,686784.2,185654.3,181163.0,202635.4,0.0
208908.0,215456.1,202995.4,224882.9,686572.8,185417.3,180875.5,202164.7,0.0
207693.1,214753.9,202157.4,223989.7,685412.2,184738.7,180257.4,200672.7,0.0
207441.9,214583.7,201983.8,223903.4,684927.7,184581.6,180202.1,200224.0,0.0
208706.5,215288.2,202844.6,224875.6,685898.6,185271.8,180871.6,201709.0,0.0
209342.3,215680.0,203280.6,225280.8,686782.3,185652.3,181157.4,202625.0,0.0
208894.3,215440.0,202961.5,224856.0,686567.4,185405.0,180861.7,202143.4,0.0
207699.7,214757.3,202142.6,223980.9,685425.7,184743.7,180260.7,200671.4,0.0
207437.1,214572.9,201960.1,223884.9,684926.3,184575.3,180191.5,200211.1,0.0
208714.8,215289.2,202833.6,224872.7,685907.1,185274.5,180869.8,201709.1,0.0
209344.3,215671.4,203265.3,225276.4,686785.4,185649.5,181153.1,202627.2,0.0
208896.4,215432.7,202948.7,224852.2,686568.6,185403.2,180860.8,202148.6,0.0
207690.5,214742.8,202119.4,223966.9,685411.7,184735.1,180251.5,200667.4,0.0
207432.3,214567.5,201940.5,223872.8,684915.3,184572.3,180189.8,200206.4,0.0
208704.2,215284.3,202806.5,224848.1,685881.1,185266.7,180866.1,201693.7,0.0
209342.8,215674.0,203247.9,225263.0,686775.5,185651.1,181159.5,202623.8,0.0
208892.5,215426.0,202927.2,224840.0,686556.4,185398.3,180863.3,202144.7,0.0
207691.5,214737.2,202102.8,223958.7,685412.1,184730.9,180255.7,200668.3,0.0
207433.7,214564.5,201928.9,223866.7,684913.9,184565.7,180194.0,200208.1,0.0
208713.3,215286.7,202808.4,224853.8,685896.2,185268.6,180880.2,201706.4,0.0
209349.4,215676.2,203247.5,225266.7,686783.4,185648.8,181171.4,202635.6,0.0
208886.4,215420.2,202914.3,224829.9,686554.9,185385.6,180861.7,202147.5,0.0
207682.5,214729.3,202087.6,223945.1,685415.4,184715.5,180249.5,200668.4,0.0
207412.6,214547.8,201902.7,223840.7,684925.3,184539.4,180176.3,200191.5,0.0
208690.0,215269.0,202777.3,224826.5,685874.4,185240.2,180856.2,201683.5,0.0
209315.2,215645.5,203203.2,225226.6,686756.3,185611.3,181130.0,202600.3,0.0
208892.8,215428.0,202912.6,224828.5,686568.2,185389.8,180862.2,202153.3,0.0
207712.2,214764.8,202111.3,223969.9,685436.4,184746.5,180280.3,200701.0,0.0
207427.2,214569.5,201911.6,223855.7,684914.2,184563.8,180200.6,200213.9,0.0
208671.8,215257.7,202752.3,224806.7,685852.3,185236.2,180852.4,201675.6,0.0
209322.2,215658.8,203206.8,225233.5,686760.9,185632.2,181156.5,202622.2,0.0
208883.7,215426.8,202897.4,224817.1,686554.9,185390.7,180867.9,202157.5,0.0
207681.0,214738.9,202068.4,223928.2,685412.5,184719.2,180255.3,200679.5,0.0
207406.0,214554.2,201882.8,223825.2,684906.3,184551.8,180184.3,200202.8,0.0
208664.4,215258.1,202739.5,224789.5,685860.6,185236.3,180847.4,201674.5,0.0
209329.7,215672.3,203202.0,225222.2,686772.4,185640.3,181158.9,202627.3,0.0
208880.7,215421.9,202880.5,224794.3,686554.9,185384.9,180859.9,202149.0,0.0
207695.5,214742.6,202068.6,223922.4,685423.1,184727.7,180259.3,200681.5,0.0
207417.6,214557.6,201879.9,223816.0,684913.2,184556.9,180188.3,200203.2,0.0
208679.4,215270.6,202745.8,224792.3,685875.2,185249.6,180864.2,201684.9,0.0
209327.9,215670.0,203197.3,225217.3,686775.5,185644.8,181167.5,202629.8,0.0
208871.5,215412.8,202865.2,224779.8,686553.9,185384.3,180856.9,202143.8,0.0
207665.6,214715.0,202032.3,223887.5,685411.6,184707.1,180238.7,200660.9,0.0
207385.2,214526.5,201840.1,223779.1,684924.6,184533.1,180165.5,200174.4,0.0
208661.4,215247.6,202714.8,224766.1,685881.1,185234.6,180849.8,201664.7,0.0
209317.7,215651.8,203170.6,225194.2,686775.2,185628.8,181154.5,202614.8,0.0
208901.9,215433.3,202880.3,224797.1,686595.2,185404.4,180887.6,202174.0,0.0
207707.4,214747.6,202058.1,223913.9,685449.4,184736.4,180279.6,200704.0,0.0
207409.5,214546.3,201849.1,223786.7,684928.6,184547.0,180191.5,200200.7,0.0
208665.3,215245.3,202704.6,224751.6,685870.4,185230.1,180854.3,201667.3,0.0
209332.7,215656.8,203167.6,225187.8,686786.7,185633.3,181163.2,202626.8,0.0
208909.3,215432.9,202869.0,224781.1,686603.9,185402.7,180884.1,202178.6,0.0
207702.1,214736.6,202037.4,223886.5,685448.6,184727.5,180267.0,200695.5,0.0
207412.9,214545.3,201837.4,223770.3,684923.4,184548.6,180188.9,200196.5,0.0
208677.5,215257.5,202701.7,224749.7,685876.4,185244.9,180865.3,201671.8,0.0
209312.1,215636.6,203133.2,225157.9,686768.2,185617.7,181146.5,202601.4,0.0
208868.0,215387.6,202813.8,224734.7,686560.9,185362.8,180842.4,202133.9,0.0
207677.1,214705.6,201994.6,223854.3,685429.7,184702.1,180237.7,200667.4,0.0
207390.9,214520.8,201801.2,223739.5,684909.0,184533.0,180167.5,200173.9,0.0
208656.6,215235.1,202665.4,224716.6,685869.6,185230.8,180844.8,201652.2,0.0
209322.1,215645.3,203126.0,225149.9,686784.6,185629.1,181150.2,202609.5,0.0
208898.9,215420.8,202831.3,224748.2,686599.5,185396.5,180872.2,202163.4,0.0
207703.1,214735.3,202008.3,223867.3,685454.0,184726.6,180262.2,200690.0,0.0
207424.3,214557.2,201824.1,223763.3,684948.8,184562.9,180198.8,200203.1,0.0
208665.4,215247.4,202669.3,224721.2,685893.6,185239.1,180858.3,201659.5,0.0
209307.9,215635.2,203104.4,225132.4,686778.5,185617.8,181143.9,202596.8,0.0
208866.0,215385.3,202785.2,224710.1,686570.7,185363.2,180845.0,202128.8,0.0
207676.5,214700.3,201972.2,223837.9,685443.3,184710.0,180249.5,200672.5,0.0
207373.1,214500.7,201762.4,223709.0,684911.9,184521.3,180162.4,200159.8,0.0
208630.1,215205.1,202620.5,224679.5,685861.4,185204.2,180831.1,201626.7,0.0
209315.8,215633.5,203100.6,225137.0,686789.8,185624.2,181158.3,202610.2,0.0
208875.5,215387.5,202783.8,224714.5,686589.6,185376.2,180858.1,202150.9,0.0
207682.4,214704.9,201965.5,223834.1,685450.2,184713.6,180253.6,200682.3,0.0
207390.6,214520.9,201773.0,223719.3,684925.2,184539.7,180183.6,200178.8,0.0
208635.0,215213.3,202617.3,224679.6,685850.9,185212.3,180840.8,201630.6,0.0
209290.0,215604.9,203065.0,225103.2,686762.1,185598.5,181136.7,202583.2,0.0
208878.3,215387.0,202775.0,224707.5,686590.4,185372.8,180863.2,202149.8,0.0
207677.8,214695.8,201945.7,223818.1,685442.6,184697.9,180243.8,200674.3,0.0
207367.7,214497.1,201734.3,223688.0,684904.1,184507.6,180157.8,200153.2,0.0
208622.6,215200.7,202592.7,224660.9,685850.7,185191.7,180829.3,201616.7,0.0
209300.8,215619.2,203067.0,225109.2,686771.7,185602.6,181150.3,202594.3,0.0
208891.8,215403.8,202778.4,224712.3,686602.6,185382.3,180880.3,202167.4,0.0
207694.8,214713.8,201951.2,223822.1,685451.3,184712.7,180266.0,200694.5,0.0
207374.4,214503.7,201729.5,223680.4,684909.2,184516.0,180172.2,200162.2,0.0
208631.0,215209.2,202587.6,224653.1,685851.8,185206.2,180846.3,201623.7,0.0
209302.5,215617.1,203049.2,225091.2,686767.6,185609.0,181157.0,202591.4,0.0
208889.9,215395.2,202759.0,224692.3,686593.5,185378.8,180882.0,202160.6,0.0
207703.2,214715.6,201947.6,223817.5,685456.1,184719.6,180282.9,200703.8,0.0
207374.7,214498.8,201721.7,223671.7,684905.8,184518.3,180183.6,200165.2,0.0
208620.1,215192.1,202565.9,224630.8,685831.1,185194.1,180842.5,201613.5,0.0
209300.0,215607.3,203034.1,225072.6,686755.9,185601.2,181155.0,202588.1,0.0
208889.2,215385.7,202745.0,224674.5,686586.3,185375.4,180878.9,202159.4,0.0
207696.5,214703.4,201924.9,223793.0,685445.8,184713.1,180270.8,200694.0,0.0
207361.2,214482.6,201697.5,223645.7,684892.3,184508.8,180170.4,200150.6,0.0
208614.9,215189.0,202550.7,224613.9,685825.7,185191.5,180837.1,201603.5,0.0
209292.1,215599.0,203017.9,225060.3,686748.1,185597.0,181150.2,202577.7,0.0
208885.4,215384.5,202727.1,224663.9,686586.5,185376.8,180879.8,202155.9,0.0
207680.0,214687.9,201892.7,223766.8,685445.9,184700.9,180257.3,200678.8,0.0
207365.1,214486.0,201678.5,223630.0,684906.9,184508.8,180167.3,200142.5,0.0
208627.7,215198.7,202545.4,224609.9,685846.1,185207.3,180849.0,201610.3,0.0
209286.7,215594.0,202997.4,225038.4,686754.8,185596.3,181150.3,202570.2,0.0
208864.3,215354.1,202692.2,224630.4,686570.9,185352.2,180861.8,202128.8,0.0
207695.1,214687.0,201891.6,223770.1,685457.3,184706.7,180269.3,200685.5,0.0
207364.5,214473.8,201668.4,223625.3,684902.3,184505.9,180169.5,200140.8,0.0
208598.2,215158.2,202506.3,224578.4,685820.8,185171.6,180825.1,201582.9,0.0
209283.1,215578.4,202979.6,225028.8,686746.3,185581.0,181147.7,202569.9,0.0
208899.1,215384.0,202710.7,224656.3,686604.8,185377.2,180894.1,202169.0,0.0
207721.1,214711.6,201900.0,223783.2,685486.2,184724.6,180294.2,200716.3,0.0
207358.2,214471.3,201644.3,223605.9,684936.3,184496.9,180164.9,200138.5,0.0
208591.9,215156.4,202481.9,224558.9,685823.2,185166.5,180820.3,201576.7,0.0
209275.2,215566.9,202952.6,225007.6,686747.1,185572.5,181136.1,202560.3,0.0
208895.8,215374.2,202688.6,224639.2,686614.1,185374.3,180889.0,202169.0,0.0
207705.5,214690.1,201864.5,223751.9,685477.4,184706.1,180277.2,200705.2,0.0
207343.1,214448.8,201614.6,223579.4,684904.5,184479.5,180155.3,200129.4,0.0
208582.2,215136.8,202464.3,224543.8,685838.3,185156.5,180818.3,201571.9,0.0
209277.0,215563.0,202945.1,225000.8,686757.6,185569.6,181141.9,202561.3,0.0
208880.7,215352.5,202663.9,224614.9,686607.0,185351.4,180876.4,202153.0,0.0
207714.6,214689.9,201867.7,223755.3,685494.9,184708.1,180292.2,200716.1,0.0
207360.8,214460.3,201624.7,223587.0,684923.0,184487.3,180175.8,200141.5,0.0
208594.4,215144.6,202460.4,224536.6,685843.2,185150.6,180823.9,201568.8,0.0
209273.4,215552.5,202927.8,224983.8,686753.6,185552.9,181132.4,202548.8,0.0
208887.2,215352.0,202658.1,224607.7,686607.3,185346.0,180872.5,202147.4,0.0
207722.9,214691.2,201862.2,223744.5,685493.2,184703.6,180281.1,200706.4,0.0
207365.2,214461.4,201619.3,223574.0,684919.4,184488.1,180166.2,200131.6,0.0
208595.1,215143.1,202460.0,224532.9,685829.0,185156.3,180822.7,201566.9,0.0
209285.9,215561.1,202931.9,224986.2,686757.3,185562.0,181142.4,202553.9,0.0
208896.8,215354.7,202653.0,224602.5,686611.1,185349.1,180880.3,202150.9,0.0
207717.9,214679.0,201840.6,223726.1,685486.8,184692.6,180276.9,200699.2,0.0
207366.5,214456.5,201604.8,223562.8,684911.9,184481.7,180170.3,200129.0,0.0
208594.4,215139.0,202443.0,224512.8,685813.8,185145.1,180821.7,201556.5,0.0
209281.9,215553.0,202917.0,224967.3,686745.3,185553.5,181137.0,202548.8,0.0
208905.6,215359.3,202654.6,224602.0,686613.4,185355.2,180884.1,202162.3,0.0
207735.5,214694.2,201850.8,223735.3,685492.8,184705.3,180285.2,200716.5,0.0
207360.4,214445.0,201588.1,223548.2,684901.6,184473.3,180153.6,200119.9,0.0
208593.6,215130.7,202428.7,224504.2,685820.3,185143.1,180811.6,201554.3,0.0
209298.7,215561.6,202920.0,224976.3,686756.4,185568.0,181146.1,202564.6,0.0
208902.8,215346.2,202637.7,224587.8,686604.3,185350.2,180877.8,202156.4,0.0
207734.9,214679.0,201839.0,223723.5,685486.1,184706.1,180287.2,200716.9,0.0
207372.6,214448.8,201592.0,223552.7,684920.8,184484.7,180167.9,200131.6,0.0
208601.6,215128.5,202426.0,224504.3,685827.4,185148.1,180821.0,201554.8,0.0
209306.8,215558.1,202914.7,224972.2,686760.6,185571.4,181154.5,202563.0,0.0
208923.3,215354.2,202647.0,224596.9,686622.9,185364.4,180896.8,202172.5,0.0
207739.7,214678.2,201833.8,223716.9,685489.9,184704.8,180288.2,200717.3,0.0
207368.6,214444.3,201581.3,223540.0,684906.7,184482.5,180170.6,200127.3,0.0
208583.7,215116.4,202405.8,224481.2,685797.0,185136.4,180814.5,201541.8,0.0
209278.2,215536.2,202883.0,224940.3,686733.1,185550.7,181133.5,202540.3,0.0
208912.2,215349.3,202625.4,224577.4,686617.8,185356.7,180888.1,202164.8,0.0
207737.0,214677.3,201816.8,223702.3,685498.4,184703.9,180290.2,200716.8,0.0
207358.1,214435.1,201557.3,223515.8,684907.2,184476.1,180163.9,200117.8,0.0
208588.3,215122.0,202396.2,224470.4,685820.3,185145.1,180818.6,201544.7,0.0
209301.6,215557.8,202888.4,224944.5,686758.6,185573.8,181153.2,202557.9,0.0
208923.6,215359.9,202621.1,224571.9,686626.8,185369.8,180897.1,202170.7,0.0
207746.7,214687.3,201813.7,223696.5,685512.5,184714.4,180295.1,200721.7,0.0
207348.5,214427.1,201540.9,223497.9,684921.5,184470.7,180157.0,200106.1,0.0
208580.5,215116.9,202384.1,224462.7,685827.1,185148.9,180823.8,201540.3,0.0
209282.8,215540.9,202868.1,224928.8,686757.5,185568.3,181151.0,202548.7,0.0
208907.3,215343.3,202604.2,224556.9,686629.9,185362.8,180896.7,202165.1,0.0
207740.7,214678.6,201803.3,223686.3,685519.8,184711.5,180301.4,200725.6,0.0
207356.7,214434.3,201538.5,223497.0,684921.6,184478.2,180175.0,200120.6,0.0
208585.9,215119.9,202375.0,224452.8,685830.9,185146.2,180834.2,201546.4,0.0
209300.1,215550.3,202867.2,224927.2,686771.4,185571.3,181169.6,202564.8,0.0
208909.5,215333.0,202583.6,224538.1,686627.6,185349.9,180897.1,202166.1,0.0
207745.4,214666.7,201782.1,223669.6,685512.5,184704.1,180298.1,200725.1,0.0
207362.7,214426.4,201520.0,223482.0,684918.6,184475.3,180170.3,200114.2,0.0
208577.1,215101.8,202346.0,224430.4,685807.2,185133.0,180818.7,201526.6,0.0
209272.3,215518.7,202826.3,224891.5,686741.6,185546.0,181140.2,202532.8,0.0
208906.7,215330.6,202568.5,224526.1,686624.5,185347.0,180895.9,202161.1,0.0
207735.7,214664.4,201759.9,223652.1,685505.9,184693.9,180296.4,200717.7,0.0
207354.0,214427.8,201503.3,223472.4,684913.9,184472.1,180177.6,200114.1,0.0
208565.3,215097.2,202326.6,224410.8,685795.9,185126.2,180822.9,201520.5,0.0
209293.3,215541.0,202831.7,224894.1,686757.0,185564.0,181165.9,202551.3,0.0
208932.3,215352.6,202575.5,224533.8,686646.5,185368.8,180918.5,202182.3,0.0
207757.1,214678.8,201764.7,223657.0,685522.3,184711.3,180316.3,200736.8,0.0
207339.3,214407.4,201478.5,223442.7,684893.3,184456.4,180167.7,200097.9,0.0
208554.0,215083.7,202303.7,224385.1,685777.1,185112.6,180813.4,201502.7,0.0
209271.3,215518.1,202802.0,224866.3,686726.8,185538.3,181148.7,202525.5,0.0
208905.4,215322.0,202545.9,224505.7,686610.8,185339.0,180894.8,202156.0,0.0
207733.2,214646.3,201736.7,223630.8,685497.4,184681.0,180289.0,200711.7,0.0
207342.3,214405.2,201473.8,223440.9,684892.5,184450.8,180167.8,200093.1,0.0
208565.3,215090.7,202313.3,224394.6,685791.1,185120.9,180832.1,201511.2,0.0
209282.3,215525.5,202806.9,224869.8,686737.9,185548.5,181167.3,202537.5,0.0
208908.2,215325.0,202538.6,224495.8,686612.6,185341.8,180906.2,202158.8,0.0
207740.0,214654.6,201737.4,223626.6,685498.4,184692.7,180307.1,200722.2,0.0
207343.2,214405.5,201471.4,223434.7,684895.3,184460.7,180176.9,200097.4,0.0
208566.1,215089.8,202304.6,224386.8,685794.6,185124.9,180829.6,201509.3,0.0
209278.6,215519.5,202790.9,224856.0,686723.5,185542.2,181156.3,202529.6,0.0
208914.0,215323.6,202529.4,224490.1,686608.0,185341.7,180902.2,202160.6,0.0
207750.4,214658.5,201729.8,223625.4,685500.6,184696.6,180307.1,200728.1,0.0
207344.5,214404.1,201456.7,223424.7,684901.6,184460.3,180173.8,200097.0,0.0
208561.1,215083.3,202285.6,224373.2,685785.4,185121.5,180827.7,201503.0,0.0
209279.0,215515.8,202777.4,224849.3,686729.6,185543.8,181159.1,202530.8,0.0
208912.2,215320.1,202515.8,224481.4,686617.6,185341.8,180903.9,202162.4,0.0
207745.3,214651.4,201713.7,223608.2,685508.3,184690.8,180307.7,200725.3,0.0
207331.8,214390.1,201432.2,223397.2,684896.2,184442.0,180165.4,200083.6,0.0
208558.6,215077.2,202271.9,224355.0,685785.2,185111.3,180826.3,201497.6,0.0
209288.6,215518.4,202776.2,224841.3,686736.0,185545.1,181169.3,202533.6,0.0
208938.8,215339.1,202531.0,224491.5,686642.4,185361.6,180933.6,202183.9,0.0
207757.2,214657.6,201709.7,223604.5,685517.4,184692.3,180316.7,200730.1,0.0
207324.2,214380.1,201409.3,223378.9,684885.3,184428.7,180156.5,200067.4,0.0
208552.3,215073.3,202250.7,224340.6,685777.8,185101.6,180821.4,201485.7,0.0
209286.9,215521.3,202761.9,224835.2,686741.0,185545.1,181171.5,202534.9,0.0
208919.3,215321.4,202502.2,224469.7,686634.1,185345.9,180917.1,202169.8,0.0
207746.3,214647.8,201691.7,223591.3,685522.3,184688.2,180309.4,200727.7,0.0
207324.6,214380.2,201402.5,223374.2,684900.5,184436.9,180165.6,200075.5,0.0
208547.2,215063.3,202238.7,224330.1,685795.4,185102.0,180826.8,201480.5,0.0
209275.2,215496.6,202741.4,224815.5,686738.9,185531.4,181167.1,202517.4,0.0
208934.8,215322.7,202502.0,224469.2,686649.1,185350.8,180933.6,202175.5,0.0
207768.1,214655.1,201700.5,223598.2,685534.4,184702.0,180335.2,200744.4,0.0
207340.7,214388.5,201411.5,223376.2,684904.4,184448.7,180187.5,200088.4,0.0
208556.2,215070.1,202244.3,224323.3,685788.0,185106.3,180836.3,201489.5,0.0
209285.3,215508.2,202746.6,224810.8,686739.9,185537.8,181171.4,202527.0,0.0
208929.7,215317.8,202492.2,224453.2,686638.4,185344.9,180923.1,202171.5,0.0
207764.6,214650.4,201688.5,223582.1,685530.6,184695.4,180322.7,200738.0,0.0
207340.3,214387.1,201399.7,223362.0,684900.7,184444.3,180177.2,200080.8,0.0
208543.2,215052.0,202221.0,224301.9,685774.7,185096.1,180823.8,201471.3,0.0
209282.9,215498.4,202732.1,224799.2,686730.9,185536.6,181170.5,202520.9,0.0
208932.8,215312.0,202486.9,224450.4,686641.0,185346.6,180925.8,202173.8,0.0
207760.2,214635.4,201674.8,223573.4,685528.4,184685.9,180315.9,200732.4,0.0
207330.2,214370.0,201381.5,223348.3,684894.9,184430.3,180166.5,200070.4,0.0
208536.5,215044.2,202204.9,224288.8,685771.8,185085.1,180817.0,201461.9,0.0
209291.3,215504.2,202732.0,224802.8,686740.8,185541.7,181183.7,202528.5,0.0
208942.4,215321.6,202483.9,224451.5,686647.4,185353.3,180940.0,202183.6,0.0
207762.3,214637.4,201664.4,223563.3,685521.0,184689.0,180322.6,200734.4,0.0
207322.3,214360.5,201362.9,223331.0,684887.1,184429.1,180164.0,200060.1,0.0
208535.5,215038.8,202195.4,224282.2,685779.6,185090.6,180816.0,201455.0,0.0
209295.7,215507.7,202726.6,224796.7,686746.6,185548.5,181178.5,202522.5,0.0
208938.1,215313.9,202469.8,224434.8,686647.1,185352.2,180926.0,202172.1,0.0
207770.9,214647.1,201665.3,223566.0,685536.8,184705.3,180328.2,200744.1,0.0
207332.6,214378.9,201368.9,223342.1,684909.8,184452.7,180180.5,200076.7,0.0
208522.8,215035.0,202175.7,224270.2,685778.3,185091.8,180814.1,201448.0,0.0
209269.3,215485.8,202691.8,224773.5,686731.8,185535.9,181165.6,202504.6,0.0
208932.0,215309.3,202452.6,224430.0,686648.2,185351.4,180929.2,202170.3,0.0
207779.5,214654.0,201659.9,223570.2,685553.3,184711.8,180341.4,200755.6,0.0
207315.0,214358.7,201337.3,223317.5,684903.9,184429.9,180166.6,200058.6,0.0
208518.0,215030.4,202160.7,224259.4,685775.0,185084.4,180816.6,201444.2,0.0
209267.2,215483.3,202679.5,224764.4,686740.5,185527.8,181168.3,202504.8,0.0
208930.2,215306.0,202439.3,224421.9,686660.1,185345.9,180931.0,202171.6,0.0
207774.0,214643.5,201644.7,223556.3,685559.3,184706.0,180337.0,200752.1,0.0
207313.4,214356.8,201328.7,223310.5,684901.1,184430.9,180166.4,200059.6,0.0
208517.0,215032.0,202154.5,224259.4,685769.4,185088.8,180816.1,201447.5,0.0
209262.0,215479.4,202669.0,224761.1,686737.2,185529.6,181165.7,202504.8,0.0
208903.9,215282.5,202408.8,224398.2,686638.8,185325.3,180910.4,202154.6,0.0
207752.9,214626.3,201618.4,223536.9,685546.6,184688.3,180321.0,200740.2,0.0
207304.3,214348.6,201316.5,223302.7,684904.1,184431.1,180167.4,200059.2,0.0
208492.5,215007.6,202128.6,224236.6,685770.7,185075.6,180806.5,201433.6,0.0
209252.2,215472.0,202656.1,224752.1,686741.4,185528.3,181170.3,202507.1,0.0
208921.7,215301.1,202422.2,224411.6,686666.4,185350.7,180937.2,202181.0,0.0
207764.6,214637.0,201625.1,223543.4,685565.9,184706.9,180339.0,200757.8,0.0
207297.1,214343.8,201306.7,223290.6,684905.3,184430.2,180164.4,200052.7,0.0
208485.8,215000.0,202117.9,224221.2,685765.1,185071.4,180799.6,201418.7,0.0
209244.7,215456.3,202643.6,224730.1,686724.2,185521.2,181154.0,202486.2,0.0
208930.4,215302.9,202423.1,224403.2,686665.6,185354.9,180933.8,202174.2,0.0
207770.0,214637.0,201614.0,223525.9,685560.6,184699.3,180325.5,200743.6,0.0
207297.2,214338.0,201291.0,223275.3,684897.6,184420.7,180152.0,200038.2,0.0
208489.1,215000.9,202104.8,224209.9,685761.9,185065.4,180794.9,201411.5,0.0
209252.0,215461.5,202635.8,224725.2,686730.6,185519.8,181156.3,202488.0,0.0
208933.4,215298.8,202415.7,224399.6,686668.7,185354.2,180936.8,202177.4,0.0
207788.9,214648.1,201628.8,223543.5,685575.3,184722.3,180353.8,200766.0,0.0
207292.7,214331.2,201282.7,223263.9,684902.4,184422.8,180159.4,200033.6,0.0
208483.0,214992.0,202093.0,224195.0,685758.4,185065.7,180800.7,201401.7,0.0
209247.2,215453.4,202623.0,224715.0,686728.6,185522.5,181166.2,202482.6,0.0
208927.2,215290.7,202399.3,224386.6,686672.3,185356.7,180941.5,202172.3,0.0
207780.0,214639.1,201610.8,223526.2,685587.9,184722.3,180351.9,200760.0,0.0
207295.5,214338.0,201274.6,223259.8,684906.8,184436.1,180170.6,200039.4,0.0
208471.3,214987.0,202072.5,224178.2,685737.8,185067.0,180797.9,201391.6,0.0
209249.3,215459.7,202610.8,224706.8,686734.6,185531.4,181169.9,202481.3,0.0
208916.9,215285.6,202371.7,224365.3,686664.3,185345.5,180928.8,202158.2,0.0
207765.1,214626.0,201580.6,223501.7,685561.9,184700.3,180335.5,200742.9,0.0
207289.7,214331.5,201259.8,223246.2,684895.6,184420.5,180165.1,200030.9,0.0
208476.4,214991.7,202072.1,224176.7,685742.7,185062.4,180808.4,201394.5,0.0
209250.0,215459.2,202608.7,224701.3,686728.9,185525.5,181181.5,202486.0,0.0
208929.4,215291.9,202381.6,224368.2,686668.0,185352.4,180951.7,202175.2,0.0
207775.9,214630.6,201588.6,223503.9,685576.1,184710.6,180355.0,200760.3,0.0
207307.6,214346.9,201271.8,223255.6,684910.3,184442.9,180191.2,200055.6,0.0
208476.4,214991.3,202063.3,224165.8,685729.9,185065.6,180811.1,201399.7,0.0
209238.8,215446.5,202588.4,224678.5,686711.1,185515.7,181168.4,202477.2,0.0
208919.3,215280.6,202361.4,224348.5,686657.1,185343.1,180940.8,202173.0,0.0
207773.9,214625.8,201571.0,223488.7,685563.7,184704.2,180350.2,200764.5,0.0
207290.6,214328.9,201242.5,223224.7,684890.0,184421.4,180173.0,200038.8,0.0
208483.6,214996.0,202058.6,224160.8,685738.9,185066.7,180817.5,201402.0,0.0
209250.3,215453.1,202585.0,224675.6,686715.4,185514.9,181173.0,202481.4,0.0
208934.2,215286.6,202362.0,224345.3,686659.6,185342.4,180941.5,202175.0,0.0
207786.8,214629.0,201574.8,223488.4,685569.4,184705.3,180351.0,200768.8,0.0
207301.0,214326.7,201243.0,223224.3,684890.4,184421.8,180173.2,200040.3,0.0
208489.3,214989.2,202053.3,224154.4,685733.5,185065.6,180814.7,201397.6,0.0
209262.8,215452.9,202582.6,224674.0,686715.2,185519.8,181177.3,202482.9,0.0
208945.8,215288.8,202357.3,224344.8,686664.8,185347.8,180950.3,202179.0,0.0
207784.3,214623.7,201555.6,223470.8,685572.8,184700.4,180347.7,200759.4,0.0
207285.1,214314.4,201215.6,223196.3,684888.1,184411.1,180163.1,200024.3,0.0
208476.4,214977.5,202033.8,224138.1,685745.1,185059.0,180809.5,201388.6,0.0
209249.0,215435.9,202569.1,224664.4,686719.1,185513.6,181175.7,202475.9,0.0
208932.9,215273.9,202345.7,224335.6,686665.4,185341.0,180948.6,202172.6,0.0
207777.5,214614.4,201547.4,223465.1,685574.9,184691.7,180343.6,200754.7,0.0
207271.0,214301.5,201202.3,223186.2,684884.7,184394.7,180152.5,200009.1,0.0
208459.4,214966.0,202020.3,224126.1,685722.3,185046.0,180801.3,201370.5,0.0
209253.8,215448.1,202567.3,224663.7,686719.8,185517.3,181179.1,202477.4,0.0
208930.7,215278.7,202333.9,224329.5,686666.8,185340.9,180946.3,202171.5,0.0
207785.6,214628.3,201547.6,223472.7,685584.4,184709.5,180360.8,200770.6,0.0
207279.0,214313.5,201202.4,223192.6,684890.8,184415.0,180170.4,200023.6,0.0
208451.1,214956.3,201997.5,224111.0,685711.5,185043.1,180797.3,201363.1,0.0
209241.7,215435.4,202541.6,224645.7,686705.7,185506.3,181172.6,202465.3,0.0
208933.7,215278.4,202325.0,224326.5,686666.8,185342.5,180955.0,202177.0,0.0
207770.0,214604.5,201519.5,223448.1,685564.3,184689.9,180345.5,200752.4,0.0
207267.8,214296.4,201177.7,223170.6,684884.6,184400.7,180160.3,200007.2,0.0
208460.4,214965.5,201994.2,224109.3,685727.3,185051.3,180809.3,201365.9,0.0
209242.1,215431.8,202532.7,224639.9,686712.7,185512.3,181177.7,202466.1,0.0
208950.5,215290.8,202329.6,224332.7,686690.4,185362.6,180967.4,202190.7,0.0
207792.2,214623.2,201530.8,223462.1,685594.8,184715.6,180362.0,200771.2,0.0
207276.9,214304.4,201178.1,223173.4,684897.2,184414.6,180165.7,200010.4,0.0
208433.0,214935.2,201961.3,224078.3,685718.1,185030.3,180781.6,201331.5,0.0
209231.0,215417.3,202510.1,224620.0,686707.3,185498.2,181160.5,202443.2,0.0
208932.8,215268.9,202302.1,224306.3,686679.9,185340.9,180950.0,202166.9,0.0
207791.8,214617.7,201518.7,223449.1,685601.9,184707.5,180362.1,200769.5,0.0
207270.6,214294.5,201162.0,223156.7,684892.6,184403.5,180162.3,200003.1,0.0
208437.9,214939.7,201955.3,224074.1,685709.2,185033.2,180790.5,201335.6,0.0
209230.3,215415.2,202504.8,224615.0,686713.5,185505.9,181169.9,202448.9,0.0
208927.8,215260.4,202291.1,224297.9,686684.3,185344.4,180953.3,202171.4,0.0
207776.8,214602.2,201495.0,223428.9,685595.2,184698.0,180353.2,200763.0,0.0
207249.1,214276.6,201132.6,223129.7,684886.3,184388.4,180150.3,199993.7,0.0
208421.0,214925.7,201930.0,224049.1,685719.4,185021.0,180779.9,201330.2,0.0
209223.9,215408.5,202484.7,224598.7,686715.8,185496.2,181161.9,202451.2,0.0
208941.4,215267.1,202287.2,224297.5,686699.9,185349.0,180959.8,202184.9,0.0
207793.8,214608.0,201495.5,223432.2,685616.4,184706.8,180364.1,200777.9,0.0
207268.0,214283.7,201135.3,223136.0,684911.7,184401.2,180164.3,200006.7,0.0
208422.5,214915.9,201919.0,224039.2,685726.8,185018.2,180781.5,201324.0,0.0
209236.8,215408.1,202485.9,224596.1,686727.8,185498.6,181172.8,202453.5,0.0
208949.1,215262.8,202283.6,224290.3,686706.9,185346.3,180962.4,202185.4,0.0
207803.1,214608.3,201493.6,223428.8,685618.0,184709.2,180368.4,200783.1,0.0
207251.5,214264.5,201112.9,223112.1,684893.9,184386.2,180150.7,199991.9,0.0
208423.3,214917.6,201912.3,224030.3,685717.9,185021.7,180783.0,201323.9,0.0
209234.5,215407.3,202474.0,224584.6,686726.6,185504.6,181170.5,202453.3,0.0
208939.4,215255.7,202266.6,224273.8,686704.9,185347.3,180958.8,202182.5,0.0
207790.5,214597.6,201475.0,223408.2,685616.6,184703.5,180362.1,200777.0,0.0
207248.6,214260.3,201102.0,223098.9,684897.3,184383.4,180148.5,199986.8,0.0
208421.4,214915.4,201902.7,224022.1,685723.3,185020.5,180784.1,201318.5,0.0
209230.0,215402.9,202463.3,224574.3,686731.3,185500.4,181171.6,202446.3,0.0
208925.7,215241.0,202244.5,224254.0,686698.3,185330.9,180947.1,202167.6,0.0
207783.9,214588.2,201455.2,223393.8,685616.4,184692.6,180354.7,200772.0,0.0
207256.2,214269.5,201099.9,223100.7,684911.5,184393.7,180159.8,199999.0,0.0
208416.6,214910.6,201891.3,224013.6,685721.5,185021.6,180786.4,201318.2,0.0
209224.5,215393.4,202447.3,224563.3,686725.6,185497.0,181169.6,202444.6,0.0
208931.9,215243.3,202238.7,224249.3,686704.8,185339.0,180954.0,202175.2,0.0
207796.8,214596.6,201458.3,223392.5,685630.3,184710.4,180367.2,200784.2,0.0
207248.3,214257.0,201080.9,223076.4,684899.1,184386.1,180149.8,199982.8,0.0
208418.2,214908.4,201879.5,223994.5,685717.1,185018.2,180783.9,201309.2,0.0
209224.5,215389.1,202434.0,224542.2,686719.8,185490.6,181163.5,202437.0,0.0
208935.4,215241.3,202228.2,224238.3,686707.1,185338.3,180952.7,202177.6,0.0
207805.4,214596.3,201448.5,223387.4,685634.7,184709.8,180366.9,200792.2,0.0
207247.1,214246.0,201064.0,223065.7,684897.3,184383.8,180148.7,199988.8,0.0
208402.1,214882.2,201849.0,223975.5,685698.4,185005.2,180772.1,201298.8,0.0
209211.8,215365.6,202408.2,224528.5,686700.5,185480.7,181154.7,202424.7,0.0
208931.0,215226.0,202211.2,224227.3,686689.5,185332.7,180948.6,202168.8,0.0
207809.4,214588.5,201441.1,223382.4,685625.9,184708.9,180368.1,200791.2,0.0
207250.2,214244.0,201058.6,223061.8,684890.0,184382.1,180146.8,199984.7,0.0
208398.8,214879.4,201841.5,223967.0,685683.9,184998.9,180767.4,201291.0,0.0
209207.0,215362.1,202399.3,224516.0,686681.9,185466.7,181149.0,202415.8,0.0
208933.1,215226.1,202208.1,224221.2,686678.8,185323.8,180948.6,202167.6,0.0
207806.4,214588.6,201437.2,223374.5,685617.3,184702.2,180370.6,200793.4,0.0
207241.2,214240.7,201050.2,223048.1,684884.2,184371.1,180145.6,199982.4,0.0
208389.6,214870.9,201828.9,223951.4,685689.7,184985.5,180761.9,201281.5,0.0
209218.0,215370.0,202403.5,224520.0,686700.2,185478.9,181163.8,202431.1,0.0
208934.9,215225.8,202204.4,224216.9,686689.9,185327.7,180955.3,202178.3,0.0
207785.1,214562.2,201410.8,223345.2,685603.9,184679.8,180349.9,200776.0,0.0
207221.8,214219.7,201027.5,223021.3,684877.3,184355.1,180129.9,199963.7,0.0
208379.3,214864.5,201817.3,223937.8,685680.2,184984.0,180760.4,201275.9,0.0
209205.0,215360.5,202386.2,224503.4,686690.4,185471.8,181154.6,202421.1,0.0
208931.2,215220.6,202190.5,224206.9,686688.9,185324.6,180947.6,202174.0,0.0
207797.1,214569.4,201408.1,223348.2,685617.7,184691.0,180354.7,200784.9,0.0
207247.3,214239.8,201039.6,223037.8,684896.8,184380.5,180149.2,199982.0,0.0
208367.0,214846.8,201792.5,223914.8,685671.6,184970.2,180744.4,201253.2,0.0
209195.5,215343.1,202365.0,224481.3,686679.6,185461.2,181144.5,202405.3,0.0
208949.3,215230.5,202198.7,224212.0,686709.4,185345.8,180968.2,202189.4,0.0
207813.8,214580.0,201412.6,223353.1,685635.3,184707.5,180372.6,200797.8,0.0
207222.4,214213.6,201004.4,223003.5,684874.6,184357.5,180127.5,199954.3,0.0
208369.8,214851.1,201790.8,223912.0,685680.8,184979.6,180754.2,201255.1,0.0
209215.1,215363.4,202376.8,224496.0,686704.4,185484.4,181162.8,202420.6,0.0
208939.0,215218.3,202177.9,224195.6,686701.1,185333.9,180950.5,202172.3,0.0
207800.4,214565.4,201392.4,223334.3,685631.1,184696.6,180354.3,200783.6,0.0
207221.5,214212.4,200998.8,222997.9,684887.4,184364.4,180125.7,199957.5,0.0
208359.8,214840.9,201775.2,223898.5,685679.7,184978.0,180742.3,201246.2,0.0
209191.6,215338.2,202348.8,224470.4,686683.3,185461.6,181140.2,202396.2,0.0
208933.3,215210.5,202163.6,224184.3,686699.3,185325.6,180944.0,202165.5,0.0
207815.0,214577.5,201393.6,223338.2,685650.5,184706.6,180364.6,200796.3,0.0
207229.1,214218.6,200996.1,222997.5,684900.3,184370.3,180137.7,199962.2,0.0
208362.3,214842.6,201768.8,223890.8,685687.9,184981.9,180754.8,201244.8,0.0
209197.3,215341.9,202344.5,224462.5,686695.6,185471.9,181155.5,202397.3,0.0
208936.8,215210.3,202157.7,224176.0,686707.1,185334.5,180959.2,202169.8,0.0
207805.2,214556.6,201375.1,223316.2,685642.3,184698.6,180364.7,200788.0,0.0
207210.6,214191.1,200965.8,222964.8,684876.4,184347.2,180122.3,199939.9,0.0
208366.4,214837.9,201761.5,223883.5,685683.9,184980.7,180758.7,201247.3,0.0
209211.3,215346.2,202348.4,224464.5,686703.2,185479.9,181164.8,202412.4,0.0
208933.4,215197.5,202141.9,224158.5,686691.3,185316.2,180942.6,202159.6,0.0
207815.3,214559.0,201369.8,223309.2,685641.3,184692.6,180359.5,200789.6,0.0
207229.6,214202.2,200972.8,222967.7,684890.3,184357.9,180129.6,199950.9,0.0
208364.8,214828.3,201750.1,223869.9,685679.9,184972.5,180748.4,201235.0,0.0
209208.2,215333.0,202331.4,224452.5,686698.1,185466.6,181153.0,202399.3,0.0
208950.7,215203.9,202147.0,224164.0,686711.3,185324.0,180952.7,202170.6,0.0
207826.8,214560.0,201372.1,223312.3,685653.8,184696.6,180364.5,200795.5,0.0
207221.8,214187.0,200958.6,222955.6,684885.9,184348.6,180122.7,199940.3,0.0
208351.7,214812.2,201727.3,223849.0,685667.3,184955.6,180735.4,201214.4,0.0
209200.5,215323.6,202318.1,224437.7,686692.0,185457.3,181149.5,202386.5,0.0
208943.2,215194.8,202135.6,224154.8,686710.4,185320.5,180956.4,202165.8,0.0
207828.9,214559.2,201365.8,223308.4,685653.9,184698.8,180373.8,200799.0,0.0
207236.0,214201.7,200961.1,222960.0,684895.8,184361.1,180142.0,199954.1,0.0
208362.3,214824.7,201726.2,223849.1,685665.2,184967.9,180753.1,201225.8,0.0
209209.6,215331.9,202313.2,224434.1,686694.5,185467.4,181164.7,202397.7,0.0
208955.4,215203.1,202134.5,224153.4,686718.3,185335.0,180973.9,202179.9,0.0
207831.5,214557.7,201360.1,223301.2,685658.2,184709.4,180387.3,200810.6,0.0
207217.3,214179.9,200938.9,222931.8,684877.3,184350.5,180133.4,199940.8,0.0
208347.9,214807.7,201711.8,223826.3,685643.6,184958.4,180744.4,201210.4,0.0
209208.2,215324.4,202308.8,224424.6,686680.3,185465.0,181161.6,202390.0,0.0
208954.9,215197.2,202128.2,224145.6,686709.6,185330.5,180968.3,202174.2,0.0
207819.7,214543.1,201340.6,223280.6,685646.4,184691.3,180368.3,200791.5,0.0
207204.8,214169.7,200920.4,222918.0,684892.7,184337.8,180120.2,199924.6,0.0
208336.0,214802.2,201696.9,223816.3,685662.3,184955.6,180742.1,201203.0,0.0
209201.3,215325.1,202298.3,224415.6,686701.4,185466.8,181164.1,202388.4,0.0
208954.8,215197.5,202123.8,224139.2,686731.8,185334.8,180974.4,202178.6,0.0
207845.1,214564.1,201359.1,223298.0,685685.2,184717.7,180397.5,200822.4,0.0
207220.3,214181.9,200930.3,222922.5,684895.4,184354.4,180139.4,199941.2,0.0
208344.7,214804.8,201697.7,223811.9,685658.1,184960.2,180751.5,201204.4,0.0
209184.8,215297.7,202276.0,224387.7,686676.8,185444.7,181149.1,202370.6,0.0
208940.9,215178.1,202101.7,224113.7,686710.2,185315.5,180956.9,202163.5,0.0
207834.9,214549.6,201340.4,223277.4,685670.4,184704.1,180380.6,200809.1,0.0
207209.4,214168.4,200911.7,222904.1,684885.0,184343.2,180124.8,199926.2,0.0
208333.8,214792.5,201679.9,223795.3,685661.2,184952.4,180737.9,201189.5,0.0
209202.4,215313.2,202279.4,224396.3,686693.4,185466.2,181162.2,202381.0,0.0
208949.0,215183.5,202098.0,224118.7,686721.8,185331.6,180970.6,202173.6,0.0
207833.6,214545.8,201329.6,223274.3,685673.4,184710.4,180389.1,200813.1,0.0
207220.4,214176.0,200911.7,222910.0,684898.5,184364.1,180146.9,199940.4,0.0
208337.3,214793.5,201669.7,223793.2,685649.0,184966.3,180750.9,201194.6,0.0
209181.1,215290.2,202246.5,224371.2,686667.4,185451.5,181144.2,202360.9,0.0
208945.3,215176.3,202083.1,224109.2,686713.2,185332.4,180961.3,202167.0,0.0
207829.5,214537.2,201314.9,223261.4,685664.5,184708.8,180375.3,200805.0,0.0
207209.4,214166.0,200892.8,222891.2,684887.3,184352.6,180125.0,199924.4,0.0
208323.3,214780.0,201650.8,223776.1,685651.1,184948.3,180730.9,201176.4,0.0
209197.5,215304.7,202253.8,224381.9,686682.6,185459.0,181153.1,202369.4,0.0
208955.7,215184.2,202080.9,224110.8,686722.6,185330.7,180962.1,202169.5,0.0
207844.7,214551.1,201315.3,223270.2,685683.4,184712.5,180380.5,200814.5,0.0
207206.8,214162.6,200879.3,222891.9,684894.1,184348.7,180121.2,199921.6,0.0
208325.1,214781.3,201643.2,223780.6,685657.9,184952.5,180735.9,201175.2,0.0
209191.4,215295.5,202243.7,224379.2,686681.4,185458.1,181156.6,202368.4,0.0
208958.3,215178.6,202080.5,224115.1,686726.0,185335.0,180977.0,202179.7,0.0
207842.9,214537.6,201305.8,223263.9,685678.8,184709.0,180385.5,200817.6,0.0
207205.2,214155.1,200871.4,222881.9,684888.4,184347.3,180128.1,199924.6,0.0
208318.2,214774.6,201632.5,223769.3,685651.7,184950.8,180737.9,201178.0,0.0
209180.8,215287.4,202226.8,224368.4,686677.9,185453.6,181152.2,202370.6,0.0
208954.2,215178.5,202068.1,224111.8,686732.8,185337.0,180974.3,202188.2,0.0
207853.1,214549.8,201308.8,223274.5,685698.3,184722.5,180393.5,200835.3,0.0
207229.8,214177.4,200887.0,222906.6,684919.0,184371.2,180147.6,199948.4,0.0
208318.7,214772.0,201621.2,223766.4,685653.1,184948.1,180730.0,201168.8,0.0
209167.5,215268.4,202200.6,224347.4,686666.0,185440.1,181128.6,202346.8,0.0
208932.9,215151.3,202031.3,224077.2,686715.7,185318.6,180944.9,202156.1,0.0
207838.1,214531.3,201278.2,223244.6,685684.3,184713.3,180374.5,200814.7,0.0
207200.1,214150.1,200847.1,222865.6,684893.4,184353.9,180117.2,199917.7,0.0
208307.3,214766.3,201607.9,223752.4,685642.4,184953.8,180726.9,201160.7,0.0
209187.0,215297.2,202216.9,224363.3,686692.3,185473.1,181153.4,202368.9,0.0
208954.8,215183.9,202052.5,224097.5,686747.8,185353.1,180971.4,202182.8,0.0
207842.9,214546.1,201285.8,223251.2,685702.4,184730.5,180387.2,200828.9,0.0
207183.3,214146.8,200833.8,222848.5,684889.9,184350.4,180113.6,199909.8,0.0
208284.1,214754.6,201584.2,223724.7,685628.1,184944.5,180717.8,201143.5,0.0
