EEG 1,EEG 2,EEG 3,EEG 4,EEG 5,EEG 6,EEG 7,EEG 8,TRIG
222916.5,253859.4,718657.7,619900.6,718683.2,256679.0,719143.4,719457.0,0.0
223012.8,253911.5,718645.2,618725.0,718670.9,256724.9,719131.3,719445.6,0.0
220647.8,252640.3,718635.2,615294.8,718659.9,255585.8,719117.3,719428.8,0.0
218279.6,251383.5,718639.1,611555.2,718663.7,254471.3,719117.3,719425.1,0.0
219819.7,252101.0,718657.9,610911.0,718682.2,255083.6,719137.4,719445.8,0.0
222928.4,253689.2,718664.5,611991.0,718688.3,256473.2,719148.1,719460.1,0.0
223020.4,253738.0,718649.6,610864.1,718672.9,256518.7,719133.3,719445.8,0.0
220646.2,252456.2,718640.6,607479.7,718663.7,255373.4,719120.6,719430.2,0.0
218291.2,251211.5,718646.4,603800.7,718668.9,254266.2,719122.1,719428.3,0.0
219840.2,251940.1,718664.9,603215.1,718686.5,254883.1,719141.6,719448.9,0.0
222929.7,253520.9,718668.1,604331.4,718689.4,256258.1,719149.0,719459.9,0.0
223020.3,253578.2,718656.3,603258.5,718677.3,256305.8,719137.4,719448.6,0.0
220651.0,252306.3,718646.7,599930.4,718667.3,255162.4,719123.8,719432.3,0.0
218284.1,251052.2,718648.5,596294.6,718668.4,254046.9,719121.2,719426.1,0.0
219826.6,251773.5,718669.3,595757.7,718688.6,254659.0,719143.3,719448.6,0.0
222927.5,253349.8,718673.1,596930.8,718692.2,256036.5,719151.6,719460.6,0.0
223025.4,253403.6,718660.8,595911.7,718680.1,256086.1,719139.9,719449.8,0.0
220651.8,252129.1,718651.2,592630.6,718669.9,254943.2,719126.1,719432.9,0.0
218281.3,250874.9,718654.3,589042.1,718672.2,253824.9,719124.9,719427.9,0.0
219822.3,251601.3,718673.5,588555.3,718690.6,254437.8,719145.1,719449.1,0.0
222911.2,253183.7,718677.8,589771.4,718694.3,255815.5,719153.8,719461.8,0.0
222994.3,253227.3,718661.9,588789.5,718678.4,255859.0,719137.8,719446.6,0.0
220624.7,251946.5,718652.9,585553.3,718669.1,254717.2,719124.8,719430.4,0.0
218283.0,250709.3,718661.8,582031.1,718677.2,253623.7,719129.1,719430.6,0.0
219841.0,251446.9,718682.6,581603.9,718697.9,254254.1,719151.8,719453.9,0.0
222927.8,253020.7,718685.3,582866.0,718700.4,255631.1,719158.6,719464.9,0.0
223005.5,253058.7,718672.0,581929.3,718687.2,255672.1,719145.6,719452.9,0.0
220632.6,251776.9,718660.6,578735.9,718675.1,254523.4,719130.4,719434.6,0.0
218270.3,250526.0,718663.0,575239.8,718676.8,253409.3,719128.6,719427.9,0.0
219820.9,251256.2,718684.6,574857.8,718698.3,254035.9,719151.6,719452.4,0.0
222916.5,252844.4,718689.4,576173.6,718703.1,255422.7,719160.2,719465.4,0.0
223008.3,252904.3,718678.3,575288.3,718691.3,255473.9,719149.2,719454.9,0.0
220632.4,251628.2,718668.9,572139.9,718681.4,254332.0,719136.1,719438.7,0.0
218274.5,250381.5,718671.5,568695.3,718683.3,253226.7,719134.1,719432.5,0.0
219831.8,251121.5,718691.3,568356.7,718703.1,253855.4,719155.9,719455.3,0.0
222916.1,252706.5,718695.7,569708.8,718707.3,255237.6,719164.8,719468.4,0.0
223002.6,252763.6,718684.9,568867.7,718695.8,255292.3,719153.6,719458.3,0.0
220620.2,251483.9,718675.3,565755.3,718685.6,254148.6,719139.9,719441.4,0.0
218259.1,250238.6,718678.6,562346.6,718688.6,253043.5,719139.3,719435.8,0.0
219820.1,250978.7,718695.2,562048.8,718705.0,253672.2,719157.3,719454.9,0.0
222905.5,252561.8,718698.2,563437.8,718707.9,255050.4,719164.6,719467.0,0.0
222971.3,252597.8,718685.3,562617.2,718694.9,255088.5,719152.1,719455.2,0.0
220600.2,251326.5,718676.4,559551.9,718685.3,253951.7,719138.9,719438.7,0.0
218250.3,250087.3,718681.6,556189.7,718689.8,252852.6,719139.7,719434.8,0.0
219811.6,250827.7,718701.3,555934.9,718709.3,253484.2,719161.1,719457.4,0.0
222900.2,252413.7,718702.5,557366.1,718710.4,254863.1,719166.2,719467.6,0.0
222978.0,252468.2,718691.5,556593.1,718699.1,254909.6,719155.3,719457.3,0.0
220588.2,251181.0,718680.9,553552.0,718688.2,253759.4,719141.6,719439.3,0.0
218234.8,249935.0,718685.0,550228.3,718691.7,252657.3,719141.8,719434.4,0.0
219802.7,250682.2,718703.8,550017.0,718710.9,253290.3,719161.9,719456.2,0.0
222898.1,252279.5,718710.0,551495.3,718716.6,254679.8,719172.3,719471.7,0.0
222957.6,252314.7,718695.5,550742.9,718701.9,254711.7,719158.0,719458.2,0.0
220564.7,251027.6,718684.7,547733.2,718690.5,253560.8,719143.4,719439.8,0.0
218214.0,249783.1,718687.6,544449.6,718692.8,252463.4,719142.4,719432.9,0.0
219788.8,250535.3,718706.9,544280.9,718711.4,253100.7,719163.4,719454.9,0.0
222865.6,252119.1,718709.8,545783.9,718714.0,254479.5,719169.9,719467.1,0.0
222887.0,252131.2,718694.6,545037.8,718699.0,254490.1,719154.7,719453.0,0.0
220522.8,250854.5,718687.0,542081.6,718691.1,253352.0,719143.4,719437.8,0.0
218225.5,249648.7,718692.3,538876.4,718696.3,252286.8,719144.6,719433.3,0.0
219792.9,250393.3,718709.0,538742.1,718712.6,252922.0,719162.9,719453.5,0.0
222867.8,251972.5,718713.1,540280.6,718716.6,254300.5,719171.3,719467.4,0.0
222937.9,252024.5,718701.9,539613.1,718705.0,254347.1,719160.4,719456.8,0.0
220554.3,250748.2,718690.8,536677.8,718693.4,253196.0,719145.6,719437.8,0.0
218202.9,249504.4,718693.2,533461.9,718695.3,252096.6,719143.4,719429.8,0.0
219771.5,250247.3,718711.8,533363.7,718713.3,252734.7,719163.6,719451.4,0.0
222846.9,251825.0,718713.5,534936.1,718714.9,254113.7,719169.8,719463.6,0.0
222908.5,251864.8,718700.7,534290.1,718702.1,254150.9,719157.3,719452.1,0.0
220530.9,250592.4,718689.2,531390.3,718690.3,253004.7,719141.7,719432.3,0.0
218185.8,249350.5,718692.4,528212.3,718692.8,251906.1,719140.5,719424.8,0.0
219773.0,250108.0,718714.0,528163.8,718714.5,252553.4,719163.9,719450.0,0.0
222837.2,251678.8,718715.4,529765.1,718715.6,253927.4,719169.6,719462.4,0.0
222898.0,251720.9,718700.6,529151.2,718701.1,253963.0,719155.2,719448.7,0.0
220524.4,250453.0,718692.5,526290.9,718692.3,252825.3,719143.1,719431.8,0.0
218175.8,249212.4,718692.8,523135.2,718692.1,251723.4,719139.2,719420.8,0.0
219746.5,249956.3,718708.2,523098.7,718707.3,252357.5,719156.1,719439.6,0.0
222814.9,251533.8,718711.4,524731.4,718710.2,253734.1,719163.5,719453.6,0.0
222883.7,251589.3,718702.9,524159.3,718701.7,253786.2,719155.3,719446.3,0.0
220491.7,250310.8,718691.9,521318.5,718690.3,252640.9,719140.9,719426.9,0.0
218141.9,249070.1,718693.9,518199.4,718692.1,251540.8,719138.7,719417.2,0.0
219735.6,249842.3,718713.4,518219.3,718711.0,252195.8,719159.8,719439.8,0.0
222797.8,251421.6,718713.8,519883.6,718711.4,253570.6,719164.3,719452.0,0.0
222843.1,251453.6,718696.9,519319.3,718694.1,253597.6,719147.8,719436.3,0.0
220460.1,250179.4,718687.0,516510.7,718683.9,252457.4,719134.3,719417.1,0.0
218118.4,248945.8,718689.6,513425.3,718685.9,251368.1,719132.2,719407.0,0.0
219696.8,249695.5,718708.7,513462.9,718704.8,252014.9,719152.9,719430.6,0.0
222772.8,251282.8,718712.8,515163.6,718708.8,253397.8,719161.3,719447.2,0.0
222823.3,251320.3,718696.6,514633.0,718692.6,253430.1,719145.0,719432.1,0.0
220439.6,250046.5,718686.1,511847.1,718681.6,252284.9,719130.6,719411.8,0.0
218107.2,248822.8,718691.9,508795.6,718687.2,251200.3,719132.8,719403.8,0.0
219698.9,249584.9,718710.8,508871.6,718705.6,251853.5,719152.9,719426.9,0.0
222757.0,251153.3,718711.6,510588.3,718706.3,253228.4,719158.1,719441.8,0.0
222815.3,251195.4,718699.6,510082.2,718694.4,253264.5,719146.8,719431.5,0.0
220437.5,249921.0,718688.4,507322.6,718682.6,252123.0,719132.0,719409.5,0.0
218109.7,248697.2,718691.4,504304.5,718685.3,251043.5,719130.7,719396.9,0.0
219698.4,249457.2,718709.1,504406.8,718702.6,251696.1,719149.9,719419.6,0.0
222763.9,251039.4,718711.8,506160.4,718705.4,253077.0,719156.5,719437.6,0.0
222826.9,251093.3,718700.3,505697.8,718694.0,253122.5,719145.4,719428.1,0.0
220441.2,249821.3,718690.5,502966.5,718683.8,251980.8,719131.8,719406.5,0.0
218098.0,248588.7,718691.4,499960.4,718684.3,250888.0,719128.8,719389.4,0.0
219686.5,249353.0,718710.9,500097.2,718703.8,251546.3,719149.7,719415.2,0.0
222748.2,250934.3,718714.2,501877.7,718706.9,252930.9,719157.1,719435.8,0.0
222794.0,250973.7,718699.6,501425.3,718692.5,252965.7,719143.6,719423.5,0.0
220407.1,249705.1,718689.8,498718.6,718681.8,251823.3,719129.8,719400.1,0.0
218075.9,248482.8,718692.2,495745.7,718683.6,250740.9,719127.9,719378.8,0.0
219664.3,249241.5,718709.3,495901.6,718700.8,251396.5,719146.6,719404.2,0.0
222715.1,250806.4,718712.3,497693.8,718703.9,252775.4,719153.8,719429.0,0.0
222767.8,250847.9,718699.0,497266.3,718690.2,252816.4,719140.7,719417.7,0.0
220388.0,249577.9,718687.4,494586.4,718678.1,251675.4,719125.1,719389.8,0.0
218055.5,248354.9,718688.8,491639.3,718679.1,250592.6,719122.8,719331.8,0.0
219645.0,249114.9,718707.5,491825.2,718697.6,251252.3,719142.9,719373.1,0.0
222711.3,250700.9,718713.8,493659.8,718704.1,252646.3,719153.9,719426.1,0.0
222746.2,250734.8,718696.3,493244.7,718686.9,252680.4,719137.3,719411.1,0.0
220347.8,249452.2,718682.8,490569.8,718672.9,251528.8,719119.7,719357.9,0.0
218014.1,248232.6,718686.4,487647.7,718675.9,250449.0,719113.3,719044.8,0.0
219624.5,249013.7,718707.3,487877.1,718696.7,251122.6,719137.4,719186.4,0.0
222678.5,250590.6,718710.8,489724.8,718699.9,252501.9,719148.6,719414.2,0.0
222722.5,250631.2,718698.1,489340.4,718687.1,252538.1,719136.4,719407.5,0.0
220332.2,249357.0,718687.0,486695.8,718675.9,251393.6,719120.8,719298.5,0.0
217996.8,248130.3,718686.9,483787.3,718675.8,250306.1,719109.2,718617.6,0.0
219597.0,248900.2,718705.3,484021.8,718693.4,250964.9,719131.0,718879.8,0.0
222656.4,250484.6,718709.6,485896.6,718697.5,252352.4,719145.8,719394.1,0.0
222699.3,250526.9,718698.1,485535.6,718686.1,252394.0,719134.7,719401.5,0.0
220316.5,249260.9,718685.8,482916.3,718673.7,251254.6,719116.4,719178.9,0.0
217987.9,248040.5,718687.4,480039.3,718675.4,250175.4,719105.9,718091.1,0.0
219585.5,248806.3,718705.7,480296.4,718693.2,250835.9,719128.3,718493.6,0.0
222629.1,250373.5,718709.6,482178.0,718696.4,252213.3,719143.6,719355.4,0.0
222645.4,250400.1,718697.3,481810.5,718684.1,252238.6,719132.4,719392.4,0.0
220262.6,249129.8,718685.0,479209.6,718672.0,251098.7,719113.6,718987.8,0.0
217977.2,247935.0,718686.7,476385.1,718673.9,250044.9,719103.1,717478.9,0.0
219585.9,248707.3,718705.6,476671.7,718692.3,250713.6,719125.3,718015.5,0.0
222638.9,250283.0,718708.5,478582.9,718695.0,252098.5,719140.8,719284.4,0.0
222677.6,250323.3,718696.5,478258.3,718682.3,252140.1,719129.9,719374.5,0.0
220282.5,249051.7,718682.6,475669.3,718668.5,250995.3,719107.3,718692.8,0.0
217954.6,247836.0,718682.1,472827.4,718668.0,249915.4,719095.5,716800.4,0.0
219563.5,248608.5,718701.9,473136.4,718688.0,250585.3,719118.9,717458.5,0.0
222616.3,250182.5,718705.4,475064.3,718690.7,251968.0,719135.6,719164.8,0.0
222646.3,250213.4,718691.8,474746.9,718676.9,251999.8,719123.5,719325.1,0.0
220270.5,248957.9,718682.8,472188.3,718667.6,250868.0,719103.5,718274.4,0.0
217950.5,247744.5,718685.4,469374.3,718670.1,249794.6,719096.7,716101.4,0.0
219568.1,248523.2,718704.3,469705.7,718688.9,250466.2,719118.8,716849.8,0.0
222623.2,250100.2,718709.8,471658.8,718694.4,251851.9,719137.4,718978.6,0.0
222645.3,250121.3,718694.9,471357.6,718679.2,251879.6,719124.1,719219.8,0.0
220256.6,248853.7,718678.7,468808.8,718663.3,250736.4,719095.5,717724.6,0.0
217925.9,247631.7,718676.8,466006.2,718660.9,249653.4,719086.1,715354.0,0.0
219537.6,248406.4,718696.1,466354.2,718679.9,250320.0,719107.6,716153.8,0.0
222583.3,249974.9,718699.6,468315.2,718683.4,251695.9,719122.2,718605.6,0.0
222619.0,250016.2,718686.8,468038.8,718670.4,251730.2,719111.8,718945.1,0.0
220225.0,248747.8,718674.0,465510.9,718657.7,250592.0,719087.5,717066.0,0.0
217914.9,247545.4,718680.3,462744.9,718664.3,249528.0,719087.8,714626.3,0.0
219533.4,248326.5,718699.1,463120.8,718682.9,250202.0,719108.7,715465.2,0.0
222582.3,249904.0,718698.5,465108.3,718682.0,251583.0,719114.1,718030.3,0.0
222609.5,249939.2,718684.7,464850.7,718668.3,251618.3,719101.3,718386.0,0.0
220208.6,248658.5,718674.0,462335.4,718657.3,250476.9,719084.8,716381.7,0.0
217890.1,247451.3,718676.5,459577.6,718659.1,249404.4,719081.9,713904.0,0.0
219506.3,248236.2,718695.4,459972.0,718677.9,250082.1,719103.1,714762.1,0.0
222541.8,249805.5,718698.3,461971.7,718680.8,251464.8,719111.8,717394.3,0.0
222568.0,249841.5,718684.3,461728.2,718667.1,251501.3,719098.4,717745.8,0.0
220186.6,248584.8,718672.6,459240.1,718655.1,250375.1,719081.9,715678.9,0.0
217864.5,247366.1,718675.5,456498.4,718657.6,249305.5,719080.3,713199.8,0.0
219482.0,248141.8,718695.4,456911.3,718677.2,249982.4,719102.1,714064.5,0.0
222537.8,249729.2,718700.1,458938.4,718682.3,251373.6,719112.3,716743.4,0.0
222568.8,249769.9,718687.2,458710.4,718668.9,251411.6,719100.1,717095.1,0.0
220176.6,248501.5,718675.9,456232.6,718657.4,250278.2,719084.2,714977.0,0.0
217851.7,247283.1,718677.4,453505.4,718658.6,249205.2,719080.8,712512.6,0.0
219467.9,248064.1,718693.8,453925.2,718674.9,249874.4,719098.8,713365.2,0.0
222517.1,249647.4,718697.7,455963.7,718678.4,251263.8,719107.6,716047.8,0.0
222541.2,249682.5,718681.9,455749.8,718662.5,251298.3,719092.4,716391.8,0.0
220150.8,248416.8,718672.0,453288.0,718652.3,250163.0,719077.8,714251.3,0.0
217848.7,247217.2,718676.9,450595.4,718656.8,249108.0,719077.8,711834.8,0.0
219473.8,247997.1,718693.6,451044.1,718673.1,249787.2,719096.3,712693.6,0.0
222512.3,249567.9,718694.1,453090.1,718673.8,251163.3,719102.4,715346.3,0.0
222541.8,249611.0,718681.8,452896.1,718661.3,251202.1,719090.4,715688.9,0.0
220151.2,248344.6,718671.6,450445.1,718651.2,250066.3,719076.1,713549.9,0.0
217841.6,247137.3,718674.3,447759.8,718653.3,249001.3,719073.6,711155.0,0.0
219468.3,247922.2,718691.9,448226.2,718670.9,249680.6,719093.3,712005.6,0.0
222508.6,249498.8,718695.2,450295.3,718674.0,251068.2,719102.1,714639.8,0.0
222520.8,249523.6,718678.9,450098.6,718657.8,251090.8,719085.8,714959.0,0.0
220131.9,248265.8,718669.1,447666.8,718647.8,249955.5,719071.7,712842.1,0.0
217814.9,247057.4,718671.0,444992.1,718649.1,248887.4,719068.9,710477.9,0.0
219437.9,247837.2,718684.5,445471.5,718663.1,249562.6,719084.6,711316.7,0.0
222476.1,249412.0,718685.6,447550.2,718664.4,250945.1,719090.8,713909.8,0.0
222493.5,249447.5,718672.2,447376.5,718650.6,250979.3,719077.9,714232.1,0.0
220095.0,248179.8,718661.4,444952.9,718639.4,249844.1,719062.7,712139.7,0.0
217779.0,246967.7,718661.0,442286.9,718638.4,248770.7,719057.7,709799.6,0.0
219413.9,247757.4,718679.3,442787.7,718656.8,249455.7,719077.8,710642.2,0.0
222451.7,249331.8,718682.6,444881.5,718660.4,250841.3,719086.3,713203.4,0.0
222465.9,249363.8,718667.7,444718.9,718645.1,250875.5,719071.6,713515.2,0.0
220071.2,248095.7,718658.1,442309.4,718635.3,249740.7,719058.3,711452.1,0.0
217768.3,246890.3,718663.0,439670.7,718639.6,248682.8,719058.7,709154.1,0.0
219406.5,247678.3,718680.9,440191.2,718657.8,249372.9,719078.4,709993.4,0.0
222443.1,249251.9,718684.4,442300.6,718661.8,250761.1,719087.1,712525.2,0.0
222451.9,249281.8,718669.8,442149.1,718647.1,250791.5,719072.9,712829.4,0.0
220055.6,248021.0,718658.6,439751.6,718635.4,249654.4,719057.4,710791.6,0.0
217741.9,246811.9,718658.1,437116.8,718634.4,248584.6,719052.4,708502.4,0.0
219376.9,247601.5,718678.3,437648.9,718654.3,249271.4,719074.3,709336.9,0.0
222397.7,249160.2,718677.2,439753.9,718653.4,250640.5,719078.0,711826.1,0.0
222365.3,249155.8,718660.8,439572.4,718637.1,250639.2,719061.8,712080.6,0.0
219990.9,247900.0,718649.6,437197.3,718625.9,249509.0,719046.6,710072.1,0.0
217728.8,246729.3,718652.1,434623.6,718627.9,248475.4,719045.2,707843.4,0.0
219369.7,247528.7,718671.5,435181.0,718646.7,249171.5,719066.6,708683.1,0.0
222404.0,249107.7,718674.9,437319.3,718650.6,250558.4,719074.7,711169.5,0.0
222411.2,249139.8,718659.4,437192.2,718635.3,250589.3,719059.6,711460.0,0.0
220007.2,247868.2,718646.4,434815.0,718621.4,249449.6,719042.6,709454.8,0.0
217703.0,246666.3,718647.9,432212.8,718622.8,248388.9,719039.6,707203.5,0.0
219353.9,247468.9,718669.6,432782.9,718644.9,249087.0,719063.4,708048.3,0.0
222389.9,249045.8,718673.0,434930.9,718648.3,250473.8,719071.7,710520.7,0.0
222391.4,249072.7,718657.5,434810.4,718632.6,250499.1,719056.4,710804.0,0.0
219981.0,247796.8,718643.1,432435.7,718617.8,249351.1,719037.9,708805.1,0.0
217693.3,246609.2,718649.6,429862.0,718623.8,248305.5,719040.4,706578.3,0.0
219340.2,247403.0,718666.9,430435.3,718641.1,248993.6,719059.5,707408.7,0.0
222365.5,248968.8,718665.5,432581.0,718639.8,250367.9,719062.7,709855.4,0.0
222374.0,249002.8,718653.6,432476.9,718627.8,250400.6,719050.9,710139.6,0.0
219978.5,247737.9,718641.8,430126.6,718615.7,249266.0,719035.1,708161.1,0.0
217684.2,246542.6,718646.9,427555.7,718620.3,248213.5,719035.9,705931.9,0.0
219330.6,247334.9,718665.1,428145.5,718638.8,248905.3,719056.4,706764.4,0.0
222361.4,248907.8,718666.1,430312.1,718639.8,250287.3,719061.8,709210.0,0.0
222378.0,248952.7,718652.8,430225.9,718626.9,250327.8,719049.4,709502.0,0.0
219973.9,247683.5,718642.9,427887.2,718616.4,249197.3,719034.9,707537.3,0.0
217667.5,246481.9,718643.3,425318.1,718616.5,248135.6,719031.3,705306.8,0.0
219320.2,247281.3,718661.1,425923.6,718634.3,248828.1,719050.9,706140.8,0.0
222349.5,248847.6,718662.9,428102.3,718636.0,250209.6,719056.9,708579.8,0.0
222355.4,248875.3,718649.2,428015.0,718621.9,250236.0,719043.4,708853.8,0.0
219960.0,247613.9,718637.8,425687.8,718610.1,249100.9,719028.3,706889.9,0.0
217667.4,246420.2,718643.3,423148.5,718615.6,248055.3,719030.4,704676.7,0.0
219322.8,247222.9,718663.7,423773.3,718635.7,248756.0,719052.4,705518.1,0.0
222353.3,248795.7,718668.3,425966.9,718640.4,250143.4,719061.6,707958.6,0.0
222363.2,248833.6,718654.8,425891.2,718627.2,250177.1,719048.4,708236.9,0.0
219960.8,247564.4,718641.0,423564.9,718613.6,249037.4,719031.1,706273.3,0.0
217671.0,246372.1,718644.8,421032.2,718616.5,247989.2,719030.4,704062.8,0.0
219339.1,247180.4,718663.0,421671.8,718634.4,248696.0,719050.6,704910.8,0.0
222365.8,248746.7,718665.2,423868.8,718636.7,250078.0,719057.4,707339.6,0.0
222359.5,248766.8,718653.9,423794.4,718625.7,250101.3,719046.2,707606.8,0.0
219950.8,247490.6,718644.8,421479.1,718616.6,248963.7,719033.7,705644.1,0.0
217666.3,246305.0,718648.8,418959.2,718620.0,247921.2,719033.9,703437.7,0.0
219327.1,247114.5,718664.7,419600.3,718636.1,248620.5,719051.4,704277.9,0.0
222354.9,248691.9,718667.0,421809.0,718638.5,250005.9,719057.7,706708.4,0.0
222351.2,248719.0,718652.9,421747.3,718624.4,250035.8,719044.0,706980.5,0.0
219945.7,247453.0,718644.8,419448.5,718616.1,248909.6,719032.3,705031.2,0.0
217647.8,246258.5,718648.6,416935.7,718619.4,247860.0,719032.1,702823.6,0.0
219310.5,247069.0,718665.8,417593.3,718636.3,248559.8,719051.2,703667.6,0.0
222346.6,248653.3,718668.2,419818.6,718639.1,249952.1,719058.3,706101.3,0.0
222341.6,248680.6,718654.8,419766.7,718625.8,249982.0,719045.1,706371.8,0.0
219934.1,247413.5,718644.8,417470.3,718615.6,248847.4,719031.8,704419.2,0.0
217641.7,246223.8,718648.3,414961.9,718618.6,247798.4,719031.3,702213.5,0.0
219299.1,247023.6,718664.3,415621.6,718634.6,248495.6,719048.9,703055.8,0.0
222314.1,248584.1,718666.3,417843.3,718636.6,249875.3,719055.6,705476.1,0.0
222306.3,248610.1,718650.4,417792.8,718621.3,249899.1,719040.4,705737.7,0.0
219907.7,247353.6,718644.8,415511.3,718615.1,248775.0,719031.3,703794.6,0.0
217613.2,246157.2,718647.5,413010.5,718616.9,247723.0,719029.4,701586.9,0.0
219281.2,246967.9,718666.2,413691.8,718635.3,248430.8,719049.3,702440.8,0.0
222300.5,248539.2,718666.2,415919.2,718636.3,249806.5,719053.9,704859.0,0.0
222292.7,248567.8,718654.6,415882.0,718624.8,249834.8,719043.1,705126.8,0.0
219888.6,247305.6,718645.1,413605.6,718615.1,248702.0,719030.1,703174.8,0.0
217594.6,246112.1,718647.4,411116.4,718617.1,247650.0,719028.6,700969.2,0.0
219269.5,246928.3,718668.2,411812.8,718637.6,248359.5,719050.9,701827.9,0.0
222291.2,248498.6,718668.5,414053.9,718638.1,249739.3,719055.8,704250.1,0.0
222270.6,248513.2,718650.6,414010.5,718620.1,249754.7,719038.1,704504.3,0.0
219864.3,247246.2,718639.6,411737.1,718608.9,248620.2,719023.1,702551.7,0.0
217574.0,246056.9,718642.9,409257.9,718612.1,247572.8,719023.1,700350.8,0.0
219243.7,246863.6,718661.2,409954.6,718630.3,248274.8,719042.8,701202.3,0.0
222270.3,248434.8,718665.8,412210.1,718634.6,249663.7,719051.4,703626.9,0.0
222266.7,248466.4,718651.6,412187.8,718620.8,249692.3,719038.3,703890.6,0.0
219860.2,247201.6,718642.1,409918.4,718611.2,248559.2,719025.6,701935.9,0.0
217570.3,246010.0,718642.7,407444.9,718611.2,247512.1,719022.5,699735.2,0.0
219247.5,246819.8,718660.4,408153.2,718628.6,248216.8,719041.4,700589.3,0.0
222254.9,248378.5,718660.6,410396.7,718628.9,249585.1,719045.6,702995.6,0.0
222202.5,248374.2,718648.1,410346.3,718616.5,249588.9,719033.1,703226.4,0.0
219818.2,247116.1,718638.1,408096.9,718605.9,248460.5,719019.4,701280.0,0.0
217585.4,245958.5,718639.8,405673.0,718607.3,247440.3,719017.9,699114.9,0.0
219266.8,246773.0,718656.2,406394.6,718624.2,248152.8,719036.3,699974.3,0.0
222276.6,248332.6,718655.2,408648.8,718623.2,249527.6,719039.2,702383.2,0.0
222262.9,248355.0,718644.8,408638.6,718612.3,249554.2,719028.8,702644.9,0.0
219848.5,247076.5,718633.5,406379.6,718601.1,248411.8,719014.5,700682.8,0.0
217566.4,245880.6,718634.6,403922.8,718602.0,247361.9,719012.4,698482.1,0.0
219266.3,246712.0,718655.4,404669.7,718622.9,248086.8,719035.2,699359.1,0.0
222280.6,248277.0,718654.8,406938.4,718622.6,249464.7,719038.6,701771.8,0.0
222254.0,248296.0,718641.9,406922.3,718608.9,249481.2,719025.2,702019.7,0.0
219842.1,247029.2,718631.3,404675.5,718598.3,248342.3,719011.6,700063.6,0.0
217555.9,245834.6,718632.7,402227.3,718599.5,247291.1,719009.3,697862.9,0.0
219243.4,246651.0,718650.8,402971.9,718617.9,248007.5,719029.3,698729.7,0.0
222265.3,248223.0,718652.5,405250.8,718619.7,249389.1,719034.6,701146.6,0.0
222244.1,248240.8,718638.6,405245.6,718605.6,249408.0,719020.9,701396.3,0.0
219834.9,246976.2,718627.8,403007.2,718594.9,248272.2,719007.1,699440.8,0.0
217558.9,245795.5,718631.5,400574.5,718598.3,247229.4,719007.4,697250.0,0.0
219245.0,246615.2,718649.1,401327.8,718615.9,247944.9,719026.5,698117.0,0.0
222256.0,248182.1,718650.9,403616.9,718618.1,249329.1,719032.9,700532.9,0.0
222232.6,248203.8,718639.1,403622.3,718606.0,249349.4,719021.3,700785.6,0.0
219819.5,246935.3,718629.1,401391.0,718595.9,248211.5,719008.1,698829.4,0.0
217537.8,245746.0,718629.7,398960.4,718595.9,247165.3,719005.5,696631.1,0.0
219230.0,246567.7,718646.9,399721.8,718613.4,247881.8,719023.8,697497.8,0.0
222249.0,248140.7,718651.4,402023.1,718618.3,249269.9,719032.3,699917.8,0.0
222222.7,248156.1,718637.7,402031.6,718604.1,249289.8,719018.6,700166.1,0.0
219805.6,246878.6,718624.2,399798.3,718590.2,248149.1,719001.8,698200.8,0.0
217543.1,245706.3,718629.8,397392.9,718595.5,247123.8,719004.3,696021.8,0.0
219239.7,246534.0,718647.8,398163.0,718613.8,247843.8,719024.2,696892.8,0.0
222245.5,248098.9,718648.9,400455.3,718614.4,249220.1,719029.0,699298.4,0.0
222209.9,248107.1,718634.4,400467.6,718600.1,249235.6,719014.4,699542.4,0.0
219792.8,246832.9,718622.2,398241.1,718588.1,248094.6,718999.1,697580.2,0.0
217521.3,245650.1,718625.7,395829.8,718590.8,247056.3,718999.3,695392.3,0.0
219213.0,246467.3,718643.9,396603.8,718608.9,247772.5,719019.2,696262.7,0.0
222222.9,248034.1,718644.4,398908.8,718609.5,249151.3,719023.4,698674.2,0.0
222192.5,248054.4,718629.0,398932.4,718594.4,249171.5,719008.1,698922.4,0.0
219772.7,246784.9,718618.8,396716.1,718583.8,248032.9,718993.9,696961.6,0.0
217501.5,245605.6,718620.8,394315.8,718585.6,246996.0,718983.4,694776.0,0.0
219198.6,246427.4,718637.3,395099.8,718601.8,247712.0,719006.9,695648.4,0.0
222213.9,248002.5,718641.6,397418.9,718606.0,249101.1,719020.0,698068.4,0.0
222174.7,248012.4,718628.1,397445.4,718592.4,249118.3,719006.4,698314.3,0.0
219755.0,246736.7,718617.3,395236.6,718582.1,247980.5,718991.8,696307.2,0.0
217482.4,245552.6,718619.2,392836.0,718583.5,246934.9,718987.5,693597.2,0.0
219179.3,246376.7,718638.8,393627.8,718603.2,247652.1,719009.8,694719.9,0.0
222193.6,247949.4,718640.7,395951.6,718605.9,249036.1,719018.6,697864.9,0.0
222161.9,247968.9,718627.5,395988.9,718592.8,249057.8,719006.1,698171.4,0.0
219748.0,246704.3,718617.5,393787.6,718581.8,247921.2,718991.4,696150.3,0.0
217486.0,245529.8,718622.1,391404.3,718586.1,246886.3,718991.2,693429.8,0.0
219187.3,246355.2,718642.1,392209.0,718606.3,247605.8,719013.1,694593.1,0.0
222194.4,247923.1,718644.8,394536.1,718609.3,248984.6,719021.3,697758.6,0.0
222157.8,247937.7,718628.3,394569.5,718592.8,248997.4,719005.1,698062.7,0.0
219732.4,246658.4,718614.5,392363.7,718578.6,247851.7,718987.5,696012.7,0.0
217464.8,245476.4,718619.2,389982.3,718582.9,246813.6,718988.0,693270.8,0.0
219174.2,246311.6,718637.8,390798.3,718601.4,247541.6,719007.9,694473.8,0.0
222184.7,247881.1,718637.8,393129.9,718601.6,248923.9,719013.4,697662.6,0.0
222142.9,247888.7,718624.4,393170.6,718588.4,248940.9,719001.0,697977.9,0.0
219719.0,246608.6,718613.8,390971.9,718577.4,247800.5,718986.3,695932.6,0.0
217448.4,245426.5,718615.7,388593.1,718579.6,246761.4,718984.1,693186.0,0.0
219162.8,246265.6,718636.1,389418.4,718599.6,247490.0,719005.7,694373.9,0.0
222174.3,247837.3,718638.7,391755.5,718602.3,248871.1,719013.8,697587.7,0.0
222129.0,247845.8,718622.8,391792.5,718586.2,248880.7,718998.5,697906.1,0.0
219703.4,246568.5,718611.7,389599.0,718574.8,247739.9,718983.3,695849.0,0.0
217440.5,245391.6,718614.9,387232.6,718577.9,246705.9,718982.3,693105.0,0.0
219150.9,246223.2,718634.0,388061.3,718597.0,247431.2,719003.2,694314.1,0.0
222169.5,247798.9,718637.6,390410.4,718600.1,248818.8,719012.2,697531.4,0.0
222131.5,247813.2,718624.6,390459.9,718587.0,248836.5,719000.1,697853.5,0.0
219703.7,246535.8,718611.8,388268.5,718574.4,247693.6,718982.8,695791.9,0.0
217428.3,245346.4,718616.2,385905.2,718578.5,246657.1,718983.1,693045.9,0.0
219151.2,246188.2,718636.0,386747.3,718598.4,247389.8,719004.8,694264.3,0.0
222162.8,247757.3,718636.8,389093.7,718599.8,248768.0,719011.3,697473.6,0.0
222115.5,247759.4,718619.6,389138.0,718582.3,248774.8,718994.5,697786.9,0.0
219691.2,246482.4,718609.7,386955.0,718572.5,247634.6,718979.6,695729.8,0.0
217419.0,245296.7,718610.5,384588.4,718573.7,246590.8,718976.5,692973.3,0.0
219133.5,246132.2,718630.3,385431.6,718592.6,247320.8,718998.3,694148.3,0.0
222136.8,247699.1,718634.6,387784.1,718597.1,248704.6,719007.8,697398.3,0.0
222045.8,247670.4,718618.9,387801.2,718581.6,248688.0,718993.3,697703.3,0.0
219648.7,246409.6,718606.1,385632.1,718568.8,247553.9,718975.4,695641.1,0.0
217423.8,245257.7,718608.1,383312.4,718570.4,246541.6,718973.1,692919.8,0.0
219130.3,246085.5,718625.1,384156.8,718587.3,247267.8,718992.6,694114.8,0.0
222133.7,247651.0,718627.7,386516.0,718590.0,248653.6,719000.6,697363.6,0.0
222105.2,247679.9,718617.4,386593.5,718579.6,248682.2,718991.2,697719.1,0.0
219692.7,246418.2,718609.4,384437.2,718571.6,247556.4,718978.5,695663.3,0.0
217412.8,245227.8,718608.4,382077.8,718570.5,246506.9,718973.3,692897.1,0.0
219122.2,246059.4,718626.1,382927.7,718588.1,247228.3,718993.6,694092.6,0.0
222128.7,247628.5,718630.7,385291.8,718593.1,248609.3,719003.7,697342.8,0.0
222093.7,247645.0,718620.3,385367.0,718582.3,248628.4,718993.4,697692.2,0.0
219672.8,246373.6,718610.1,383205.3,718571.9,247491.6,718978.1,695627.4,0.0
217404.3,245195.2,718613.0,380865.9,718575.4,246457.4,718977.7,692878.3,0.0
219121.9,246031.6,718630.5,381727.7,718592.5,247186.3,718997.4,694082.1,0.0
222129.8,247600.7,718633.1,384094.7,718595.1,248565.9,719004.9,697328.9,0.0
222080.0,247607.1,718619.9,384164.0,718581.3,248577.3,718992.3,697667.4,0.0
219656.1,246334.8,718610.3,382006.2,718571.7,247441.3,718977.7,695589.9,0.0
217393.4,245160.5,718613.0,379672.7,718574.3,246409.0,718976.7,692841.4,0.0
219111.5,245997.9,718631.1,380542.2,718592.4,247139.0,718996.8,694071.5,0.0
222106.6,247556.0,718631.5,382908.0,718592.8,248513.4,719002.6,697312.5,0.0
222057.1,247564.3,718614.6,382974.5,718575.7,248520.2,718986.8,697644.4,0.0
219631.7,246291.3,718604.3,380817.6,718565.9,247380.8,718972.3,695552.2,0.0
217372.0,245116.8,718609.0,378491.1,718570.5,246347.8,718973.4,692802.9,0.0
219095.3,245956.7,718628.8,379367.1,718590.2,247081.8,718994.4,694056.4,0.0
222097.1,247520.2,718630.4,381742.5,718591.8,248463.8,719001.6,697303.6,0.0
222050.8,247527.5,718618.4,381827.1,718579.8,248480.6,718990.0,697643.4,0.0
219638.1,246264.9,718609.6,379682.7,718570.8,247349.0,718976.2,695569.6,0.0
217385.1,245097.1,718614.5,377364.7,718575.4,246320.3,718977.8,692825.5,0.0
219107.5,245932.0,718630.6,378242.8,718591.4,247047.4,718995.6,694051.2,0.0
222111.8,247497.6,718631.5,380627.1,718592.5,248428.8,719001.9,697298.6,0.0
222053.6,247496.2,718614.1,380702.2,718575.0,248434.1,718984.7,697627.3,0.0
219620.5,246216.5,718604.3,378547.0,718565.2,247290.7,718970.3,695529.2,0.0
217365.4,245051.0,718608.9,376232.9,718569.6,246264.4,718971.5,692788.0,0.0
219081.6,245881.6,718623.9,377114.7,718584.7,246991.5,718988.1,694039.9,0.0
222079.3,247445.5,718626.9,379497.8,718587.9,248369.1,718996.8,697284.3,0.0
222029.8,247456.2,718614.5,379584.8,718575.7,248383.9,718985.4,697622.2,0.0
219603.9,246182.4,718606.1,377438.3,718566.9,247245.0,718972.3,695527.1,0.0
217350.4,245006.2,718608.6,375123.6,718568.6,246210.4,718970.9,692775.3,0.0
219083.3,245852.6,718625.4,376021.4,718585.4,246947.9,718989.5,694036.2,0.0
222079.5,247415.4,718626.5,378405.1,718587.2,248322.8,718996.4,697276.3,0.0
222023.8,247416.9,718613.4,378486.9,718574.1,248329.8,718984.2,697603.3,0.0
219607.2,246150.5,718606.8,376355.4,718566.9,247201.1,718972.4,695516.8,0.0
217363.5,244991.3,718612.3,374061.0,718572.3,246183.0,718974.4,692783.6,0.0
219095.0,245835.3,718629.6,374961.4,718589.7,246917.4,718993.3,694044.3,0.0
222092.8,247398.5,718629.7,377350.7,718589.9,248295.6,718999.1,697285.9,0.0
222026.4,247391.6,718613.4,377427.3,718573.3,248296.7,718982.9,697607.1,0.0
219599.1,246117.5,718603.4,375286.1,718563.3,247157.0,718968.1,695511.1,0.0
217359.5,244959.4,718609.3,372994.3,718568.9,246140.5,718970.3,692778.7,0.0
219095.2,245807.0,718627.6,373902.1,718587.3,246881.3,718990.3,694044.9,0.0
222089.7,247369.4,718631.4,376295.8,718590.6,248261.3,718999.3,697287.8,0.0
222023.9,247364.4,718616.6,376380.3,718576.0,248263.4,718985.6,697607.4,0.0
219595.4,246088.3,718605.1,374243.9,718564.8,247124.0,718969.8,695507.1,0.0
217347.0,244923.0,718607.3,371946.0,718566.7,246098.4,718967.6,692760.4,0.0
219086.0,245772.3,718627.4,372861.0,718586.8,246844.5,718989.1,694027.0,0.0
222096.1,247347.8,718634.6,375271.2,718594.1,248237.8,719002.1,697281.8,0.0
222039.8,247351.4,718620.1,375363.9,718579.2,248243.7,718988.0,697608.6,0.0
219602.7,246068.9,718606.3,373226.1,718565.4,247094.9,718969.8,695504.3,0.0
217355.9,244903.3,718611.8,370937.1,718570.6,246070.7,718971.6,692762.1,0.0
219092.4,245751.0,718632.5,371857.7,718591.4,246816.3,718993.9,694011.3,0.0
222096.7,247326.1,718637.8,374271.6,718596.8,248208.0,719004.8,697283.7,0.0
222049.2,247341.4,718626.8,374383.2,718585.1,248228.6,718994.1,697635.2,0.0
219617.4,246062.9,718614.2,372249.8,718572.7,247082.4,718977.6,695529.8,0.0
217360.4,244888.5,718614.5,369953.0,718573.2,246046.0,718974.3,692775.8,0.0
219086.0,245725.1,718631.9,370865.6,718590.9,246775.3,718992.8,694013.1,0.0
222078.7,247284.4,718631.6,373267.5,718590.4,248147.2,718997.9,697269.1,0.0
222010.8,247275.4,718615.6,373365.3,718574.4,248150.2,718982.5,697605.5,0.0
219581.0,245996.7,718604.9,371238.3,718563.6,247008.3,718967.8,695491.4,0.0
217336.8,244832.3,718607.8,368953.7,718565.9,245982.5,718966.9,692747.8,0.0
219081.2,245688.6,718627.1,369881.3,718585.4,246727.2,718987.7,694035.8,0.0
222070.9,247255.3,718629.9,372284.3,718588.3,248103.3,718995.8,697274.4,0.0
221960.3,247224.5,718616.1,372344.1,718574.0,248079.9,718982.3,697559.3,0.0
219556.5,245962.7,718604.6,370234.7,718562.5,246950.8,718966.4,695469.8,0.0
217362.5,244834.9,718609.9,368001.7,718568.0,245962.4,718968.4,692773.7,0.0
219107.8,245696.9,718631.7,368946.2,718590.2,246717.1,718992.0,694057.0,0.0
222100.4,247261.7,718633.9,371361.6,718592.4,248097.9,718999.5,697300.9,0.0
222031.0,247259.6,718619.9,371464.6,718578.3,248100.6,718986.3,697622.6,0.0
219597.3,245980.9,718609.9,369341.4,718568.4,246958.9,718971.9,695519.8,0.0
217352.8,244814.0,718613.4,367065.4,718571.4,245936.4,718971.9,692777.6,0.0
219084.1,245651.9,718629.4,367994.4,718587.5,246672.1,718989.3,694038.8,0.0
222080.8,247220.4,718633.3,370412.6,718591.8,248056.9,718998.8,697284.6,0.0
222020.9,247224.5,718623.6,370526.1,718581.6,248071.3,718990.0,697615.1,0.0
219593.8,245951.4,718614.1,368413.7,718571.9,246933.7,718975.6,695517.6,0.0
217334.2,244772.4,718613.4,366128.6,718570.7,245898.5,718971.3,692763.8,0.0
219076.1,245624.1,718631.5,367064.2,718588.9,246639.5,718991.0,694032.7,0.0
222072.2,247192.0,718634.2,369490.9,718592.1,248024.2,718999.3,697283.1,0.0
222003.3,247192.3,718620.6,369602.8,718578.5,248030.4,718986.2,697606.1,0.0
219570.2,245920.2,718609.9,367489.0,718567.3,246893.2,718970.4,695504.9,0.0
217327.2,244759.9,718613.6,365221.7,718570.9,245869.6,718970.8,692762.1,0.0
219069.5,245609.3,718633.0,366164.4,718590.4,246613.3,718991.8,694013.5,0.0
222063.1,247170.8,718633.0,368583.9,718590.8,247992.7,718997.4,697269.6,0.0
221997.7,247167.6,718619.2,368697.3,718577.1,248000.2,718984.4,697603.7,0.0
219562.2,245885.7,718606.2,366579.3,718564.0,246852.5,718966.9,695494.1,0.0
217320.6,244723.5,718612.8,364322.3,718570.4,245836.7,718969.6,692757.1,0.0
219064.3,245571.8,718629.9,365271.1,718587.4,246580.3,718988.3,694008.4,0.0
222066.6,247140.8,718631.1,367696.6,718588.4,247959.2,718995.1,697266.4,0.0
222011.5,247150.8,718622.6,367821.3,718579.5,247973.5,718987.2,697609.8,0.0
219573.8,245866.7,718609.9,365706.2,718567.1,246830.7,718970.2,695489.3,0.0
217320.9,244687.8,718610.9,363435.3,718567.8,245799.8,718967.9,692742.9,0.0
219075.2,245540.9,718630.8,364396.1,718587.9,246550.7,718988.9,694044.3,0.0
222067.6,247102.2,718632.1,366821.0,718589.3,247926.2,718995.7,697281.4,0.0
221990.0,247093.0,718615.9,366930.1,718572.8,247924.6,718980.0,697592.1,0.0
219551.7,245811.3,718603.6,364817.2,718560.5,246778.3,718963.0,695470.4,0.0
217319.3,244656.0,718607.9,362569.1,718564.3,245762.5,718963.3,692743.3,0.0
219073.8,245516.3,718628.0,363534.1,718584.8,246513.0,718985.5,694046.1,0.0
222057.7,247075.2,718628.8,365956.5,718585.8,247884.8,718991.8,697277.4,0.0
221979.5,247067.1,718616.1,366069.8,718572.8,247884.5,718979.5,697590.3,0.0
219552.7,245797.7,718607.0,363974.8,718563.8,246751.0,718966.3,695495.5,0.0
217322.4,244648.0,718613.6,361736.6,718570.4,245744.8,718969.3,692770.9,0.0
219077.5,245507.9,718632.7,362704.7,718589.2,246496.6,718989.6,694048.9,0.0
222060.6,247065.9,718635.3,365135.6,718591.8,247872.9,718997.4,697284.9,0.0
221992.2,247069.7,718621.6,365255.8,718577.9,247878.2,718984.8,697604.6,0.0
219546.9,245781.6,718607.0,363139.1,718563.4,246726.2,718965.9,695489.6,0.0
217304.7,244616.5,718611.6,360890.0,718567.9,245706.9,718966.8,692756.1,0.0
219062.6,245480.4,718630.9,361864.8,718587.5,246463.8,718987.6,694043.7,0.0
222057.5,247046.9,718634.8,364306.5,718591.2,247847.9,718996.8,697288.3,0.0
221978.5,247038.4,718622.5,364430.3,718579.1,247851.9,718985.2,697605.5,0.0
219532.9,245751.7,718609.9,362318.5,718566.3,246701.4,718967.4,695490.1,0.0
217302.0,244597.8,718611.1,360073.0,718567.6,245682.7,718965.1,692754.8,0.0
219063.7,245464.9,718630.1,361050.7,718585.6,246437.7,718985.6,694042.9,0.0
222055.3,247029.9,718635.1,363489.9,718590.3,247818.2,718996.1,697285.7,0.0
221977.2,247021.9,718621.7,363612.2,718577.6,247816.4,718983.8,697597.1,0.0
219533.6,245738.3,718611.4,361511.4,718567.1,246669.2,718968.8,695473.8,0.0
217290.8,244570.9,718614.3,359264.9,718569.8,245644.0,718967.9,692732.3,0.0
219057.6,245440.0,718631.3,360246.8,718587.3,246397.7,718987.0,694035.4,0.0
222044.8,247000.1,718634.3,362690.1,718589.9,247780.5,718995.7,697275.3,0.0
221971.0,246997.3,718624.0,362821.3,718579.6,247789.0,718985.4,697594.3,0.0
219530.6,245715.8,718611.7,360720.1,718567.4,246640.3,718968.5,695467.1,0.0
217295.5,244549.9,718612.3,358479.2,718567.4,245616.7,718965.7,692732.0,0.0
219062.2,245416.7,718630.8,359466.2,718586.7,246371.3,718986.0,694041.8,0.0
222048.7,246979.5,718633.3,361907.7,718589.5,247744.3,718994.3,697275.6,0.0
221971.5,246979.7,718619.6,362036.1,718575.4,247745.9,718980.9,697589.1,0.0
219533.3,245707.3,718608.4,359943.9,718564.2,246607.6,718965.2,695470.4,0.0
217296.8,244545.6,718610.8,357705.8,718566.4,245586.4,718963.9,692734.1,0.0
219060.2,245406.3,718629.8,358691.3,718585.4,246336.8,718984.4,694038.8,0.0
222051.0,246982.8,718636.3,361149.3,718592.1,247724.0,718996.8,697280.1,0.0
221958.0,246987.4,718621.8,361272.2,718577.1,247724.7,718983.1,697576.9,0.0
219504.3,245694.8,718609.1,359163.3,718564.6,246572.3,718965.7,695438.8,0.0
217290.3,244529.8,718611.5,356937.6,718566.4,245560.0,718964.4,692714.7,0.0
219063.1,245390.2,718627.9,357926.0,718583.1,246316.1,718982.4,694025.3,0.0
222038.6,246950.5,718632.1,360364.8,718587.3,247685.9,718991.9,697260.8,0.0
221903.5,246916.8,718620.4,360454.8,718575.6,247654.8,718980.8,697530.8,0.0
219483.0,245645.8,718609.9,358376.5,718565.2,246522.9,718965.5,695416.6,0.0
217295.8,244501.6,718610.8,356178.4,718565.9,245525.8,718963.5,692713.1,0.0
219070.7,245368.6,718630.4,357181.7,718585.4,246285.8,718984.2,694030.3,0.0
222051.7,246932.3,718634.4,359637.4,718589.4,247665.4,718993.3,697271.4,0.0
221963.8,246922.1,718618.0,359763.1,718572.9,247661.5,718978.1,697573.8,0.0
219524.2,245642.4,718607.6,357671.0,718562.4,246519.5,718962.5,695449.8,0.0
217294.5,244481.0,718611.1,355443.9,718565.8,245505.4,718962.7,692719.2,0.0
219067.6,245347.8,718630.2,356442.0,718585.2,246263.4,718983.7,694033.3,0.0
222041.3,246904.4,718631.8,358888.4,718586.6,247636.2,718991.2,697264.9,0.0
221954.3,246899.4,718617.3,359022.6,718572.3,247637.0,718977.7,697572.3,0.0
219515.1,245619.6,718606.4,356933.1,718561.4,246493.8,718961.9,695445.9,0.0
217280.8,244453.7,718607.8,354702.9,718562.5,245472.5,718959.9,692708.3,0.0
219058.4,245327.0,718628.1,355711.4,718582.4,246233.6,718981.4,694027.9,0.0
222045.7,246897.5,718634.0,358173.8,718588.7,247619.2,718992.9,697272.9,0.0
221959.3,246889.5,718620.1,358307.1,718575.0,247616.1,718979.5,697578.9,0.0
219513.5,245603.3,718609.6,356220.9,718564.3,246473.5,718964.3,695455.3,0.0
217290.3,244451.2,718614.9,354007.5,718569.6,245463.1,718966.2,692729.1,0.0
219067.1,245319.6,718633.6,355020.5,718589.1,246223.1,718986.8,694049.1,0.0
222032.4,246863.9,718633.5,357465.8,718588.5,247586.1,718991.8,697274.4,0.0
221938.1,246847.4,718618.8,357594.9,718573.8,247578.7,718977.9,697572.1,0.0
219504.7,245574.3,718611.5,355518.7,718566.3,246442.5,718965.7,695453.0,0.0
217283.7,244420.9,718614.9,353310.3,718569.4,245435.7,718965.7,692729.7,0.0
219062.2,245288.6,718633.1,354323.7,718587.5,246198.7,718985.6,694048.6,0.0
222040.9,246844.5,718637.1,356777.8,718592.3,247571.6,718995.2,697280.3,0.0
221949.6,246830.7,718624.4,356915.6,718579.2,247572.4,718983.3,697586.0,0.0
219499.4,245546.4,718612.3,354827.8,718566.3,246425.4,718965.8,695453.3,0.0
217276.6,244397.4,718617.9,352619.6,718571.7,245417.2,718967.9,692730.1,0.0
219061.0,245274.0,718635.6,353642.4,718589.8,246179.7,718987.6,694054.1,0.0
222041.0,246834.3,718638.1,356106.3,718592.8,247556.8,718995.7,697290.5,0.0
221948.4,246822.9,718624.2,356244.4,718578.8,247552.5,718982.2,697593.8,0.0
219500.9,245538.6,718614.5,354165.6,718568.8,246412.1,718967.9,695468.8,0.0
217271.2,244380.6,718616.6,351952.3,718570.5,245395.0,718966.5,692736.9,0.0
219043.6,245245.7,718632.1,352964.1,718586.2,246144.0,718983.9,694048.2,0.0
222021.7,246802.3,718635.8,355429.2,718590.1,247521.3,718993.3,697285.6,0.0
221922.1,246783.9,718622.8,355567.3,718576.9,247518.4,718980.9,697586.4,0.0
219487.3,245517.8,718614.8,353496.5,718569.1,246384.3,718968.3,695467.9,0.0
217274.1,244373.3,718619.0,351303.1,718573.1,245385.3,718968.7,692754.7,0.0
219053.2,245239.0,718636.1,352323.8,718589.8,246143.0,718987.4,694073.9,0.0
222023.8,246788.1,718638.6,354781.0,718592.4,247511.1,718995.2,697302.3,0.0
221930.8,246770.5,718625.0,354921.6,718579.5,247507.7,718982.7,697604.5,0.0
219494.3,245495.4,718614.5,352842.0,718568.4,246363.6,718967.1,695474.9,0.0
217281.1,244348.0,718619.5,350648.0,718573.1,245361.6,718968.4,692760.1,0.0
219064.8,245215.3,718637.3,351677.3,718590.8,246124.8,718988.1,694086.2,0.0
222043.8,246776.1,718641.1,354142.7,718595.0,247500.8,718997.8,697320.0,0.0
221957.4,246774.7,718629.4,354291.8,718583.3,247502.9,718986.8,697626.1,0.0
219500.0,245481.4,718616.9,352204.3,718570.1,246351.5,718969.0,695488.7,0.0
217268.8,244317.8,718617.0,349989.7,718570.3,245330.0,718965.7,692751.5,0.0
219065.3,245199.1,718636.0,351029.0,718589.1,246101.2,718986.1,694084.6,0.0
222046.4,246761.1,718640.1,353501.6,718593.3,247480.8,718996.3,697323.6,0.0
221951.2,246750.7,718628.2,353643.8,718581.9,247478.5,718985.1,697625.6,0.0
219507.9,245475.2,718618.4,351569.1,718571.6,246337.0,718970.2,695511.3,0.0
217287.0,244321.9,718621.9,349371.8,718575.1,245327.5,718970.2,692786.9,0.0
219075.5,245194.0,718641.1,350406.3,718594.1,246089.2,718990.8,694092.0,0.0
222058.0,246757.6,718643.3,352877.8,718596.4,247466.6,718998.5,697329.4,0.0
221968.8,246754.2,718630.9,353028.9,718584.1,247469.9,718986.8,697635.0,0.0
219513.5,245467.2,718621.5,350951.7,718574.8,246324.6,718972.9,695514.3,0.0
217295.0,244320.0,718626.6,348758.8,718579.8,245320.6,718974.2,692792.2,0.0
219086.7,245199.8,718645.2,349799.0,718598.2,246086.1,718994.6,694097.6,0.0
222056.0,246752.4,718645.6,352260.8,718598.4,247452.4,719000.6,697320.3,0.0
221957.1,246732.9,718630.4,352397.7,718583.3,247439.5,718986.4,697612.4,0.0
219512.3,245451.3,718619.7,350325.0,718572.6,246295.0,718970.8,695495.9,0.0
217299.1,244301.0,718626.1,348137.8,718578.6,245293.2,718973.6,692780.8,0.0
219086.7,245174.9,718643.3,349180.3,718595.9,246059.1,718992.6,694089.8,0.0
222068.7,246740.1,718646.8,351655.3,718599.8,247436.8,719001.6,697325.6,0.0
221971.3,246725.6,718633.4,351799.7,718586.4,247433.2,718988.9,697621.9,0.0
219511.0,245429.4,718619.6,349716.7,718572.1,246279.4,718969.8,695478.5,0.0
217288.7,244268.5,718622.8,347521.0,718575.1,245264.7,718969.4,692751.1,0.0
219082.8,245140.0,718640.2,348567.0,718592.9,246027.5,718989.3,694082.8,0.0
222048.4,246687.1,718643.6,351034.2,718596.0,247394.8,718997.9,697310.4,0.0
221928.3,246663.5,718631.3,351157.5,718583.4,247374.0,718985.8,697585.1,0.0
219496.2,245390.7,718621.7,349095.7,718574.1,246237.2,718971.6,695472.0,0.0
217317.3,244266.4,718626.8,346942.4,718579.2,245251.5,718972.9,692781.6,0.0
219108.0,245138.1,718643.9,347991.3,718596.2,246015.2,718992.0,694093.1,0.0
222070.8,246681.4,718644.9,350463.5,718597.1,247382.4,718998.6,697319.8,0.0
221968.9,246669.8,718632.4,350612.7,718584.9,247379.1,718986.6,697616.1,0.0
219512.0,245382.5,718621.9,348539.6,718574.0,246232.3,718971.1,695482.7,0.0
217288.6,244229.4,718626.3,346346.7,718578.3,245220.2,718972.1,692758.4,0.0
219090.6,245113.1,718647.1,347403.7,718599.5,245992.8,718995.1,694099.3,0.0
222062.3,246667.1,718647.4,349879.6,718599.8,247362.2,719000.6,697328.4,0.0
221956.8,246647.3,718632.4,350028.6,718585.2,247352.2,718986.9,697619.3,0.0
219497.4,245359.0,718621.4,347957.2,718574.8,246204.4,718971.7,695483.3,0.0
217281.2,244208.0,718625.2,345773.7,718577.9,245196.1,718971.6,692765.6,0.0
219084.9,245092.2,718644.2,346836.0,718596.6,245967.9,718991.6,694107.8,0.0
222057.8,246648.5,718647.3,349313.6,718599.6,247342.2,718999.9,697338.9,0.0
221947.6,246625.5,718631.9,349456.7,718584.7,247331.7,718985.5,697624.6,0.0
219485.6,245333.6,718619.8,347382.1,718572.5,246182.3,718968.7,695482.4,0.0
217275.8,244188.8,718625.9,345208.8,718578.3,245179.2,718971.4,692771.6,0.0
219077.5,245071.4,718646.9,346274.3,718598.9,245952.2,718993.9,694115.9,0.0
222047.4,246625.8,718648.7,348751.9,718601.4,247327.0,719001.8,697348.2,0.0
221944.9,246611.7,718634.8,348902.5,718587.7,247324.5,718988.5,697641.6,0.0
219495.0,245332.8,718624.2,346834.5,718576.7,246178.3,718973.1,695517.3,0.0
217281.9,244184.4,718628.2,344653.7,718580.3,245169.9,718973.5,692794.9,0.0
219090.3,245066.7,718647.8,345719.9,718599.8,245942.2,718994.7,694115.5,0.0
222059.1,246619.9,718648.9,348198.8,718601.1,247313.1,719001.6,697343.7,0.0
221959.0,246607.1,718637.4,348353.6,718589.5,247310.7,718990.3,697638.9,0.0
219500.9,245318.6,718624.8,346285.2,718576.3,246162.2,718972.9,695513.6,0.0
217290.3,244170.8,718630.4,344113.7,718582.4,245160.3,718975.0,692800.3,0.0
219093.8,245050.8,718649.6,345179.3,718601.6,245931.0,718996.1,694115.9,0.0
222053.2,246592.9,718649.8,347654.4,718601.8,247294.7,719002.2,697335.7,0.0
221945.3,246573.1,718636.6,347807.0,718589.1,247287.9,718989.8,697626.9,0.0
219494.0,245292.3,718624.7,345740.9,718576.5,246139.5,718972.9,695489.6,0.0
217275.9,244134.6,718627.8,343564.3,718579.6,245130.8,718972.9,692769.1,0.0
219087.7,245019.8,718649.5,344636.1,718600.9,245904.7,718995.6,694113.9,0.0
222067.7,246584.5,718653.1,347127.2,718604.7,247283.3,719004.6,697352.3,0.0
221960.7,246570.1,718638.1,347281.6,718590.0,247278.7,718990.2,697645.0,0.0
219499.6,245282.6,718628.0,345214.0,718580.4,246129.4,718975.8,695505.9,0.0
217284.3,244130.7,718633.6,343036.7,718585.4,245120.7,718977.6,692785.4,0.0
219096.4,245016.5,718653.4,344112.6,718605.1,245897.8,718999.0,694133.4,0.0
222065.0,246570.8,718656.8,346599.6,718608.7,247272.9,719008.4,697363.9,0.0
221960.7,246558.6,718645.2,346755.5,718597.1,247267.2,718997.4,697655.6,0.0
219505.9,245274.0,718635.4,344695.9,718587.4,246124.7,718982.4,695533.1,0.0
217301.1,244127.5,718639.8,342533.1,718591.1,245126.8,718983.3,692821.7,0.0
219109.8,245012.1,718659.9,343607.4,718611.4,245900.8,719005.7,694145.8,0.0
222073.2,246565.0,718663.4,346093.3,718615.3,247272.7,719015.3,697374.4,0.0
221967.2,246551.7,718652.1,346253.8,718603.9,247268.3,719004.4,697667.1,0.0
219516.8,245270.0,718643.3,344198.0,718595.4,246128.3,718989.8,695560.4,0.0
217308.7,244123.2,718644.2,342027.4,718596.2,245121.0,718986.6,692840.2,0.0
219110.0,244998.0,718662.0,343097.3,718613.4,245887.2,719006.7,694133.0,0.0
222069.2,246543.3,718663.9,345576.7,718615.1,247251.3,719014.3,697354.6,0.0
221954.5,246515.4,718648.1,345723.1,718599.9,247232.1,718999.9,697632.7,0.0
219497.2,245222.2,718637.8,343663.4,718589.3,246084.4,718984.5,695493.9,0.0
217293.6,244078.7,718642.4,341500.3,718593.7,245080.5,718985.3,692778.3,0.0
219112.8,244971.8,718662.8,342587.7,718614.2,245856.8,719007.2,694128.4,0.0
222066.6,246515.6,718663.3,345068.8,718614.6,247221.8,719013.6,697350.5,0.0
221951.4,246494.7,718649.4,345225.0,718601.1,247213.1,719000.5,697639.0,0.0
219497.3,245211.4,718641.1,343166.4,718592.6,246068.0,718987.4,695500.4,0.0
217301.3,244075.5,718648.1,341010.1,718599.6,245073.1,718990.6,692794.1,0.0
219121.6,244975.2,718667.4,342100.2,718619.0,245855.2,719011.2,694150.4,0.0
222081.4,246524.4,718668.1,344589.8,718619.5,247226.2,719018.2,697378.4,0.0
221959.5,246490.3,718653.6,344735.5,718605.4,247206.9,719004.8,697655.6,0.0
219513.7,245213.2,718645.3,342683.4,718596.6,246066.0,718990.8,695535.2,0.0
217320.8,244074.7,718651.3,340532.9,718602.0,245073.7,718992.7,692828.8,0.0
219134.1,244957.3,718672.4,341619.1,718623.1,245849.9,719016.1,694156.8,0.0
222097.1,246510.6,718674.1,344106.5,718625.7,247217.4,719024.4,697380.3,0.0
221980.5,246483.3,718659.6,344261.2,718610.9,247204.0,719009.9,697663.1,0.0
219527.3,245195.5,718649.8,342202.2,718600.9,246056.8,718995.1,695522.3,0.0
217329.2,244053.6,718652.0,340044.5,718603.1,245055.1,718993.9,692810.1,0.0
219144.0,244942.3,718671.9,341135.7,718622.6,245834.3,719015.3,694163.1,0.0
222086.6,246478.3,718673.3,343614.9,718624.2,247195.5,719022.4,697377.9,0.0
221927.2,246425.2,718660.4,343733.1,718611.4,247154.7,719010.1,697623.4,0.0
219500.9,245158.7,718651.3,341692.1,718601.8,246019.3,718995.8,695508.6,0.0
217356.1,244060.8,718655.4,339579.2,718606.2,245051.9,718996.4,692832.6,0.0
219171.1,244952.7,718672.4,340671.5,718623.6,245830.4,719015.7,694160.9,0.0
222130.6,246505.4,718676.0,343164.7,718627.2,247201.6,719025.4,697386.4,0.0
222017.6,246483.0,718663.9,343326.7,718615.4,247191.6,719014.6,697671.9,0.0
219565.8,245198.2,718654.8,341275.6,718605.8,246048.3,718999.4,695547.8,0.0
217364.3,244055.0,718658.4,339123.7,718609.1,245050.5,718999.3,692835.8,0.0
219180.1,244944.3,718678.6,340219.2,718629.3,245830.1,719021.5,694169.4,0.0
222150.0,246507.3,718682.2,342718.5,718633.0,247204.3,719030.9,697401.1,0.0
222039.6,246490.0,718669.7,342881.2,718620.3,247197.6,719018.8,697686.9,0.0
219587.0,245202.5,718660.1,340828.9,718611.1,246049.9,719004.8,695560.6,0.0
217389.0,244054.4,718665.3,338677.1,718616.1,245047.4,719006.1,692848.3,0.0
219214.9,244946.0,718685.0,339780.2,718635.3,245830.7,719027.1,694185.1,0.0
222172.9,246493.6,718686.8,342273.9,718637.4,247197.0,719034.9,697408.0,0.0
222053.7,246465.6,718674.1,342431.2,718624.7,247182.3,719022.8,697686.9,0.0
219596.5,245179.6,718664.4,340379.6,718615.1,246033.9,719008.4,695557.4,0.0
217397.9,244039.8,718668.0,338234.5,718618.4,245034.9,719007.8,692845.8,0.0
219214.1,244928.3,718683.4,339327.5,718633.8,245809.4,719025.5,694173.8,0.0
222174.5,246479.3,718685.4,341818.6,718636.0,247176.2,719033.6,697397.3,0.0
222069.0,246466.8,718675.6,341986.9,718626.1,247175.1,719024.3,697688.6,0.0
219610.4,245176.1,718665.1,339935.8,718615.4,246029.6,719008.4,695560.4,0.0
217417.0,244040.1,718670.3,337792.4,718620.9,245034.0,719010.3,692855.8,0.0
219240.8,244937.7,718689.2,338896.4,718638.9,245817.9,719031.1,694193.3,0.0
222203.1,246495.4,718694.4,341396.4,718644.6,247193.6,719042.9,697422.8,0.0
222081.9,246478.4,718683.8,341559.1,718634.3,247186.3,719033.1,697707.6,0.0
219616.5,245190.5,718673.8,339504.6,718623.4,246040.4,719016.5,695591.1,0.0
217415.3,244051.3,718679.8,337359.0,718629.9,245045.4,719018.8,692882.8,0.0
219248.5,244955.5,718700.3,338472.1,718650.9,245835.9,719042.5,694210.6,0.0
222203.2,246508.8,718703.1,340967.8,718653.4,247206.4,719050.6,697439.6,0.0
222076.2,246479.7,718690.3,341117.5,718640.8,247185.4,719038.6,697713.6,0.0
219620.8,245195.3,718682.4,339066.9,718632.3,246039.2,719024.7,695599.9,0.0
217426.6,244057.3,718685.9,336924.9,718635.8,245042.8,719024.2,692895.9,0.0
219255.7,244956.4,718706.3,338033.8,718656.6,245830.0,719047.2,694235.6,0.0
222212.2,246507.6,718709.1,340528.2,718659.3,247197.9,719056.0,697440.1,0.0
222086.1,246478.6,718695.3,340682.4,718645.2,247178.9,719042.9,697700.0,0.0
219628.3,245193.8,718685.7,338633.4,718636.1,246032.1,719028.6,695571.8,0.0
217428.2,244050.0,718689.6,336487.3,718640.1,245029.9,719029.0,692860.8,0.0
219249.7,244943.0,718707.9,337592.3,718657.4,245809.6,719048.6,694197.1,0.0
222204.5,246496.3,718710.8,340090.7,718660.6,247176.2,719057.5,697420.9,0.0
222084.2,246478.4,718697.9,340253.2,718647.8,247161.8,719045.4,697700.9,0.0
219622.8,245194.7,718687.8,338204.9,718637.5,246014.3,719030.0,695572.6,0.0
217427.9,244059.3,718694.4,336066.9,718643.9,245023.7,719032.9,692867.4,0.0
219252.7,244951.7,718711.9,337177.5,718661.3,245805.6,719052.2,694205.3,0.0
222197.7,246488.9,718712.3,339668.6,718661.8,247165.9,719058.3,697421.5,0.0
222071.8,246462.0,718698.8,339824.6,718648.7,247146.3,719046.4,697693.3,0.0
219611.2,245172.5,718687.5,337769.1,718637.3,245991.3,719029.8,695542.9,0.0
217424.4,244039.6,718693.0,335633.9,718642.6,244999.8,719031.4,692842.1,0.0
219271.8,244953.6,718716.6,336762.9,718665.9,245799.8,719056.6,694221.5,0.0
222227.0,246501.1,718717.3,339260.0,718667.0,247165.9,719063.2,697441.4,0.0
222099.9,246471.9,718702.6,339413.7,718652.3,247146.3,719049.4,697710.8,0.0
219641.5,245184.4,718692.3,337363.2,718641.8,245997.0,719033.6,695577.9,0.0
217457.3,244051.9,718698.3,335228.7,718647.7,245006.2,719035.4,692875.5,0.0
219286.1,244947.7,718718.5,336343.6,718668.1,245791.2,719058.3,694216.8,0.0
222241.1,246499.3,718719.3,338842.1,718668.9,247156.5,719064.9,697438.4,0.0
222113.0,246476.6,718704.8,338996.7,718654.8,247135.9,719051.3,697708.1,0.0
219643.6,245184.4,718693.9,336943.5,718644.1,245984.1,719036.1,695558.7,0.0
217448.4,244041.2,718700.2,334805.5,718649.8,244989.8,719037.8,692852.9,0.0
219283.0,244939.6,718717.8,335926.1,718667.4,245776.8,719056.9,694219.1,0.0
222243.0,246496.8,718720.0,338431.4,718669.7,247147.8,719064.9,697444.1,0.0
222113.0,246468.4,718707.9,338590.2,718657.0,247130.4,719053.3,697714.8,0.0
219657.7,245185.5,718698.1,336544.4,718647.1,245985.6,719038.3,695585.8,0.0
217463.6,244043.2,718701.4,334407.5,718650.6,244988.5,719037.9,692880.4,0.0
219291.1,244932.0,718718.9,335522.2,718668.3,245767.4,719058.0,694219.0,0.0
222251.7,246488.4,718722.3,338026.7,718671.6,247135.5,719067.2,697442.4,0.0
222120.8,246460.5,718710.8,338185.7,718659.9,247116.7,719056.2,697714.9,0.0
219651.9,245166.8,718699.8,336132.8,718649.2,245964.5,719040.2,695578.2,0.0
217458.4,244028.1,718702.1,333997.9,718651.4,244969.5,719038.9,692869.9,0.0
219301.6,244938.4,718719.1,335126.4,718668.8,245761.1,719057.8,694220.4,0.0
222254.9,246494.3,718723.4,337634.7,718673.3,247134.0,719068.4,697449.0,0.0
222124.3,246469.2,718711.4,337799.4,718661.4,247120.5,719057.4,697725.4,0.0
219651.9,245174.4,718699.6,335748.8,718649.8,245968.3,719040.4,695589.6,0.0
217472.4,244046.5,718705.1,333620.3,718654.9,244973.7,719041.7,692886.3,0.0
219305.3,244942.8,718723.0,334741.4,718672.6,245757.5,719061.6,694228.3,0.0
222235.2,246475.0,718723.9,337229.5,718673.4,247112.2,719068.0,697434.4,0.0
222065.6,246424.7,718713.1,337354.8,718662.5,247070.6,719058.0,697672.3,0.0
219631.9,245152.1,718703.9,335324.4,718653.3,245935.6,719043.4,695553.9,0.0
217485.7,244042.9,718709.1,333233.3,718658.1,244969.9,719044.6,692885.8,0.0
219327.4,244949.7,718728.9,334361.9,718678.0,245757.7,719066.8,694235.5,0.0
222268.3,246486.5,718729.9,336858.3,718679.1,247117.4,719073.9,697450.6,0.0
222138.4,246452.0,718717.3,337021.1,718666.2,247097.9,719061.8,697718.6,0.0
219681.3,245166.5,718708.2,334981.9,718657.2,245953.6,719047.6,695588.9,0.0
217499.4,244036.6,718714.2,332860.6,718663.0,244966.5,719049.5,692889.7,0.0
219335.8,244939.5,718732.6,333990.5,718681.1,245755.5,719070.5,694256.9,0.0
222285.7,246492.2,718734.3,336495.2,718683.6,247120.4,719078.1,697460.5,0.0
222143.5,246455.8,718722.6,336654.0,718671.8,247099.0,719066.8,697715.4,0.0
219686.5,245170.8,718715.2,334615.6,718664.3,245957.7,719054.3,695575.9,0.0
217509.3,244043.5,718718.4,332493.2,718667.6,244969.9,719053.9,692879.0,0.0
219349.9,244950.6,718736.4,333624.8,718685.3,245759.7,719073.4,694268.4,0.0
222287.9,246488.7,718739.1,336125.6,718687.8,247119.6,719082.1,697463.6,0.0
222149.3,246450.9,718724.5,336288.7,718673.4,247098.2,719068.1,697717.3,0.0
219686.5,245161.5,718714.6,334251.9,718663.4,245954.5,719053.3,695588.0,0.0
217508.3,244034.8,718720.4,332130.6,718669.1,244965.7,719055.0,692890.9,0.0
219348.1,244938.7,718739.3,333258.8,718688.0,245750.9,719076.1,694238.0,0.0
222296.9,246487.4,718741.5,335764.3,718690.7,247117.0,719084.7,697460.4,0.0
222171.3,246465.6,718730.1,335932.8,718679.3,247103.9,719074.0,697735.8,0.0
219706.8,245175.3,718720.8,333888.8,718670.3,245952.9,719059.3,695611.7,0.0
217526.0,244045.8,718725.5,331771.5,718674.9,244966.8,719060.4,692913.3,0.0
219363.4,244945.9,718743.7,332905.8,718692.8,245755.8,719080.8,694238.1,0.0
222307.6,246490.0,718745.3,335413.8,718694.3,247119.1,719088.4,697458.8,0.0
222161.2,246446.0,718731.4,335571.5,718680.5,247093.9,719074.9,697721.4,0.0
219702.3,245157.9,718721.4,333527.5,718670.3,245943.0,719059.8,695586.3,0.0
217527.6,244032.5,718724.3,331405.8,718673.1,244952.4,719058.8,692887.5,0.0
219379.5,244944.9,718747.2,332551.4,718695.7,245749.7,719083.6,694266.9,0.0
222323.9,246490.1,718749.8,335056.8,718698.5,247112.7,719092.3,697465.0,0.0
222178.9,246451.8,718734.8,335213.3,718683.6,247086.1,719078.0,697712.3,0.0
219706.4,245158.4,718724.1,333166.1,718672.8,245933.0,719062.2,695559.5,0.0
217527.5,244030.6,718733.2,331054.4,718681.5,244951.8,719067.2,692869.1,0.0
219379.3,244943.1,718752.6,332197.4,718701.1,245748.0,719088.8,694267.9,0.0
222319.0,246484.1,718752.8,334700.4,718701.9,247108.7,719095.5,697464.5,0.0
222174.5,246446.4,718737.6,334857.7,718686.9,247082.3,719080.6,697713.8,0.0
219720.9,245164.9,718730.3,332826.7,718679.6,245940.2,719068.4,695589.3,0.0
217541.7,244031.8,718735.1,330711.4,718684.0,244949.3,719069.3,692892.9,0.0
219379.5,244929.4,718755.4,331848.5,718704.1,245735.4,719091.3,694242.4,0.0
222324.9,246476.3,718756.9,334355.4,718705.6,247095.5,719098.7,697456.0,0.0
222190.8,246450.4,718744.2,334523.7,718693.1,247077.1,719086.9,697725.1,0.0
219725.7,245159.6,718732.6,332482.3,718681.6,245926.1,719070.1,695575.5,0.0
217551.5,244033.4,718737.8,330370.8,718685.9,244942.0,719071.6,692884.3,0.0
219396.2,244940.5,718755.0,331512.9,718703.3,245734.5,719090.3,694279.8,0.0
222337.0,246483.3,718756.6,334018.6,718705.2,247095.3,719097.9,697475.9,0.0
222197.7,246449.7,718745.5,334182.2,718694.2,247074.5,719087.8,697728.8,0.0
219738.7,245166.3,718737.2,332148.2,718685.6,245931.7,719074.0,695598.5,0.0
217555.0,244031.5,718740.1,330031.3,718688.3,244940.1,719073.3,692897.1,0.0
219404.1,244938.0,718758.4,331174.5,718707.4,245731.3,719093.6,694268.8,0.0
222350.7,246481.5,718760.0,333684.1,718708.7,247092.9,719100.9,697466.8,0.0
222209.3,246446.2,718747.3,333847.8,718696.3,247070.2,719089.4,697716.3,0.0
219740.3,245155.1,718737.6,331806.9,718686.9,245920.0,719075.3,695565.3,0.0
217560.8,244027.3,718741.8,329690.8,718690.3,244928.1,719075.6,692868.2,0.0
219411.3,244934.6,718760.7,330835.0,718709.3,245720.3,719096.4,694245.6,0.0
222363.6,246484.4,718765.4,333350.3,718714.1,247088.2,719106.5,697466.3,0.0
222226.5,246451.2,718752.6,333515.0,718701.3,247066.5,719094.0,697729.9,0.0
219756.5,245159.8,718742.4,331474.1,718691.1,245916.0,719078.6,695578.6,0.0
217572.1,244025.5,718746.8,329358.8,718695.6,244927.5,719080.1,692881.4,0.0
219419.2,244931.0,718762.7,330503.6,718711.5,245718.3,719097.8,694257.1,0.0
222365.8,246473.4,718765.6,333016.0,718714.6,247082.3,719106.4,697475.3,0.0
222230.5,246444.1,718755.1,333183.5,718703.8,247064.2,719096.6,697742.8,0.0
219765.8,245155.0,718743.7,331143.8,718692.5,245915.6,719080.1,695604.8,0.0
217581.5,244022.4,718746.8,329029.1,718695.1,244925.0,719079.1,692903.7,0.0
219431.0,244932.3,718767.1,330176.8,718715.6,245718.1,719101.4,694279.4,0.0
222373.4,246477.9,718769.4,332688.5,718717.9,247082.1,719109.9,697476.8,0.0
222233.0,246444.7,718757.1,332854.5,718705.6,247062.7,719098.5,697726.4,0.0
219763.6,245150.9,718745.3,330812.4,718693.6,245913.1,719081.9,695573.4,0.0
217591.7,244027.8,718752.0,328710.7,718700.6,244934.5,719084.8,692889.4,0.0
219439.5,244931.4,718768.8,329859.3,718717.3,245725.6,719103.1,694267.8,0.0
222380.2,246475.5,718772.3,332368.8,718720.8,247089.7,719112.2,697479.1,0.0
222198.8,246412.2,718760.7,332496.9,718709.1,247041.5,719101.2,697704.4,0.0
219746.8,245126.4,718750.3,330461.9,718698.3,245893.6,719085.6,695554.9,0.0
217615.3,244026.6,718754.4,328390.6,718702.1,244933.5,719085.7,692893.3,0.0
219473.0,244941.0,718775.2,329552.0,718723.3,245733.5,719108.8,694301.8,0.0
222404.7,246475.7,718774.6,332055.4,718723.0,247085.2,719114.4,697490.1,0.0
222251.5,246434.2,718760.3,332212.9,718708.6,247055.3,719100.4,697731.6,0.0
219785.2,245147.3,718750.0,330180.3,718697.7,245910.0,719085.0,695585.0,0.0
217609.7,244016.5,718752.9,328072.9,718700.7,244921.8,719084.6,692892.8,0.0
219470.1,244932.9,718774.2,329234.6,718722.4,245724.4,719108.1,694299.8,0.0
222407.3,246471.2,718774.2,331741.8,718722.5,247081.1,719113.7,697491.7,0.0
222252.2,246421.6,718760.6,331898.2,718708.8,247050.4,719100.6,697730.9,0.0
219783.0,245128.4,718750.7,329857.0,718698.6,245897.7,719085.4,695574.8,0.0
217612.0,244005.5,718755.9,327753.0,718703.5,244913.3,719087.1,692884.9,0.0
219471.5,244918.7,718774.0,328910.2,718722.0,245709.0,719107.4,694287.9,0.0
222411.8,246458.0,718774.3,331417.9,718722.1,247065.2,719113.1,697480.3,0.0
222272.5,246421.6,718763.5,331584.0,718711.4,247041.9,719102.8,697728.1,0.0
219809.1,245133.1,718754.0,329545.7,718701.7,245893.4,719088.1,695574.3,0.0
217638.1,244006.8,718757.2,327443.0,718704.4,244909.2,719087.9,692886.3,0.0
219494.2,244915.9,718774.9,328601.5,718722.5,245702.4,719108.1,694293.9,0.0
222431.3,246457.8,718776.4,331108.2,718724.6,247058.1,719115.4,697485.5,0.0
222278.0,246417.9,718760.4,331262.7,718708.2,247023.9,719100.0,697721.6,0.0
219805.1,245121.7,718749.5,329222.1,718697.1,245869.1,719084.0,695564.3,0.0
217641.1,244003.0,718754.0,327122.3,718701.9,244886.3,719085.1,692877.8,0.0
219501.4,244913.7,718772.9,328284.8,718721.1,245684.2,719105.8,694287.3,0.0
222438.6,246454.8,718774.4,330793.8,718722.4,247043.9,719112.8,697482.3,0.0
222292.0,246416.6,718762.1,330954.4,718709.8,247017.0,719101.1,697722.6,0.0
219821.3,245120.5,718752.8,328918.7,718700.6,245868.6,719086.8,695569.3,0.0
217651.2,243997.3,718756.9,326818.3,718704.6,244887.9,719086.9,692883.2,0.0
219517.8,244917.5,718777.7,327988.5,718725.3,245692.9,719109.6,694299.1,0.0
222463.7,246467.7,718782.2,330509.1,718729.9,247060.3,719119.9,697501.5,0.0
222308.3,246426.8,718771.6,330674.2,718719.7,247034.7,719110.3,697744.8,0.0
219827.9,245126.6,718761.4,328632.9,718709.0,245879.3,719094.8,695585.6,0.0
217655.7,244002.7,718765.4,326530.5,718712.7,244891.8,719095.1,692891.5,0.0
219521.5,244910.7,718784.2,327700.6,718731.8,245690.2,719115.9,694301.4,0.0
222451.6,246435.0,718782.9,330206.7,718730.6,247039.6,719120.3,697484.0,0.0
222293.7,246384.5,718769.6,330361.8,718717.0,247006.1,719107.7,697716.1,0.0
219822.7,245090.3,718757.1,328320.2,718705.0,245850.5,719090.3,695553.8,0.0
217641.0,243950.8,718757.1,326210.8,718704.6,244854.5,719086.7,692853.9,0.0
219506.2,244858.0,718775.6,327379.4,718722.7,245653.2,719107.3,694266.8,0.0
222457.9,246411.7,718778.3,329898.3,718725.9,247017.9,719115.9,697468.2,0.0
222304.1,246372.7,718766.6,330061.6,718714.3,246989.4,719104.6,697708.2,0.0
219827.5,245076.9,718756.9,328020.6,718704.6,245833.8,719089.9,695544.8,0.0
217661.2,243950.8,718761.9,325924.4,718708.9,244852.9,719091.3,692856.9,0.0
219542.6,244874.7,718780.4,327108.1,718727.6,245660.6,719112.0,694280.0,0.0
222491.3,246421.6,718782.4,329635.1,718730.3,247027.7,719120.2,697487.2,0.0
222330.0,246378.1,718772.1,329798.9,718719.8,247001.6,719110.4,697730.4,0.0
219834.6,245070.3,718760.9,327745.7,718708.6,245836.7,719094.0,695560.5,0.0
217664.1,243946.1,718762.4,325642.8,718710.0,244845.8,719091.9,692867.1,0.0
219559.4,244889.7,718781.9,326840.0,718729.6,245663.8,719113.1,694304.9,0.0
222498.5,246443.1,718783.3,329368.1,718730.9,247031.1,719120.6,697513.3,0.0
222317.3,246384.0,718768.1,329512.7,718715.8,246986.7,719106.3,697736.1,0.0
219838.6,245082.8,718760.3,327473.5,718707.9,245831.0,719093.1,695577.0,0.0
217700.4,243970.5,718768.5,325400.8,718715.6,244862.5,719097.7,692910.3,0.0
219599.5,244905.2,718788.9,326606.1,718736.3,245684.2,719119.9,694353.5,0.0
222536.9,246452.0,718784.9,329128.5,718732.6,247042.5,719121.6,697554.5,0.0
222344.8,246394.4,718769.4,329268.1,718717.3,246992.5,719107.1,697773.2,0.0
219843.5,245087.9,718763.6,327215.2,718711.4,245827.0,719096.3,695597.4,0.0
217694.3,243973.3,718768.8,325133.4,718715.6,244852.9,719097.6,692921.8,0.0
219623.4,244931.8,718788.7,326361.8,718735.7,245690.7,719118.9,694390.4,0.0
222567.0,246484.1,718790.0,328906.8,718737.6,247064.0,719126.6,697614.9,0.0
222361.1,246414.4,718773.6,329043.3,718720.8,247012.5,719110.8,697831.3,0.0
219843.1,245094.8,718761.8,326969.8,718709.3,245831.0,719093.1,695649.3,0.0
217702.8,243986.8,718767.3,324892.5,718714.6,244860.4,719094.4,692977.8,0.0
219649.1,244963.4,718786.0,326140.1,718733.7,245712.8,719116.4,694481.4,0.0
222609.8,246543.2,718786.6,328704.7,718734.5,247106.1,719123.0,697685.9,0.0
222402.5,246489.0,718774.1,328851.5,718722.1,247068.0,719111.6,697894.6,0.0
219864.1,245157.2,718766.3,326768.9,718714.0,245887.2,719098.1,695723.6,0.0
217731.2,244046.9,718769.4,324692.4,718716.7,244917.4,719096.7,693053.1,0.0
219707.1,245030.2,718783.8,325963.4,718731.1,245782.8,719114.1,694552.5,0.0
222711.4,246634.3,718785.6,328570.1,718733.3,247205.1,719122.2,697799.5,0.0
222503.2,246580.4,718774.1,328724.9,718721.6,247172.3,719111.6,698019.4,0.0
219948.0,245241.7,718767.7,326633.3,718715.1,245983.4,719099.8,695848.9,0.0
217843.5,244160.8,718775.4,324588.9,718722.4,245039.7,719102.9,693210.9,0.0
219845.6,245179.2,718792.6,325894.8,718740.1,245934.7,719123.1,694742.4,0.0
222798.3,246749.7,718792.1,328468.8,718739.3,247330.2,719128.4,697939.1,0.0
222458.1,246593.5,718775.2,328508.6,718722.3,247209.0,719112.1,698040.4,0.0
219870.1,245215.7,718765.4,326371.9,718712.9,245985.5,719097.3,695827.2,0.0
217769.7,244131.0,718770.3,324319.6,718717.7,245035.0,719097.9,693180.8,0.0
219774.3,245149.3,718789.3,325620.1,718736.6,245925.4,719119.9,694703.9,0.0
222741.0,246730.9,718790.4,328205.6,718737.8,247329.5,719127.2,697908.8,0.0
222435.7,246603.4,718776.9,328278.7,718724.3,247228.9,719113.7,698039.3,0.0
219773.1,245178.5,718765.4,326083.4,718712.9,245958.4,719096.1,695754.9,0.0
217620.4,244045.9,718771.3,323968.3,718718.5,244963.2,719098.2,693044.1,0.0
219664.4,245076.1,718791.8,325279.9,718739.3,245864.5,719122.4,694600.7,0.0
222677.2,246685.1,718794.3,327891.2,718741.5,247286.8,719130.6,697828.3,0.0
222354.3,246544.0,718780.1,327945.0,718727.4,247173.0,719116.6,697938.4,0.0
219694.6,245117.6,718769.3,325747.7,718716.6,245903.0,719100.3,695622.9,0.0
217602.6,244024.7,718776.3,323680.3,718723.3,244940.2,719103.3,692955.6,0.0
219734.0,245121.3,718797.6,325065.8,718744.8,245892.5,719127.3,694630.3,0.0
222806.5,246781.9,718796.0,327739.7,718743.1,247357.8,719132.2,697924.1,0.0
222530.5,246693.2,718781.7,327855.2,718728.6,247288.5,719118.3,698096.3,0.0
219870.0,245282.6,718771.3,325675.5,718717.9,246030.8,719101.9,695839.5,0.0
217773.1,244197.1,718773.4,323623.7,718719.8,245078.9,719100.0,693190.1,0.0
219871.9,245274.3,718792.4,325005.2,718739.1,246022.6,719123.1,694808.1,0.0
222849.5,246868.0,718791.1,327611.4,718738.2,247434.2,719128.0,698012.4,0.0
222435.1,246675.0,718775.9,327603.8,718723.0,247277.2,719112.3,698061.3,0.0
219633.9,245156.1,718766.8,325288.6,718714.6,245927.9,719098.3,695626.8,0.0
217420.0,243970.5,718773.4,323106.0,718720.8,244884.7,719101.1,692849.7,0.0
219449.1,244973.6,718793.4,324377.8,718740.8,245751.6,719121.9,694373.8,0.0
222364.0,246492.2,718794.5,326883.7,718742.1,247094.9,719128.9,697561.1,0.0
221892.6,246230.2,718781.4,326780.2,718728.6,246874.0,719116.4,697550.9,0.0
219077.0,244673.0,718770.1,324400.1,718717.0,245478.0,719099.3,694960.0,0.0
216898.6,243487.5,718772.3,322188.9,718718.9,244409.8,719098.2,692186.2,0.0
218992.2,244517.9,718792.0,323472.1,718738.8,245283.8,719119.6,693738.6,0.0
221993.8,246092.8,718793.1,326017.0,718740.1,246657.1,719126.2,697002.4,0.0
221604.1,245876.0,718777.0,325959.8,718724.3,246468.3,719110.3,697058.8,0.0
218915.2,244399.3,718768.3,323677.1,718715.4,245144.6,719095.6,694493.4,0.0
216924.4,243348.9,718775.4,321636.3,718722.4,244201.6,719100.6,691926.3,0.0
219195.0,244517.5,718796.3,323094.8,718743.4,245197.4,719122.9,693678.6,0.0
222266.4,246158.3,718796.6,325740.7,718743.3,246634.7,719128.6,697035.9,0.0
221834.7,245943.0,718779.5,325698.5,718726.4,246451.5,719112.2,697108.8,0.0
219021.0,244404.2,718771.0,323353.2,718717.9,245083.9,719097.1,694484.8,0.0
216901.6,243268.5,718774.8,321215.4,718721.6,244073.2,719098.7,691825.3,0.0
219082.7,244371.0,718792.9,322590.3,718739.7,245009.1,719117.9,693462.0,0.0
222095.1,245963.6,718791.1,325174.2,718737.9,246399.5,719122.0,696780.3,0.0
221606.2,245701.1,718776.8,325071.4,718723.7,246173.7,719108.1,696814.4,0.0
218753.0,244123.4,718767.9,322672.4,718714.6,244765.2,719093.3,694056.9,0.0
216656.8,242994.6,718772.8,320537.2,718719.5,243756.2,719096.1,691480.1,0.0
218902.8,244133.7,718793.6,321953.8,718740.1,244721.8,719118.3,693173.6,0.0
221959.5,245759.1,718795.4,324563.7,718742.4,246134.1,719125.4,696523.9,0.0
221467.3,245495.6,718781.0,324452.9,718728.0,245904.9,719110.6,696561.6,0.0
218617.1,243921.1,718771.7,322053.3,718718.9,244499.6,719094.9,693763.3,0.0
216566.5,242820.7,718778.4,319948.2,718724.9,243513.9,719099.8,691261.2,0.0
218865.9,243995.4,718797.4,321408.2,718744.0,244507.4,719120.4,692987.5,0.0
221961.2,245652.0,718798.3,324063.4,718745.3,245949.1,719127.1,696384.0,0.0
221463.4,245395.8,718780.9,323962.3,718727.4,245722.4,719109.6,696444.1,0.0
218600.5,243818.1,718765.9,321552.3,718713.1,244303.6,719088.2,693618.8,0.0
216590.9,242729.0,718774.9,319481.4,718721.6,243339.3,719095.5,691178.6,0.0
218955.8,243928.3,718798.9,321008.8,718745.7,244376.6,719121.2,692977.0,0.0
222054.8,245609.6,718799.8,323692.3,718746.8,245837.7,719127.6,696392.4,0.0
221534.0,245373.8,718784.1,323596.8,718730.9,245618.2,719111.8,696446.3,0.0
218654.9,243793.9,718775.9,321196.2,718722.9,244204.6,719097.3,693602.4,0.0
216643.6,242705.8,718782.8,319137.3,718728.9,243255.8,719102.6,691190.3,0.0
219039.6,243933.3,718800.8,320681.6,718747.4,244308.9,719122.6,693017.6,0.0
222155.3,245621.8,718800.5,323387.4,718747.0,245782.1,719127.4,696465.4,0.0
221620.6,245374.8,718783.9,323294.1,718730.8,245565.0,719111.3,696529.6,0.0
218720.2,243784.0,718771.7,320879.5,718718.4,244146.4,719091.9,693694.4,0.0
216729.1,242728.3,718780.6,318843.3,718726.6,243211.5,719099.6,691278.8,0.0
219141.2,243984.8,718803.2,320435.3,718749.1,244296.8,719124.3,693151.4,0.0
222284.4,245698.3,718803.2,323174.8,718749.7,245797.2,719130.4,696619.5,0.0
221735.0,245435.0,718788.6,323078.4,718735.1,245577.2,719115.8,696671.4,0.0
218804.9,243826.7,718777.1,320650.7,718723.1,244147.5,719097.1,693863.1,0.0
216813.5,242774.1,718784.9,318619.9,718730.6,243215.2,719103.6,691402.3,0.0
219259.8,244062.1,718806.3,320242.7,718752.8,244323.4,719126.9,693312.3,0.0
222380.5,245767.8,718807.0,322983.9,718754.0,245821.0,719133.7,696774.1,0.0
221755.1,245455.3,718790.8,322833.9,718737.4,245559.5,719117.4,696756.9,0.0
218834.5,243844.3,718780.1,320406.1,718726.9,244131.1,719099.6,693964.8,0.0
216905.5,242825.0,718786.9,318427.5,718733.7,243232.6,719104.8,691531.8,0.0
219382.3,244134.3,718807.8,320087.6,718754.3,244365.4,719127.7,693488.0,0.0
222526.6,245861.9,718807.1,322860.6,718754.0,245886.4,719133.8,696971.3,0.0
221917.9,245562.9,718790.0,322733.8,718737.3,245642.4,719116.8,696971.1,0.0
218946.8,243929.6,718781.2,320281.7,718728.3,244197.2,719101.3,694178.9,0.0
216979.1,242895.7,718790.0,318277.3,718736.6,243277.1,719108.1,691694.5,0.0
219477.7,244218.7,718809.9,319954.9,718756.3,244415.5,719129.8,693691.0,0.0
222640.7,245957.2,718810.8,322747.6,718757.1,245947.2,719136.6,697162.9,0.0
222013.5,245647.2,718794.7,322616.5,718740.9,245697.9,719120.4,697128.4,0.0
219016.5,243994.0,718784.6,320148.3,718730.8,244239.6,719103.5,694341.0,0.0
217050.0,242955.5,718791.4,318147.4,718737.9,243324.0,719108.7,691843.3,0.0
219581.8,244303.9,718811.3,319852.9,718757.6,244487.7,719131.0,693878.4,0.0
222746.0,246046.2,718812.3,322649.1,718758.2,246023.8,719137.6,697341.0,0.0
222089.2,245720.6,718795.6,322497.2,718741.8,245760.4,719121.1,697278.4,0.0
219060.6,244046.5,718783.8,320005.3,718730.1,244283.8,719102.9,694491.3,0.0
217110.8,243021.5,718792.3,318020.0,718738.4,243379.2,719109.2,691987.8,0.0
219667.4,244384.6,718814.8,319754.2,718760.7,244558.0,719133.8,694038.1,0.0
222833.6,246131.3,718815.4,322558.6,718761.6,246096.6,719140.7,697510.2,0.0
222153.6,245797.6,718798.2,322395.8,718744.4,245823.1,719123.1,697442.7,0.0
219112.9,244125.1,718788.5,319898.5,718734.7,244343.3,719107.3,694690.9,0.0
217167.4,243105.8,718795.6,317917.7,718741.4,243438.9,719111.8,692157.4,0.0
219749.0,244486.8,718816.9,319673.4,718762.9,244632.5,719135.5,694227.9,0.0
222912.0,246234.2,718815.7,322482.2,718761.9,246172.3,719141.1,697685.7,0.0
222207.4,245881.6,718797.1,322302.7,718743.1,245885.0,719122.4,697590.0,0.0
219141.7,244188.2,718787.3,319785.2,718733.3,244390.7,719106.4,694820.8,0.0
217208.3,243170.4,718796.4,317814.2,718742.1,243493.1,719112.6,692298.4,0.0
219808.8,244562.3,718815.5,319587.3,718761.9,244701.6,719134.5,694424.8,0.0
222979.7,246315.3,718813.6,322403.6,718759.6,246250.4,719139.3,697851.1,0.0
222262.3,245960.4,718798.1,322219.5,718744.2,245962.5,719123.5,697730.2,0.0
219181.9,244261.6,718788.9,319693.2,718734.9,244463.8,719107.3,694989.8,0.0
217251.3,243250.7,718797.4,317726.8,718743.0,243569.3,719113.3,692442.9,0.0
219868.6,244655.7,718816.8,319512.7,718762.3,244785.9,719135.4,694575.2,0.0
223048.4,246417.8,718818.1,322338.5,718764.0,246345.0,719143.6,697992.5,0.0
222297.3,246038.3,718803.0,322130.5,718748.9,246040.9,719127.7,697844.1,0.0
219180.9,244309.2,718788.9,319573.2,718735.1,244518.0,719107.4,695080.2,0.0
217266.9,243295.0,718798.1,317610.2,718743.6,243625.4,719113.5,692550.9,0.0
219927.8,244710.6,718819.5,319426.8,718765.3,244859.7,719138.2,694738.4,0.0
223119.3,246483.1,718820.3,322264.7,718766.1,246426.9,719145.6,698139.8,0.0
222342.0,246103.3,718800.5,322039.1,718746.1,246111.0,719125.1,697963.6,0.0
219217.3,244384.4,718790.8,319482.2,718736.0,244589.6,719109.2,695211.2,0.0
217312.8,243376.9,718799.3,317539.9,718744.7,243713.6,719114.3,692677.1,0.0
219981.5,244791.9,718819.1,319364.6,718765.4,244953.8,719137.3,694871.6,0.0
223170.6,246554.1,718817.0,322192.5,718763.2,246509.2,719142.0,698245.1,0.0
222387.6,246167.2,718799.1,321961.9,718744.9,246188.8,719123.9,698061.8,0.0
219241.5,244427.1,718789.9,319391.4,718735.5,244657.6,719107.7,695325.9,0.0
217328.6,243416.0,718798.2,317446.6,718743.7,243774.5,719112.7,692791.4,0.0
220021.9,244867.2,718818.0,319291.9,718763.6,245026.6,719135.8,695004.8,0.0
223223.4,246648.7,718817.8,322141.0,718763.8,246596.9,719142.6,698363.4,0.0
222424.8,246247.0,718803.0,321906.7,718749.4,246273.6,719127.7,698167.6,0.0
219255.3,244483.2,718789.3,319318.3,718735.6,244725.9,719107.3,695428.6,0.0
217355.2,243483.3,718796.1,317383.5,718742.0,243848.3,719110.4,692893.2,0.0
220072.8,244951.6,718820.6,319257.0,718766.4,245125.0,719137.8,695121.3,0.0
223269.4,246725.6,718818.3,322102.8,718764.0,246690.9,719142.6,698483.9,0.0
222456.9,246313.2,718795.8,321848.9,718741.5,246348.4,719119.9,698272.0,0.0
219287.4,244548.9,718783.9,319262.4,718730.1,244802.8,719102.3,695556.6,0.0
217406.4,243562.5,718795.7,317356.5,718741.6,243949.5,719110.4,693052.3,0.0
220143.5,245049.7,718817.6,319246.3,718763.8,245237.0,719135.9,695313.2,0.0
223334.1,246822.2,718815.3,322086.5,718761.4,246799.0,719140.9,698621.4,0.0
222508.4,246401.3,718799.1,321831.3,718745.3,246458.9,719124.1,698401.7,0.0
219330.3,244634.8,718789.3,319240.7,718735.4,244910.0,719107.1,695698.4,0.0
217454.0,243652.2,718797.2,317335.9,718743.3,244050.3,719111.4,693191.2,0.0
220183.4,245121.8,718819.1,319221.3,718764.8,245328.9,719136.9,695432.0,0.0
223383.6,246898.1,718819.4,322062.5,718765.0,246894.9,719144.5,698742.6,0.0
222535.6,246454.8,718798.5,321789.2,718744.3,246538.8,719123.0,698504.9,0.0
219347.9,244681.0,718787.3,319195.7,718733.6,244985.8,719105.0,695839.3,0.0
217474.8,243706.1,718796.2,317299.7,718742.0,244133.0,719109.4,693342.3,0.0
220201.9,245180.9,718816.1,319180.3,718761.6,245407.8,719134.1,695531.5,0.0
223382.9,246950.6,718815.3,322005.9,718760.9,246963.5,719140.1,698805.5,0.0
222544.2,246524.4,718798.3,321736.2,718744.0,246618.3,719122.8,698575.0,0.0
219354.8,244750.4,718787.9,319140.7,718733.9,245069.6,719105.6,695932.1,0.0
217467.9,243750.3,718793.3,317229.8,718738.9,244202.7,719106.1,693437.1,0.0
220195.5,245218.1,718814.5,319103.5,718760.3,245472.6,719132.2,695606.8,0.0
223357.7,246971.0,718812.3,321902.1,718757.6,247010.8,719136.8,698861.6,0.0
222456.7,246504.7,718798.3,321571.5,718743.6,246624.1,719122.4,698577.3,0.0
219304.5,244758.8,718789.6,318992.8,718734.9,245087.9,719107.4,695950.0,0.0
217493.1,243823.8,718799.1,317152.0,718744.7,244278.9,719112.1,693530.9,0.0
220218.9,245297.0,718821.1,319036.3,718766.9,245559.3,719138.7,695728.9,0.0
223374.5,247039.0,718815.4,321828.3,718761.4,247088.4,719140.1,698948.1,0.0
222521.0,246594.3,718796.2,321535.8,718742.3,246724.4,719119.9,698698.4,0.0
219345.2,244839.0,718789.7,318957.1,718735.6,245188.3,719107.3,696086.8,0.0
217483.1,243876.6,718800.4,317079.0,718746.2,244348.6,719113.4,693633.9,0.0
220203.5,245350.0,718823.4,318953.1,718768.9,245618.1,719140.9,695796.1,0.0
223360.3,247091.2,718821.5,321744.6,718767.3,247147.8,719146.3,699013.6,0.0
222517.2,246646.5,718804.7,321459.1,718750.4,246791.3,719128.4,698768.1,0.0
219364.2,244897.2,718799.6,318890.6,718744.8,245264.1,719116.6,696179.9,0.0
217503.3,243921.7,718809.0,317009.8,718754.5,244417.9,719121.0,693741.6,0.0
220206.4,245368.3,718826.9,318867.1,718772.6,245670.6,719144.1,695882.6,0.0
223353.9,247093.2,718823.3,321639.8,718768.9,247186.0,719147.9,699060.3,0.0
222519.6,246658.0,718806.8,321352.2,718752.6,246829.3,719130.9,698817.3,0.0
219350.1,244895.8,718794.7,318771.0,718740.4,245286.6,719111.6,696240.0,0.0
217478.9,243914.2,718800.7,316884.8,718746.3,244434.2,719111.6,693817.9,0.0
220160.4,245354.1,718818.2,318715.0,718763.6,245667.4,719135.1,695887.2,0.0
223292.4,247080.0,718813.4,321467.9,718758.8,247169.5,719137.8,699045.3,0.0
222492.4,246671.1,718798.1,321206.1,718744.0,246831.8,719121.8,698826.3,0.0
219403.5,244969.4,718790.1,318698.2,718735.9,245345.5,719107.3,696336.8,0.0
217555.5,244012.6,718799.5,316848.0,718744.9,244518.6,719109.8,693976.0,0.0
220171.2,245409.6,718820.4,318640.5,718766.1,245725.8,719137.3,695968.0,0.0
223245.5,247084.6,718818.8,321343.6,718764.3,247194.8,719142.6,699048.2,0.0
222478.9,246694.2,718803.1,321099.7,718748.6,246871.5,719125.9,698842.0,0.0
219426.2,245015.1,718791.8,318623.2,718737.6,245405.5,719109.1,696382.1,0.0
217575.3,244058.7,718802.6,316778.3,718748.6,244583.6,719112.9,694032.9,0.0
220149.8,245420.8,718821.7,318533.8,718767.4,245762.9,719138.0,695995.3,0.0
223214.1,247078.3,718817.3,321213.1,718762.7,247215.9,719141.1,699053.3,0.0
222460.2,246679.9,718801.9,320971.8,718747.3,246894.5,719124.6,698848.6,0.0
219442.6,245021.4,718793.8,318521.4,718739.1,245447.3,719110.3,696419.3,0.0
217587.6,244056.6,718798.7,316674.9,718743.9,244615.3,719108.6,694078.5,0.0
220166.4,245422.9,718820.5,318436.9,718765.8,245799.5,719136.5,696019.8,0.0
223228.6,247078.6,718819.3,321113.1,718764.4,247248.7,719142.0,699071.5,0.0
222474.9,246686.7,718802.9,320869.8,718748.0,246925.2,719125.1,698868.6,0.0
219456.0,245031.5,718793.8,318423.3,718739.3,245484.8,719110.2,696462.4,0.0
217625.4,244092.6,718800.9,316605.5,718746.4,244683.0,719109.0,694187.4,0.0
220214.3,245474.3,718822.9,318377.4,718768.4,245878.4,719138.9,696091.3,0.0
223273.3,247139.8,718823.3,321052.0,718768.7,247331.4,719146.7,699140.2,0.0
222498.3,246743.5,718806.0,320795.2,718751.7,247002.3,719128.9,698928.6,0.0
219461.6,245078.9,718794.3,318334.4,718739.8,245552.3,719110.6,696532.1,0.0
217628.8,244132.1,718801.6,316513.6,718747.3,244745.7,719106.8,694339.8,0.0
220198.2,245480.8,718820.8,318256.9,718765.9,245918.6,719135.8,696081.9,0.0
223239.3,247114.6,718819.5,320898.7,718765.0,247351.4,719142.6,699073.9,0.0
222471.4,246701.4,718802.9,320629.0,718748.3,247016.9,719125.5,698851.3,0.0
219456.2,245041.5,718794.1,318179.0,718739.9,245579.4,719110.6,696450.1,0.0
217626.8,244088.4,718801.6,316357.5,718747.6,244776.3,719110.0,694181.1,0.0
220198.3,245444.9,718822.8,318100.6,718768.0,245957.1,719138.4,696062.5,0.0
223224.7,247075.4,718820.1,320726.3,718764.9,247384.3,719143.1,699066.4,0.0
222462.6,246677.5,718805.3,320459.8,718750.6,247061.1,719127.7,698850.4,0.0
219468.8,245041.7,718800.3,318028.8,718745.5,245644.0,719116.0,696486.4,0.0
217662.3,244112.9,718810.1,316230.6,718755.8,244858.7,719115.4,694304.4,0.0
220226.3,245463.8,718828.1,317968.4,718773.4,246030.0,719143.2,696070.4,0.0
223241.9,247087.2,718825.3,320584.9,718770.6,247448.5,719148.4,699045.5,0.0
222479.3,246683.5,718807.4,320318.5,718752.6,247117.6,719129.4,698824.9,0.0
219490.9,245045.3,718795.8,317895.1,718741.2,245691.4,719111.4,696462.3,0.0
217697.2,244125.6,718805.1,316116.5,718750.8,244910.8,719110.2,694300.4,0.0
220268.0,245484.6,718830.2,317870.1,718775.6,246093.5,719145.0,696081.4,0.0
223296.5,247123.2,718828.6,320497.4,718774.1,247521.5,719151.3,699062.6,0.0
222546.3,246731.7,718811.7,320245.3,718756.5,247202.8,719133.5,698854.4,0.0
219567.3,245105.4,718802.0,317842.2,718746.8,245793.3,719117.4,696528.3,0.0
217766.3,244182.4,718809.6,316070.1,718755.3,245011.9,719110.6,694755.4,0.0
220323.8,245538.5,718834.3,317816.7,718779.5,246184.7,719148.3,696331.8,0.0
223325.6,247161.5,718833.8,320423.1,718778.6,247593.1,719155.7,698799.9,0.0
222584.4,246781.1,718817.2,320182.0,718762.5,247276.6,719138.7,698587.6,0.0
219632.4,245175.4,718806.8,317805.2,718751.8,245877.7,719122.1,696239.4,0.0
217846.6,244268.8,718815.4,316058.1,718760.3,245112.4,719124.3,694007.5,0.0
220361.0,245597.8,718835.6,317778.5,718780.8,246266.5,719151.1,695950.8,0.0
223327.3,247199.3,718835.4,320358.5,718780.4,247661.0,719157.4,698915.5,0.0
222548.4,246790.6,718816.1,320077.9,718760.9,247318.0,719137.8,698681.1,0.0
219686.3,245243.5,718808.1,317773.7,718752.8,245976.3,719123.8,696456.6,0.0
217948.4,244377.7,718815.7,316082.7,718760.9,245252.1,719118.9,694773.3,0.0
220393.4,245667.7,718836.0,317752.9,718780.8,246370.9,719150.9,696285.9,0.0
223309.8,247234.0,718835.7,320285.8,718780.9,247738.2,719158.5,698689.1,0.0
222620.0,246882.7,718824.6,320076.8,718769.9,247453.8,719146.4,698510.9,0.0
219769.3,245347.5,718818.8,317787.3,718763.8,246122.5,719135.3,696253.2,0.0
217970.0,244432.1,718823.9,316040.4,718768.5,245352.9,719133.4,694025.0,0.0
220389.5,245694.2,718840.1,317680.1,718784.8,246449.0,719155.5,695880.3,0.0
223297.3,247251.3,718839.2,320195.7,718784.1,247805.0,719161.7,698808.9,0.0
222583.6,246879.0,718825.9,319954.6,718770.4,247497.9,719147.5,698615.3,0.0
219710.9,245329.5,718819.9,317647.2,718764.8,246156.4,719135.8,696370.3,0.0
217887.5,244405.0,718826.9,315886.1,718772.3,245378.0,719133.8,694201.4,0.0
220251.2,245630.8,718845.0,317476.8,718789.9,246436.8,719159.8,695873.7,0.0
223114.5,247153.0,718844.5,319938.7,718788.9,247747.5,719166.1,698724.9,0.0
222423.3,246803.4,718828.1,319711.2,718773.2,247420.1,719149.8,698503.3,0.0
219592.4,245264.9,718819.2,317436.4,718764.1,246067.1,719135.1,696222.8,0.0
217797.1,244324.8,718827.8,315686.9,718772.6,245286.1,719136.8,693966.1,0.0
220161.9,245529.1,718844.6,317270.6,718789.7,246336.4,719159.4,695729.9,0.0
223006.3,247027.4,718844.3,319704.4,718789.3,247628.6,719166.1,698583.8,0.0
222331.2,246671.0,718829.8,319460.8,718774.8,247313.0,719151.1,698374.1,0.0
219533.0,245153.8,718818.8,317187.3,718763.8,245987.6,719134.3,696121.1,0.0
217736.9,244222.4,718824.8,315424.2,718769.6,245201.4,719133.9,693869.5,0.0
220068.8,245405.4,718843.3,316964.2,718788.3,246224.6,719157.9,695647.4,0.0
222919.6,246912.7,718843.9,319383.9,718788.5,247514.0,719165.0,698503.5,0.0
222275.9,246569.2,718831.1,319159.4,718775.9,247217.3,719151.9,698312.0,0.0
219519.3,245071.2,718820.4,316922.8,718765.2,245914.4,719135.6,696086.1,0.0
217743.4,244160.7,718825.9,315194.4,718770.8,245146.6,719134.7,693848.8,0.0
220058.6,245353.8,718847.0,316738.4,718791.8,246171.8,719161.1,695600.8,0.0
222867.3,246834.5,718843.1,319123.8,718788.1,247435.0,719164.1,698448.8,0.0
222230.9,246503.5,718827.7,318895.8,718772.5,247139.7,719148.1,698264.0,0.0
219501.2,245037.8,718821.5,316687.4,718766.1,245864.6,719135.4,696071.4,0.0
217726.7,244124.3,718825.7,314974.5,718770.7,245106.2,719133.9,693854.0,0.0
220035.2,245305.4,718846.3,316515.3,718790.8,246125.7,719159.9,695599.2,0.0
222840.5,246776.1,718845.1,318894.5,718789.7,247386.1,719165.4,698430.9,0.0
222216.2,246444.9,718830.6,318675.3,718775.2,247095.2,719150.4,698242.4,0.0
219503.3,244987.1,718820.9,316477.8,718765.4,245822.6,719134.6,696055.4,0.0
217758.0,244108.7,718830.0,314791.2,718774.6,245085.9,719137.4,693867.3,0.0
220055.0,245287.9,718849.8,316329.4,718794.8,246107.7,719162.9,695618.7,0.0
222848.2,246748.9,718846.8,318697.2,718791.9,247363.1,719166.9,698448.9,0.0
222225.4,246421.7,718828.8,318480.1,718773.8,247073.0,719148.4,698263.4,0.0
219530.4,244985.7,718821.1,316310.4,718765.6,245819.7,719134.9,696106.9,0.0
217803.5,244131.8,718832.8,314654.7,718777.1,245102.8,719139.8,693963.1,0.0
220097.5,245316.7,718850.4,316192.2,718794.9,246122.8,719163.3,695703.6,0.0
222868.4,246762.7,718846.2,318539.1,718791.1,247365.5,719165.8,698481.9,0.0
222249.8,246436.8,718830.2,318323.3,718774.8,247080.8,719149.3,698298.4,0.0
219573.2,245008.0,718818.8,316168.7,718763.8,245835.7,719133.0,696167.8,0.0
217852.3,244142.3,718825.9,314522.1,718770.6,245114.5,719132.8,694040.8,0.0
220151.2,245323.7,718847.4,316070.9,718791.6,246137.7,719160.2,695754.4,0.0
222925.7,246779.8,718846.0,318430.0,718790.8,247389.0,719166.0,698535.3,0.0
222319.2,246468.8,718830.3,318227.3,718774.9,247113.7,719149.4,698362.7,0.0
219662.2,245065.0,718822.5,316097.8,718766.9,245888.8,719135.8,696290.1,0.0
217944.3,244212.5,718826.1,314461.6,718771.2,245176.5,719128.2,694299.8,0.0
220197.4,245363.3,718844.2,315976.3,718788.5,246178.8,719155.7,695823.3,0.0
222931.7,246794.7,718843.4,318296.3,718787.8,247408.4,719162.8,698516.9,0.0
222314.1,246477.1,718830.5,318086.9,718775.4,247130.6,719149.4,698335.1,0.0
219663.1,245075.5,718823.0,315969.4,718767.3,245909.9,719135.9,696270.6,0.0
217931.4,244214.2,718826.1,314334.3,718770.6,245189.5,719128.2,694252.0,0.0
220153.7,245350.3,718845.4,315825.5,718789.5,246169.0,719156.6,695755.7,0.0
222857.3,246758.9,718847.3,318114.3,718792.0,247375.4,719166.6,698452.0,0.0
222256.6,246445.5,718834.3,317904.0,718779.2,247099.9,719152.9,698275.8,0.0
219653.5,245069.4,718828.0,315818.8,718772.7,245905.3,719140.9,696243.1,0.0
217954.5,244226.9,718831.9,314208.2,718777.1,245206.2,719134.8,694253.3,0.0
220132.6,245325.5,718845.9,315657.5,718790.9,246150.2,719157.4,695719.4,0.0
222796.7,246695.5,718846.3,317906.6,718790.6,247318.4,719165.0,698374.4,0.0
222200.3,246375.9,718832.3,317700.7,718776.4,247032.3,719150.3,698192.1,0.0
219619.7,245020.9,718822.8,315634.3,718767.5,245850.1,719135.6,696154.9,0.0
217928.4,244199.9,718827.9,314038.3,718772.6,245157.9,719132.8,694111.4,0.0
220101.9,245307.4,718845.6,315498.8,718790.4,246109.5,719157.5,695695.8,0.0
222749.2,246669.2,718847.4,317738.9,718792.2,247280.8,719166.3,698362.8,0.0
222134.2,246338.1,718834.6,317503.7,718779.4,246983.0,719153.0,698165.6,0.0
219612.3,245021.7,718824.9,315478.3,718769.6,245827.9,719137.0,696202.3,0.0
217995.3,244248.3,718826.1,313948.1,718771.7,245181.9,719122.7,694680.1,0.0
220179.2,245370.1,718844.9,315425.0,718789.8,246153.8,719155.2,696006.6,0.0
222821.3,246740.8,718847.0,317664.1,718791.6,247327.8,719165.7,698106.8,0.0
222242.3,246437.5,718832.4,317465.8,718777.1,247058.0,719150.4,697917.8,0.0
219723.5,245118.0,718824.4,315457.6,718769.2,245917.5,719136.9,695923.3,0.0
218073.7,244315.6,718827.4,313909.9,718772.1,245261.8,719133.7,693889.4,0.0
220249.5,245437.7,718845.2,315383.8,718789.7,246231.4,719156.7,695615.4,0.0
222877.4,246816.8,718850.4,317623.6,718794.7,247412.6,719168.4,698313.1,0.0
222281.4,246524.0,718836.2,317421.9,718780.6,247146.9,719153.8,698156.1,0.0
219745.4,245203.5,718824.7,315401.0,718769.3,245994.4,719136.5,696209.9,0.0
218095.8,244408.6,718827.8,313852.6,718773.1,245331.8,719125.1,694683.4,0.0
220254.5,245522.8,718849.8,315317.2,718794.6,246295.9,719160.1,696014.1,0.0
222845.1,246864.5,718845.4,317515.1,718790.0,247438.7,719163.9,698090.1,0.0
222248.0,246558.0,718835.0,317317.1,718779.6,247177.0,719152.5,697914.7,0.0
219722.2,245234.7,718828.6,315307.7,718773.4,246038.8,719140.6,695924.6,0.0
218068.0,244429.8,718836.3,313760.8,718780.6,245385.7,719142.2,693889.4,0.0
220191.4,245514.4,718852.2,315185.4,718796.4,246316.8,719163.5,695551.3,0.0
222748.4,246830.7,718848.5,317350.0,718792.4,247438.2,719166.1,698200.1,0.0
222144.4,246512.9,718833.6,317123.2,718777.7,247154.1,719150.9,698021.4,0.0
219636.2,245197.8,718827.8,315113.8,718771.4,246015.6,719139.4,696045.5,0.0
217995.1,244395.5,718834.0,313562.9,718777.9,245358.1,719138.7,694032.3,0.0
220079.2,245440.4,718850.3,314954.2,718794.7,246266.5,719161.1,695624.7,0.0
222608.5,246737.1,718849.9,317082.7,718794.5,247364.5,719167.5,698208.0,0.0
222001.0,246410.4,718838.5,316846.3,718783.3,247076.0,719155.9,698010.9,0.0
219523.4,245105.0,718830.6,314848.3,718775.0,245945.0,719142.3,696038.4,0.0
217882.4,244299.5,718833.1,313281.1,718777.6,245270.4,719138.1,693997.8,0.0
219914.4,245307.1,718851.7,314619.7,718796.3,246139.0,719162.3,695516.5,0.0
222356.1,246518.8,718849.5,316661.9,718794.3,247170.8,719166.6,698038.6,0.0
221749.7,246169.2,718830.4,316380.6,718774.8,246843.1,719146.4,697796.4,0.0
219360.6,244915.9,718824.2,314422.4,718767.9,245742.8,719134.3,695841.9,0.0
217759.6,244136.8,718834.2,312887.9,718777.9,245098.3,719138.6,693800.3,0.0
219731.6,245098.5,718850.8,314173.8,718795.4,245925.9,719160.4,695285.3,0.0
222137.8,246280.9,718848.9,316176.3,718793.6,246926.6,719164.6,697817.9,0.0
221600.9,245973.8,718833.2,315943.1,718777.7,246635.5,719147.8,697622.0,0.0
219316.0,244786.0,718824.0,314060.4,718768.2,245585.4,719133.1,695711.1,0.0
217750.5,244028.8,718829.3,312549.7,718773.7,244951.4,719133.4,693660.7,0.0
219689.7,244970.9,718842.6,313809.8,718786.9,245758.4,719151.1,695152.5,0.0
222090.0,246157.4,718843.9,315811.3,718787.7,246768.2,719158.3,697714.2,0.0
221632.5,245906.9,718836.3,315643.2,718779.8,246531.4,719150.3,697585.3,0.0
219396.0,244747.8,718828.2,313817.3,718772.6,245521.4,719137.3,695734.8,0.0
217845.4,244012.0,718836.9,312343.7,718781.2,244918.4,719139.9,693730.1,0.0
219751.6,244939.1,718849.8,313599.8,718793.9,245719.3,719157.8,695205.9,0.0
222137.5,246115.3,718849.5,315599.9,718793.3,246722.4,719163.8,697733.1,0.0
221662.2,245850.8,718837.4,315429.3,718781.3,246478.5,719151.3,697591.2,0.0
219457.1,244722.9,718831.8,313633.5,718775.9,245491.9,719140.3,695765.1,0.0
217878.1,243960.7,718829.1,312122.3,718773.4,244848.4,719131.8,693713.6,0.0
219732.4,244863.0,718844.8,313342.0,718788.3,245627.6,719151.9,695139.6,0.0
222055.8,245996.8,718844.6,315287.9,718788.4,246592.8,719158.5,697644.6,0.0
221639.6,245774.7,718840.8,315158.9,718784.7,246385.2,719154.3,697548.9,0.0
219501.3,244695.4,718833.2,313424.0,718777.1,245439.3,719141.6,695790.1,0.0
217925.6,243953.2,718835.6,311952.1,718779.6,244832.6,719137.9,693796.8,0.0
219706.0,244820.5,718849.8,313127.6,718793.9,245581.3,719156.3,695161.9,0.0
222009.8,245954.5,718850.1,315054.5,718793.8,246535.3,719162.8,697652.3,0.0
221618.8,245742.3,718839.6,314933.2,718783.6,246329.9,719152.1,697564.8,0.0
219527.9,244695.1,718833.4,313228.6,718777.0,245409.0,719140.5,695841.5,0.0
217958.6,243958.4,718836.2,311758.8,718779.9,244806.5,719137.3,693854.4,0.0
219718.1,244798.5,718851.7,312920.1,718795.3,245546.4,719157.1,695168.4,0.0
222002.6,245901.8,718852.2,314838.7,718796.0,246492.9,719164.3,697638.6,0.0
221604.1,245679.7,718836.3,314702.8,718780.4,246276.8,719147.8,697529.4,0.0
219496.9,244626.0,718828.4,312987.3,718772.3,245351.6,719135.3,695786.3,0.0
217935.7,243900.8,718830.8,311524.3,718774.8,244753.1,719131.8,693800.5,0.0
219748.0,244787.6,718846.4,312722.2,718790.1,245517.0,719152.1,695204.4,0.0
222063.6,245928.3,718844.2,314667.7,718787.9,246482.5,719156.5,697683.8,0.0
221653.5,245712.4,718830.3,314546.4,718773.9,246269.8,719142.3,697577.7,0.0
219556.0,244686.2,718831.0,312864.4,718774.8,245353.5,719138.1,695850.3,0.0
218012.0,243971.3,718842.3,311439.2,718786.0,244773.3,719143.4,693891.7,0.0
219834.6,244847.3,718856.6,312660.3,718800.4,245546.8,719161.9,695270.0,0.0
222142.9,245976.0,718849.7,314618.6,718793.1,246509.6,719161.3,697744.0,0.0
221691.3,245736.9,718831.1,314476.3,718774.8,246280.6,719142.4,697620.6,0.0
219564.2,244671.9,718825.8,312752.8,718769.6,245337.9,719132.4,695877.2,0.0
218057.8,243988.9,718836.4,311340.5,718780.0,244776.6,719136.4,693960.3,0.0
219892.6,244893.9,718852.2,312576.0,718795.8,245568.3,719157.4,695345.6,0.0
222185.4,246017.5,718848.1,314531.3,718791.8,246532.5,719159.4,697830.3,0.0
221708.8,245752.4,718832.3,314367.8,718775.6,246286.5,719142.9,697687.6,0.0
219587.8,244683.8,718823.0,312649.0,718766.1,245346.8,719128.3,695971.3,0.0
218064.4,243988.8,718831.3,311235.1,718775.6,244783.3,719127.6,694133.8,0.0
219919.2,244924.0,718859.3,312508.8,718803.0,245607.0,719163.2,695438.0,0.0
222262.0,246091.5,718860.1,314498.3,718803.7,246599.8,719171.3,697910.8,0.0
221757.9,245821.5,718836.0,314316.8,718779.2,246339.8,719146.8,697762.3,0.0
219562.6,244719.7,718828.8,312547.6,718772.3,245370.7,719134.6,696013.6,0.0
217975.9,243972.9,718833.4,311075.3,718777.0,244764.3,719129.7,694110.1,0.0
219823.6,244885.2,718849.8,312325.3,718793.3,245565.3,719153.8,695418.7,0.0
222142.6,246033.8,718845.9,314296.8,718789.9,246540.6,719157.1,697879.4,0.0
221693.6,245796.9,718834.3,314156.9,718778.1,246315.3,719144.8,697762.7,0.0
219518.9,244701.6,718830.4,312401.3,718774.6,245354.0,719136.1,696011.0,0.0
217943.7,243953.9,718832.3,310917.3,718777.0,244732.7,719129.9,694070.8,0.0
219808.5,244871.2,718849.4,312166.1,718793.5,245528.2,719153.6,695400.0,0.0
222143.2,246034.4,718851.0,314158.1,718795.3,246524.6,719161.6,697887.8,0.0
221675.6,245774.8,718836.5,314005.3,718780.8,246286.8,719146.9,697759.4,0.0
219478.0,244647.1,718828.0,312222.9,718772.5,245298.4,719133.6,695960.5,0.0
217924.9,243918.2,718834.4,310762.8,718778.8,244695.1,719133.4,693995.9,0.0
219778.2,244832.0,718847.6,312013.8,718791.4,245488.8,719151.6,695407.3,0.0
222124.9,246004.8,718848.3,314012.8,718791.8,246489.1,719158.3,697913.3,0.0
221659.0,245756.0,718836.5,313864.7,718780.1,246257.4,719145.8,697794.9,0.0
219465.8,244638.5,718829.8,312088.0,718773.2,245276.7,719133.8,696028.5,0.0
217908.7,243903.0,718834.4,310613.5,718778.1,244662.5,719130.1,694111.3,0.0
219786.3,244833.9,718852.3,311873.7,718795.8,245467.2,719155.0,695422.5,0.0
222129.3,246002.6,718852.5,313871.4,718796.2,246467.2,719161.9,697909.2,0.0
221660.4,245750.5,718838.7,313721.6,718782.6,246235.6,719148.0,697783.8,0.0
219461.6,244631.7,718833.4,311943.1,718777.3,245254.8,719137.6,695995.6,0.0
217884.9,243886.7,718835.2,310457.1,718779.2,244634.4,719132.0,694017.1,0.0
219753.2,244820.8,718853.4,311717.8,718797.4,245441.4,719156.1,695411.3,0.0
222078.7,245983.3,718848.9,313698.2,718792.6,246422.0,719157.9,697895.6,0.0
221605.8,245732.9,718835.2,313546.8,718778.8,246186.9,719143.9,697769.0,0.0
219405.2,244612.1,718828.6,311763.6,718772.6,245206.1,719132.0,695987.1,0.0
217855.1,243887.0,718836.8,310302.6,718780.8,244610.7,719131.8,694065.1,0.0
219730.8,244821.3,718851.8,311566.6,718795.1,245417.1,719153.9,695410.4,0.0
222070.3,245998.6,718850.8,313569.8,718794.5,246419.8,719160.1,697913.5,0.0
221610.7,245756.6,718841.0,313432.3,718785.1,246199.0,719149.7,697803.2,0.0
219419.1,244646.0,718837.8,311656.1,718781.4,245223.3,719141.1,696033.9,0.0
217858.3,243912.2,718839.6,310181.9,718783.8,244612.0,719134.4,694111.8,0.0
219739.2,244850.6,718852.7,311455.9,718796.6,245423.3,719154.6,695436.6,0.0
222083.2,246031.1,718852.3,313469.7,718796.0,246427.8,719161.3,697941.6,0.0
221618.8,245789.0,718840.0,313332.8,718783.8,246202.9,719148.8,697828.0,0.0
219419.3,244674.1,718832.7,311549.9,718776.9,245223.2,719136.5,696054.4,0.0
217859.0,243938.7,718836.9,310072.3,718781.6,244611.3,719131.1,694148.1,0.0
219762.5,244895.8,718850.3,311362.2,718794.3,245435.0,719152.5,695477.0,0.0
222114.8,246080.7,718848.5,313383.3,718792.3,246444.6,719157.3,697959.1,0.0
221644.8,245832.9,718836.9,313240.6,718781.0,246216.6,719145.1,697836.3,0.0
219422.7,244692.4,718827.1,311438.9,718771.6,245220.0,719130.1,696037.2,0.0
217866.5,243963.5,718830.7,309962.0,718775.3,244609.1,719125.2,694111.0,0.0
219779.5,244928.5,718850.2,311270.1,718793.9,245447.2,719151.9,695484.7,0.0
222123.0,246105.5,718849.4,313291.7,718793.3,246455.8,719158.0,697972.7,0.0
221636.9,245842.3,718832.9,313133.8,718776.6,246213.7,719141.1,697835.3,0.0
219426.3,244711.5,718828.6,311336.9,718772.3,245224.9,719131.0,696041.9,0.0
217872.4,243975.9,718830.3,309855.6,718774.3,244609.9,719124.1,694110.2,0.0
219783.6,244931.4,718845.4,311155.8,718789.4,245436.1,719146.4,695473.6,0.0
222135.9,246117.1,718846.2,313191.7,718789.9,246449.8,719153.8,697967.6,0.0
221646.4,245851.7,718832.3,313050.5,718776.2,246212.2,719139.9,697834.1,0.0
219427.2,244716.2,718824.6,311256.8,718768.3,245214.1,719127.4,696026.2,0.0
217888.2,243994.7,718833.1,309794.1,718777.4,244609.9,719127.3,694086.9,0.0
219821.7,244966.1,718850.8,311113.2,718794.9,245452.0,719152.1,695492.8,0.0
222181.0,246152.5,718847.8,313156.7,718791.6,246470.4,719155.8,698002.9,0.0
221696.8,245895.9,718835.0,313015.7,718778.8,246234.1,719142.8,697877.1,0.0
219472.2,244762.3,718831.9,311217.6,718775.6,245240.8,719134.3,696077.1,0.0
217900.8,244014.7,718832.7,309721.9,718776.6,244614.8,719126.2,694129.1,0.0
219838.4,244986.1,718848.6,311048.7,718792.1,245462.6,719149.5,695518.4,0.0
222224.0,246198.6,718850.4,313120.6,718793.6,246504.0,719158.2,698053.4,0.0
221732.6,245947.0,718839.2,312977.9,718782.8,246266.9,719146.5,697927.7,0.0
219471.4,244785.0,718830.5,311147.3,718774.3,245246.9,719132.6,696100.7,0.0
217913.5,244046.5,718834.0,309663.4,718777.9,244633.2,719126.8,694181.4,0.0
219855.5,245016.2,718846.2,310990.9,718789.8,245474.4,719146.9,695544.7,0.0
222216.2,246211.5,718842.5,313046.6,718786.4,246500.4,719150.5,698061.4,0.0
221670.2,245917.4,718830.5,312862.8,718774.3,246237.8,719138.2,697901.6,0.0
219436.5,244768.2,718823.8,311040.9,718767.6,245225.2,719125.8,696090.4,0.0
217924.4,244060.3,718828.2,309589.1,718772.3,244633.2,719119.5,694235.8,0.0
219890.4,245054.3,718845.6,310942.2,718789.3,245495.1,719145.6,695571.5,0.0
222284.8,246274.0,718843.7,313033.3,718787.7,246542.7,719151.6,698107.9,0.0
221776.1,246005.0,718831.4,312889.5,718775.2,246304.1,719138.7,697983.1,0.0
219493.1,244822.9,718824.9,311042.2,718768.4,245275.4,719126.2,696162.4,0.0
217947.8,244093.1,718829.8,309560.0,718773.9,244667.8,719115.2,694659.4,0.0
219934.1,245102.9,718844.9,310928.8,718788.3,245545.2,719143.8,695887.3,0.0
222354.1,246349.9,718846.9,313050.4,718789.9,246623.6,719154.3,697894.3,0.0
221837.9,246078.2,718832.1,312904.5,718775.6,246382.5,719138.8,697746.4,0.0
219541.6,244891.7,718825.3,311048.9,718768.8,245347.3,719127.3,695862.9,0.0
217980.3,244150.3,718831.1,309559.6,718774.6,244733.9,719127.3,693838.8,0.0
219980.8,245164.9,718843.6,310942.7,718786.8,245615.8,719144.5,695432.2,0.0
222414.2,246420.3,718843.4,313079.4,718786.8,246698.3,719150.8,698083.6,0.0
221895.3,246153.1,718829.1,312943.6,718772.5,246465.0,719136.3,697978.1,0.0
219589.7,244966.9,718822.6,311080.9,718766.3,245429.0,719124.1,696136.8,0.0
218029.1,244222.2,718825.7,309577.4,718770.0,244804.2,719116.4,694243.9,0.0
220055.0,245257.9,718841.4,310984.1,718784.9,245707.2,719140.9,695656.1,0.0
222504.4,246525.8,718842.7,313145.0,718786.2,246808.8,719149.6,698247.4,0.0
221979.1,246260.7,718832.1,313011.0,718775.9,246581.1,719139.2,698140.5,0.0
219638.2,245050.7,718825.7,311132.1,718769.0,245535.4,719127.3,696296.2,0.0
218062.6,244292.2,718825.3,309614.3,718768.8,244900.3,719115.8,694763.0,0.0
220107.7,245339.1,718838.8,311033.8,718782.2,245811.2,719139.4,696047.2,0.0
222558.8,246616.1,718838.7,313207.5,718782.3,246922.1,719146.8,698115.3,0.0
222015.1,246342.6,718829.8,313064.5,718772.9,246687.0,719137.4,697982.5,0.0
219634.2,245096.3,718818.2,311132.9,718761.6,245594.7,719120.3,696038.6,0.0
218052.8,244337.3,718823.4,309606.3,718766.7,244955.1,719118.7,693996.9,0.0
220121.7,245402.9,718843.6,311049.6,718786.8,245885.7,719144.5,695656.8,0.0
222579.8,246681.5,718843.7,313231.6,718787.1,246998.7,719151.3,698298.1,0.0
221996.5,246377.1,718831.1,313061.2,718774.6,246742.8,719138.4,698156.5,0.0
219604.8,245119.2,718825.1,311113.3,718768.6,245646.5,719126.8,696227.8,0.0
217993.7,244332.0,718826.5,309551.0,718770.4,244979.7,719118.3,694254.7,0.0
220034.7,245368.2,718841.6,310956.8,718785.0,245876.9,719141.5,695690.9,0.0
222497.2,246642.9,718842.5,313132.8,718786.0,246985.9,719149.6,698305.0,0.0
221935.5,246343.0,718833.5,312962.7,718776.6,246730.5,719140.3,698162.3,0.0
219484.1,245040.3,718817.9,310963.0,718761.1,245591.9,719118.9,696185.0,0.0
217903.7,244280.7,718831.5,309422.9,718775.1,244958.1,719122.6,694232.9,0.0
219967.5,245329.7,718851.2,310844.8,718794.4,245873.3,719150.9,695681.4,0.0
222407.2,246577.3,718843.3,312989.8,718786.6,246955.6,719150.7,698265.3,0.0
221804.3,246239.3,718823.4,312776.8,718766.8,246663.7,719130.2,698082.4,0.0
219375.3,244949.2,718810.8,310785.3,718754.2,245532.7,719111.8,696083.4,0.0
217798.2,244188.8,718825.3,309237.8,718768.8,244891.6,719119.4,694028.9,0.0
219865.3,245235.2,718841.4,310652.1,718784.7,245798.0,719141.3,695633.4,0.0
222337.1,246508.5,718839.1,312825.5,718782.3,246901.0,719145.9,698273.1,0.0
221771.0,246199.3,718827.1,312644.1,718770.1,246632.4,719133.2,698119.6,0.0
219356.0,244906.4,718816.8,310652.3,718759.6,245500.9,719117.3,696132.9,0.0
217757.0,244113.6,718822.2,309073.8,718765.9,244834.0,719114.5,694090.0,0.0
219826.2,245160.3,718841.4,310488.9,718785.1,245743.1,719141.4,695620.1,0.0
222298.4,246434.8,718842.1,312669.4,718785.4,246854.6,719149.0,698264.6,0.0
221731.7,246126.3,718827.9,312484.9,718770.9,246585.6,719134.3,698113.7,0.0
219314.3,244849.2,718817.1,310491.6,718760.1,245457.0,719118.3,696103.4,0.0
217709.8,244062.9,718821.3,308897.9,718764.4,244778.2,719115.4,693989.1,0.0
219792.7,245122.7,718845.8,310330.9,718788.7,245704.1,719145.0,695646.8,0.0
222260.8,246388.3,718842.9,312506.3,718786.0,246805.3,719148.9,698297.3,0.0
221693.5,246075.5,718825.3,312316.7,718768.7,246529.3,719130.8,698138.6,0.0
219284.2,244794.1,718814.1,310323.2,718757.3,245401.6,719114.3,696138.8,0.0
217687.2,244004.3,718822.1,308735.2,718765.4,244731.2,719115.3,694050.6,0.0
219750.0,245043.2,718838.4,310145.4,718782.0,245632.6,719138.0,695626.3,0.0
222228.1,246320.8,718835.7,312327.9,718779.0,246736.9,719141.8,698277.4,0.0
221681.1,246028.7,718822.5,312154.2,718765.4,246475.6,719127.6,698134.1,0.0
219290.7,244766.4,718817.8,310175.1,718760.7,245365.5,719117.7,696142.0,0.0
217674.5,243955.7,718821.5,308563.4,718764.4,244676.7,719114.7,694019.6,0.0
219743.0,244992.7,718838.5,309983.5,718781.0,245585.3,719136.9,695634.9,0.0
222237.0,246281.5,718837.9,312187.9,718781.1,246706.3,719144.0,698310.4,0.0
221674.4,245972.7,718820.1,312003.4,718763.3,246430.6,719125.7,698150.6,0.0
219261.3,244690.7,718811.2,310006.3,718754.3,245305.1,719110.6,696134.3,0.0
217655.8,243896.0,718818.6,308402.1,718761.4,244626.6,719111.1,694013.4,0.0
219740.0,244960.2,718840.4,309840.8,718783.3,245550.7,719138.6,695642.0,0.0
222240.6,246258.2,718843.4,312063.5,718786.6,246682.7,719148.4,698331.4,0.0
221680.0,245952.6,718825.0,311888.4,718768.2,246417.4,719129.8,698174.6,0.0
219253.1,244668.5,718811.5,309873.7,718754.9,245281.6,719111.0,696135.6,0.0
217648.6,243870.2,718818.4,308264.8,718761.6,244597.5,719110.6,694008.4,0.0
219739.5,244918.7,718839.6,309700.1,718782.3,245518.2,719137.4,695637.8,0.0
222208.9,246178.5,718838.4,311891.2,718781.6,246629.1,719143.2,698308.6,0.0
221606.2,245850.3,718822.5,311672.2,718765.6,246335.7,719126.4,698125.6,0.0
219246.4,244614.5,718816.3,309704.8,718759.4,245235.9,719114.6,696135.6,0.0
217690.8,243860.6,718826.7,308138.4,718769.8,244587.4,719117.7,694055.8,0.0
219759.5,244895.7,718846.2,309562.2,718789.1,245493.0,719143.6,695642.8,0.0
222253.0,246168.8,718847.1,311775.1,718790.2,246614.0,719151.4,698323.2,0.0
221703.3,245870.9,718828.0,311598.2,718771.4,246353.0,719132.0,698173.5,0.0
219288.1,244593.6,718819.8,309590.1,718763.4,245231.4,719118.3,696146.8,0.0
217687.0,243809.7,718830.6,307981.2,718774.3,244558.3,719121.8,694021.1,0.0
219771.8,244870.0,718851.7,309420.5,718795.3,245485.3,719149.2,695655.2,0.0
222267.9,246153.8,718849.8,311631.5,718793.3,246608.4,719154.1,698338.8,0.0
221727.2,245872.2,718835.4,311468.1,718778.9,246361.1,719139.5,698201.8,0.0
219315.8,244599.9,718826.9,309460.8,718770.3,245239.2,719125.4,696165.1,0.0
217680.3,243778.3,718831.5,307815.2,718774.8,244536.0,719123.5,693987.9,0.0
219748.0,244812.5,718845.4,309223.4,718788.7,245435.4,719142.4,695618.4,0.0
222248.5,246107.7,718843.7,311441.1,718786.6,246569.6,719147.1,698315.8,0.0
221721.5,245833.2,718831.1,311282.0,718773.9,246330.5,719134.0,698183.3,0.0
219314.3,244557.5,718822.8,309262.9,718766.1,245203.9,719120.9,696133.4,0.0
217683.5,243739.4,718828.3,307611.7,718771.6,244499.0,719120.4,693939.4,0.0
219750.1,244770.8,718844.6,309024.0,718787.8,245404.3,719141.4,695552.3,0.0
222265.6,246067.5,718842.8,311244.6,718786.0,246541.6,719146.5,698275.7,0.0
221750.8,245795.1,718832.8,311091.2,718776.1,246313.6,719135.9,698152.7,0.0
219342.7,244519.1,718825.6,309072.9,718768.7,245192.8,719122.7,696092.4,0.0
217696.3,243689.0,718828.2,307407.5,718771.1,244481.0,719119.3,693872.5,0.0
219786.1,244745.9,718850.1,308845.4,718793.1,245409.1,719146.3,695540.1,0.0
222297.0,246056.0,718854.1,311091.0,718796.9,246567.9,719156.9,698294.3,0.0
221765.9,245768.8,718838.7,310925.4,718781.6,246322.0,719141.1,698154.6,0.0
219360.8,244499.8,718828.6,308898.8,718771.4,245190.7,719125.7,696080.3,0.0
217718.9,243688.2,718837.1,307245.8,718780.1,244494.2,719127.8,693866.8,0.0
219792.4,244728.3,718853.6,308664.0,718796.4,245402.4,719149.2,695507.8,0.0
222295.6,246016.4,718849.8,310882.1,718792.5,246537.3,719152.6,698225.1,0.0
221782.0,245754.8,718839.8,310733.6,718782.9,246322.3,719142.3,698095.1,0.0
219366.4,244502.9,718836.7,308725.8,718779.3,245207.1,719133.2,696004.6,0.0
217715.8,243692.1,718843.3,307088.0,718786.2,244479.1,719133.9,693725.3,0.0
219768.2,244711.6,718849.7,308523.7,718793.1,245354.8,719145.4,695309.8,0.0
222298.5,246022.6,718851.8,310814.6,718794.7,246510.4,719154.3,698099.4,0.0
221800.5,245788.5,718840.8,310700.5,718783.3,246295.8,719142.8,697981.0,0.0
219385.5,244557.9,718833.6,308691.7,718775.9,245177.8,719129.6,695864.3,0.0
217717.1,243770.2,718837.9,307024.8,718780.2,244466.2,719129.5,693579.5,0.0
219795.5,244836.0,718855.1,308448.8,718797.4,245396.2,719150.5,695291.6,0.0
222342.1,246154.7,718857.7,310699.9,718800.6,246568.6,719160.4,698106.2,0.0
221829.4,245870.5,718844.8,310556.3,718787.6,246346.1,719147.2,697984.4,0.0
219414.0,244595.0,718836.9,308537.8,718779.8,245225.4,719133.4,695857.3,0.0
217774.7,243785.4,718845.8,306884.4,718788.5,244523.2,719138.1,693576.8,0.0
219850.8,244827.4,718860.6,308313.5,718803.4,245431.7,719156.4,695277.1,0.0
222371.1,246129.3,718855.6,310552.5,718798.4,246572.8,719158.1,698061.9,0.0
221843.4,245865.1,718840.8,310395.9,718783.1,246341.2,719142.4,697936.1,0.0
219437.5,244610.3,718837.1,308384.8,718779.8,245233.9,719133.4,695833.2,0.0
217781.7,243778.8,718846.1,306709.2,718789.1,244520.3,719137.8,693543.9,0.0
219853.9,244797.9,718860.8,308126.5,718803.2,245422.1,719156.3,695239.8,0.0
222372.4,246091.1,718857.9,310380.1,718800.4,246570.5,719159.9,698036.8,0.0
221867.1,245842.2,718848.5,310260.7,718791.4,246359.9,719150.3,697928.3,0.0
219440.7,244579.6,718842.9,308237.2,718785.6,245234.2,719139.1,695786.1,0.0
217751.5,243743.6,718844.9,306537.4,718787.8,244498.1,719136.8,693463.1,0.0
219839.1,244809.6,718864.5,307973.3,718807.4,245418.4,719159.8,695204.9,0.0
222371.5,246127.4,718862.6,310238.6,718805.3,246576.8,719164.0,698017.6,0.0
221855.7,245871.3,718853.5,310112.9,718796.4,246361.3,719154.8,697909.9,0.0
219417.5,244590.1,718843.9,308083.3,718786.9,245225.9,719139.6,695763.3,0.0
217727.5,243743.6,718848.9,306392.2,718791.8,244491.0,719140.3,693439.1,0.0
219795.1,244777.9,718862.0,307815.2,718804.9,245388.3,719156.8,695135.5,0.0
222323.8,246091.7,718857.4,310075.8,718800.7,246534.8,719158.9,697959.8,0.0
221834.7,245866.0,718851.4,309969.3,718794.7,246334.5,719152.5,697874.5,0.0
219413.1,244605.7,718845.6,307949.1,718788.4,245210.5,719141.1,695729.2,0.0
217717.7,243749.5,718847.9,306243.2,718790.8,244464.9,719138.6,693394.4,0.0
219808.1,244795.1,718867.1,307685.5,718809.9,245380.9,719160.9,695139.0,0.0
222361.0,246112.3,718867.6,309968.5,718810.4,246545.9,719168.2,697983.8,0.0
221855.5,245850.3,718855.3,309848.2,718798.0,246327.7,719155.8,697880.1,0.0
219416.5,244565.7,718843.9,307817.8,718786.4,245188.5,719138.4,695717.5,0.0
217734.4,243735.3,718850.8,306128.4,718793.7,244460.5,719141.2,693398.1,0.0
219827.0,244800.0,718869.5,307573.8,718812.4,245381.6,719162.9,695151.4,0.0
222365.7,246123.1,718867.8,309844.2,718810.5,246537.3,719167.9,697994.6,0.0
221807.5,245831.0,718851.4,309671.3,718794.1,246279.4,719151.5,697845.4,0.0
219397.2,244560.2,718839.8,307653.4,718782.4,245147.2,719134.1,695695.1,0.0
217755.3,243754.5,718849.8,306003.3,718792.4,244442.8,719139.3,693410.1,0.0
219848.8,244812.5,718868.7,307452.5,718811.3,245358.3,719162.3,695159.7,0.0
222403.7,246150.7,718869.9,309746.6,718812.6,246529.4,719170.4,698017.2,0.0
221881.6,245892.2,718855.0,309617.8,718797.9,246300.4,719155.2,697907.3,0.0
219440.6,244615.5,718846.6,307586.4,718789.8,245161.6,719141.1,695759.9,0.0
217749.5,243774.8,718855.3,305895.3,718798.5,244430.7,719145.3,693442.2,0.0
219830.0,244816.1,718868.3,307329.9,718811.5,245330.4,719161.5,695154.8,0.0
222393.3,246155.0,718870.3,309633.3,718812.8,246501.4,719170.0,698016.8,0.0
221895.0,245916.5,718859.1,309532.9,718801.6,246290.6,719158.6,697926.9,0.0
219441.2,244632.8,718845.6,307498.4,718788.3,245142.7,719139.5,695768.6,0.0
217729.6,243780.8,718849.9,305794.3,718792.4,244393.8,719139.2,693435.0,0.0
219805.3,244822.7,718865.4,307229.9,718808.1,245292.4,719158.8,695149.9,0.0
222376.3,246168.5,718867.4,309538.9,718810.1,246469.4,719167.5,698019.3,0.0
221888.3,245936.1,718856.1,309442.4,718798.9,246264.5,719155.6,697936.8,0.0
219440.8,244654.3,718844.8,307411.0,718787.3,245122.1,719138.7,695784.2,0.0
217739.9,243808.0,718855.3,305715.4,718797.4,244391.5,719144.5,693464.3,0.0
219822.9,244838.9,718870.9,307138.8,718813.2,245303.5,719163.4,695191.3,0.0
222398.4,246185.1,718870.7,309433.9,718813.0,246488.3,719169.9,698073.4,0.0
221888.6,245943.6,718856.2,309311.5,718798.7,246275.4,719155.3,697990.4,0.0
219435.8,244663.0,718849.5,307265.8,718791.4,245145.2,719142.9,695852.4,0.0
217712.5,243788.0,718856.2,305535.0,718798.9,244395.9,719145.1,693517.4,0.0
219805.0,244819.5,718872.4,306969.1,718815.1,245302.7,719164.6,695252.5,0.0
222388.6,246154.3,718872.4,309280.1,718815.0,246478.3,719171.5,698096.3,0.0
221896.9,245909.7,718859.8,309179.9,718802.4,246268.3,719158.5,698003.9,0.0
219452.8,244634.6,718851.2,307151.3,718793.7,245139.5,719144.3,695862.7,0.0
217728.1,243765.5,718857.7,305421.8,718800.2,244389.8,719146.1,693531.1,0.0
219815.7,244812.0,718875.8,306853.3,718818.4,245299.7,719167.9,695278.1,0.0
222373.0,246145.6,718872.2,309144.8,718815.0,246466.3,719170.6,698119.8,0.0
221875.9,245909.3,718858.8,309033.4,718801.2,246252.1,719156.4,698030.4,0.0
219429.0,244632.6,718847.8,307001.5,718790.2,245116.8,719139.9,695898.0,0.0
217706.5,243769.8,718854.1,305297.0,718796.4,244371.0,719141.3,693568.7,0.0
219794.0,244806.9,718873.0,306743.2,718815.3,245270.4,719164.1,695272.3,0.0
222373.1,246152.5,718871.3,309052.6,718813.7,246438.9,719169.0,698101.8,0.0
221879.6,245913.2,718859.3,308950.1,718802.0,246228.8,719156.9,698005.1,0.0
219428.5,244631.3,718852.2,306913.5,718794.7,245102.5,719144.0,695877.4,0.0
217693.9,243752.8,718861.6,305184.8,718804.3,244356.4,719148.4,693551.3,0.0
219776.8,244784.2,718878.6,306616.0,718821.1,245259.6,719169.4,695260.4,0.0
222361.3,246129.0,718880.1,308928.6,718823.0,246438.9,719177.9,698103.7,0.0
221867.9,245889.9,718863.9,308825.7,718806.9,246226.3,719161.5,698006.8,0.0
219417.7,244612.0,718854.9,306793.6,718797.6,245091.5,719146.8,695857.6,0.0
217678.0,243736.3,718861.8,305065.5,718804.1,244334.9,719148.6,693511.6,0.0
219761.0,244769.8,718877.3,306496.2,718820.1,245232.5,719167.8,695240.9,0.0
222347.2,246108.9,718873.4,308798.8,718815.7,246403.8,719170.6,698079.8,0.0
221868.9,245873.8,718862.6,308703.6,718804.4,246209.7,719159.6,698002.4,0.0
219419.1,244598.6,718857.3,306676.8,718799.6,245085.6,719149.0,695865.3,0.0
217670.5,243721.5,718862.7,304942.4,718804.7,244321.4,719149.2,693509.7,0.0
219759.3,244758.7,718878.6,306380.2,718820.8,245221.5,719168.9,695237.3,0.0
222354.6,246104.2,718879.5,308695.8,718821.8,246397.2,719176.9,698078.8,0.0
221875.4,245867.3,718865.9,308602.6,718808.2,246194.1,719162.6,697992.4,0.0
219413.1,244577.5,718853.7,306564.8,718795.8,245053.5,719144.1,695839.2,0.0
217660.2,243693.9,718860.1,304835.0,718802.1,244292.6,719146.7,693490.4,0.0
219763.6,244750.8,718878.9,306281.9,718820.7,245205.2,719168.8,695225.8,0.0
222363.5,246108.7,718877.9,308604.4,718820.0,246391.7,719174.5,698074.3,0.0
221890.6,245884.8,718866.6,308521.5,718808.6,246199.7,719162.7,697999.9,0.0
219440.2,244610.7,718859.4,306499.1,718801.6,245072.3,719150.1,695862.9,0.0
217671.2,243712.0,718860.4,304748.1,718803.0,244293.1,719146.3,693488.1,0.0
219769.3,244755.5,718880.8,306194.3,718822.7,245207.0,719169.4,695205.1,0.0
222374.0,246111.8,718880.5,308517.2,718822.5,246394.3,719176.6,698078.8,0.0
221900.8,245883.1,718868.2,308429.2,718810.5,246194.5,719164.1,698002.6,0.0
219446.8,244602.1,718858.3,306403.5,718801.0,245064.2,719148.8,695861.5,0.0
217690.3,243713.5,718863.8,304671.1,718806.2,244299.7,719150.1,693509.5,0.0
219781.0,244752.6,718879.3,306107.8,718822.1,245199.0,719169.0,695236.9,0.0
222394.4,246121.7,718880.4,308438.1,718822.8,246390.2,719176.4,698092.8,0.0
221917.1,245898.0,718867.0,308354.6,718809.3,246195.0,719162.4,698015.7,0.0
219457.4,244617.8,718859.5,306327.9,718802.1,245067.5,719149.4,695874.9,0.0
217691.3,243723.3,718862.7,304585.3,718805.1,244298.0,719148.2,693513.7,0.0
219790.8,244770.6,718881.1,306031.0,718823.6,245208.4,719170.4,695251.8,0.0
222378.8,246117.0,718882.0,308345.6,718824.0,246391.1,719177.3,698094.3,0.0
221848.1,245844.9,718866.2,308210.4,718808.4,246158.5,719161.4,697966.9,0.0
219429.0,244587.4,718860.1,306207.2,718802.6,245047.2,719149.9,695847.3,0.0
217703.9,243724.1,718863.9,304499.5,718806.3,244303.3,719149.1,693520.7,0.0
219798.8,244769.9,718882.3,305947.4,718824.9,245215.0,719171.0,695258.4,0.0
222398.1,246125.8,718882.1,308273.7,718824.6,246401.8,719177.3,698110.6,0.0
221930.3,245904.4,718869.5,308196.3,718811.8,246213.8,719164.6,698042.7,0.0
219477.5,244633.6,718863.9,306176.8,718806.2,245090.6,719152.8,695920.8,0.0
217700.1,243732.5,718865.5,304425.8,718807.8,244311.5,719149.8,693557.3,0.0
219780.0,244759.3,718879.4,305856.6,718822.2,245206.8,719168.6,695254.8,0.0
222385.9,246114.9,718877.1,308179.9,718820.0,246392.4,719173.1,698103.2,0.0
221921.5,245896.3,718866.4,308101.2,718809.7,246205.5,719161.7,698034.4,0.0
219475.0,244626.1,718861.6,306082.2,718804.5,245084.1,719151.1,695913.8,0.0
217703.4,243731.4,718866.0,304334.2,718808.4,244311.6,719149.7,693552.6,0.0
219790.0,244766.0,718880.9,305767.8,718823.4,245212.1,719168.7,695252.3,0.0
222393.7,246121.3,718881.1,308093.5,718823.6,246399.2,719176.0,698104.8,0.0
221921.4,245896.7,718868.2,308011.4,718810.8,246204.3,719163.0,698031.4,0.0
219463.4,244614.0,718859.1,305983.0,718801.4,245072.9,719148.1,695892.7,0.0
217693.5,243714.3,718866.4,304237.6,718808.3,244303.9,719150.7,693532.4,0.0
219789.1,244753.2,718883.4,305679.8,718825.3,245209.5,719171.4,695265.5,0.0
222389.6,246103.7,718881.3,308000.2,718823.3,246388.6,719176.0,698109.1,0.0
221917.8,245874.4,718866.6,307917.1,718809.3,246190.4,719161.5,698031.1,0.0
219456.5,244587.8,718857.5,305883.1,718799.9,245053.3,719146.5,695882.5,0.0
217686.4,243690.7,718863.8,304134.8,718806.8,244282.3,719148.0,693518.6,0.0
219786.3,244732.0,718882.8,305581.0,718825.5,245191.9,719170.4,695255.5,0.0
222389.9,246087.6,718882.1,307907.3,718824.0,246379.6,719176.2,698107.1,0.0
221907.6,245853.5,718867.3,307816.4,718809.8,246179.0,719161.1,698024.8,0.0
219441.9,244565.6,718858.5,305776.7,718801.4,245042.1,719146.9,695876.7,0.0
217676.0,243669.3,718862.3,304022.9,718804.8,244268.3,719145.8,693505.6,0.0
219786.1,244724.8,718881.1,305474.9,718823.1,245186.0,719167.9,695247.6,0.0
222395.4,246088.6,718883.6,307810.3,718825.9,246382.6,719177.5,698109.8,0.0
221911.5,245851.0,718868.9,307719.1,718811.6,246178.8,719162.6,698025.3,0.0
219456.2,244574.1,718859.9,305689.5,718802.6,245049.0,719147.8,695881.9,0.0
217692.0,243683.7,718869.3,303948.2,718811.4,244286.6,719151.9,693522.3,0.0
219802.5,244741.0,718889.6,305403.5,718832.1,245207.5,719176.3,695264.2,0.0
222406.1,246100.6,718887.7,307735.8,718830.2,246403.0,719181.6,698121.1,0.0
221925.2,245871.5,718874.9,307647.4,718817.0,246204.8,719168.6,698041.4,0.0
219444.5,244569.9,718863.5,305595.8,718805.6,245052.8,719151.6,695877.2,0.0
217672.7,243672.0,718870.5,303843.4,718812.3,244277.4,719152.7,693506.4,0.0
219774.4,244715.8,718886.8,305289.9,718828.6,245186.4,719172.9,695242.2,0.0
222376.0,246062.0,718884.4,307616.7,718826.8,246372.5,719177.9,698089.9,0.0
221901.3,245828.2,718867.6,307527.2,718809.4,246168.8,719160.8,698002.0,0.0
219434.2,244540.1,718857.7,305484.8,718799.6,245027.0,719145.1,695844.8,0.0
217670.2,243646.8,718864.3,303735.7,718806.5,244256.6,719146.8,693473.6,0.0
219774.5,244686.1,718882.9,305182.3,718825.1,245167.5,719168.7,695191.3,0.0
222387.4,246050.2,718882.8,307516.1,718824.8,246362.0,719175.4,698075.1,0.0
221913.1,245823.9,718870.3,307432.5,718812.4,246168.8,719162.9,698003.8,0.0
219451.6,244544.5,718863.6,305397.0,718805.7,245035.8,719150.1,695855.3,0.0
217676.9,243642.6,718868.2,303641.1,718810.1,244256.8,719149.8,693481.1,0.0
219793.0,244699.1,718886.6,305098.3,718828.6,245177.4,719172.1,695227.4,0.0
222400.5,246063.2,718885.0,307433.2,718826.8,246372.5,719177.6,698083.8,0.0
221915.5,245829.0,718870.8,307342.2,718813.3,246168.6,719163.2,697996.3,0.0
219438.8,244531.9,718862.4,305295.3,718804.8,245024.0,719149.4,695826.4,0.0
217672.3,243639.1,718870.1,303541.6,718812.4,244245.3,719152.3,693455.2,0.0
219787.0,244690.2,718887.6,304995.2,718829.6,245160.3,719172.5,695221.2,0.0
222393.5,246044.1,718886.9,307325.7,718828.8,246353.3,719178.9,698074.2,0.0
221917.4,245812.3,718874.7,307241.6,718816.9,246157.4,719166.4,697992.3,0.0
219458.0,244528.4,718868.5,305209.0,718810.8,245024.7,719154.4,695843.6,0.0
217689.6,243629.9,718872.3,303456.3,718814.4,244248.2,719153.2,693470.5,0.0
219802.2,244683.7,718889.6,304909.4,718831.1,245163.9,719174.0,695211.1,0.0
222404.9,246043.5,718888.1,307237.3,718830.6,246350.5,719179.8,698061.1,0.0
221922.2,245819.4,718876.2,307154.5,718818.6,246154.2,719167.7,697982.2,0.0
219446.0,244527.7,718867.4,305113.8,718809.4,245011.7,719152.4,695814.7,0.0
217672.7,243625.4,718871.6,303360.0,718813.7,244231.0,719151.9,693434.2,0.0
219788.4,244681.1,718891.3,304817.8,718833.1,245145.8,719174.8,695181.1,0.0
222401.8,246047.8,718890.3,307157.5,718832.3,246342.4,719181.6,698065.1,0.0
221921.0,245819.8,718874.8,307068.1,718816.9,246142.8,719166.0,697987.2,0.0
219445.1,244526.1,718864.1,305020.5,718806.3,244997.3,719149.4,695812.8,0.0
217676.6,243627.7,718870.7,303271.3,718812.8,244220.9,719151.6,693441.4,0.0
219793.3,244679.3,718890.3,304731.2,718832.7,245137.9,719174.6,695213.6,0.0
222389.5,246030.1,718888.3,307052.5,718830.2,246318.8,719178.9,698057.2,0.0
221863.1,245767.9,718874.9,306925.6,718816.6,246092.2,719165.1,697934.9,0.0
219428.7,244498.2,718866.9,304907.8,718809.0,244967.8,719151.8,695797.3,0.0
217698.9,243627.6,718872.3,303190.8,718814.2,244213.7,719152.3,693454.3,0.0
219809.4,244678.4,718888.6,304649.1,718830.6,245128.5,719172.4,695180.5,0.0
222412.3,246034.3,718890.6,306983.7,718832.3,246322.0,719181.2,698060.1,0.0
221916.5,245792.0,718875.4,306886.0,718817.4,246113.5,719165.6,697969.9,0.0
219442.6,244502.5,718867.2,304843.3,718809.3,244973.2,719151.9,695801.8,0.0
217685.3,243617.8,718874.9,303104.5,718816.8,244209.5,719154.6,693444.9,0.0
219803.0,244675.0,718891.3,304569.2,718832.9,245129.6,719174.6,695218.8,0.0
222405.9,246035.1,718887.8,306902.2,718829.8,246322.4,719178.5,698070.6,0.0
221910.0,245798.5,718874.9,306807.9,718816.8,246118.9,719164.6,697978.9,0.0
219420.2,244497.9,718864.6,304755.8,718806.1,244968.9,719147.8,695802.1,0.0
217653.2,243602.8,718868.7,303007.8,718810.8,244194.2,719147.8,693436.9,0.0
219775.0,244659.3,718887.6,304474.9,718829.4,245116.8,719170.1,695215.6,0.0
222381.5,246020.8,718885.5,306808.4,718827.6,246312.4,719175.4,698070.3,0.0
221892.8,245789.9,718873.5,306718.5,718815.3,246114.7,719163.2,697982.8,0.0
219410.2,244493.0,718865.6,304672.4,718806.9,244970.3,719148.8,695822.6,0.0
217652.9,243605.8,718871.8,302932.0,718813.2,244199.3,719150.3,693463.3,0.0
219785.4,244671.7,718892.8,304403.4,718834.2,245123.0,719174.8,695222.1,0.0
222391.9,246032.2,718891.9,306733.3,718832.9,246310.7,719180.9,698073.9,0.0
221892.8,245792.3,718875.8,306633.6,718817.3,246101.0,719164.6,697977.6,0.0
219411.8,244503.4,718867.0,304591.1,718809.3,244962.4,719150.5,695809.8,0.0
