EEG 1,EEG 2,EEG 3,EEG 4,EEG 5,EEG 6,EEG 7,EEG 8,TRIG
249828.2,285200.9,709353.9,696624.9,709313.7,233852.0,677591.8,594891.9,0.0
248899.7,284876.2,709435.8,693899.6,709396.7,233735.7,677196.8,593732.4,0.0
254403.8,288799.6,709867.6,696444.2,709836.0,237425.7,681112.7,598466.0,0.0
257477.6,290635.1,709959.2,696990.3,709932.6,239105.9,683113.4,601491.8,0.0
254600.1,288199.2,709654.3,692640.0,709625.8,236876.6,681034.8,599193.4,0.0
249610.2,284628.4,709345.0,686601.4,709310.6,233700.4,677575.6,594648.9,0.0
248671.6,284295.6,709430.6,683964.7,709395.5,233582.5,677178.4,593484.3,0.0
254199.2,288247.8,709865.8,686582.7,709838.9,237293.1,681115.9,598233.2,0.0
257289.9,290098.7,709955.1,687199.3,709933.6,238983.0,683114.6,601269.3,0.0
254411.5,287658.1,709647.4,683145.1,709623.3,236743.8,681035.6,598971.7,0.0
249398.1,284064.1,709338.8,677646.1,709305.4,233542.5,677559.6,594407.8,0.0
248450.8,283725.5,709422.3,675391.1,709387.0,233414.2,677147.0,593226.9,0.0
253947.3,287648.4,709849.3,678347.3,709822.9,237106.3,681059.5,597949.8,0.0
257034.5,289495.0,709938.6,679312.1,709917.8,238792.4,683063.0,600981.1,0.0
254172.5,287067.8,709636.4,675397.0,709610.8,236565.4,680989.4,598694.1,0.0
249168.7,283480.7,709330.5,669755.6,709295.9,233370.5,677515.8,594135.1,0.0
248234.1,283157.2,709417.1,667514.8,709380.6,233255.1,677112.9,592962.5,0.0
253749.3,287104.0,709847.0,670513.8,709820.4,236965.3,681045.5,597700.1,0.0
256833.6,288953.0,709939.0,671509.9,709917.6,238659.3,683065.7,600735.3,0.0
253963.6,286518.3,709637.0,667615.0,709610.5,236426.4,680977.9,598443.5,0.0
248959.2,282934.4,709331.1,662001.6,709294.8,233227.3,677496.7,593883.3,0.0
248018.6,282605.9,709417.4,659787.8,709378.6,233108.9,677088.1,592707.6,0.0
253541.8,286561.8,709847.6,662825.6,709819.2,236829.3,681029.6,597454.3,0.0
256646.7,288431.3,709937.6,663866.1,709915.1,238534.9,683064.1,600505.9,0.0
253782.9,286006.0,709635.8,660010.3,709607.1,236305.9,680980.3,598219.4,0.0
248763.8,282404.4,709330.1,654419.6,709291.6,233099.1,677487.9,593650.6,0.0
247825.4,282079.8,709416.8,652235.9,709376.0,232979.3,677076.7,592473.3,0.0
253341.0,286033.7,709842.2,655293.6,709811.6,236689.4,681008.1,597207.0,0.0
256431.6,287892.7,709932.5,656355.3,709907.4,238387.0,683043.1,600245.7,0.0
253575.7,285473.3,709632.0,652541.1,709600.9,236166.2,680963.6,597966.9,0.0
248582.5,281897.8,709330.5,647002.5,709289.4,232976.5,677488.0,593416.1,0.0
247647.6,281577.4,709416.6,644853.3,709373.5,232855.0,677077.9,592238.4,0.0
253169.5,285541.1,709846.4,647955.6,709813.4,236572.6,681021.1,596983.1,0.0
256267.5,287413.0,709937.6,649060.6,709910.1,238279.3,683051.6,600028.5,0.0
253406.3,284987.7,709636.4,645272.6,709602.9,236049.9,680964.6,597741.4,0.0
248405.1,281401.6,709331.9,639762.2,709288.8,232849.8,677482.8,593180.8,0.0
247477.3,281088.5,709418.9,637657.4,709373.7,232739.3,677081.3,592010.9,0.0
252994.3,285052.1,709847.3,640791.1,709811.9,236459.1,681022.4,596750.8,0.0
256087.9,286922.8,709937.8,641926.3,709907.9,238160.3,683049.3,599793.4,0.0
253228.6,284499.5,709637.9,638176.7,709602.0,235931.1,680962.0,597510.4,0.0
248230.4,280917.9,709335.3,632702.4,709288.8,232733.2,677476.4,592951.5,0.0
247310.4,280614.8,709425.0,630638.3,709376.3,232628.0,677075.6,591787.8,0.0
252831.7,284586.5,709853.0,633811.1,709814.6,236355.0,681020.1,596532.1,0.0
255920.9,286455.1,709941.3,634981.0,709908.3,238056.5,683059.0,599571.8,0.0
253062.6,284032.2,709640.2,631267.6,709601.5,235825.5,680971.6,597288.3,0.0
248061.5,280450.2,709333.2,625828.6,709284.3,232622.1,677483.6,592726.3,0.0
247126.1,280136.6,709419.1,623790.6,709368.3,232510.7,677077.4,591551.3,0.0
252645.4,284107.7,709851.0,626999.8,709810.6,236239.7,681020.4,596295.3,0.0
255753.0,285994.4,709944.1,628220.7,709909.3,237954.0,683058.9,599348.9,0.0
252899.2,283576.7,709641.6,624545.6,709601.3,235725.9,680976.4,597066.1,0.0
247900.2,279994.8,709335.6,619140.5,709284.6,232523.8,677487.5,592503.3,0.0
246976.0,279693.7,709424.1,617141.0,709370.6,232414.3,677084.8,591333.1,0.0
252489.3,283661.9,709853.3,620380.0,709809.9,236136.5,681024.3,596074.0,0.0
255588.7,285541.2,709944.8,621627.6,709907.7,237844.8,683053.9,599121.8,0.0
252737.7,283123.8,709643.7,617990.6,709600.4,235617.9,680968.6,596843.1,0.0
247745.8,279549.6,709338.8,612621.1,709285.4,232417.6,677483.8,592283.4,0.0
246809.5,279239.7,709426.4,610644.1,709371.0,232300.5,677070.9,591102.1,0.0
252326.9,283213.9,709854.7,613917.8,709809.9,236024.2,681009.9,595842.4,0.0
255427.1,285096.3,709945.7,615201.4,709906.3,237735.0,683041.6,598892.6,0.0
252569.6,282676.5,709643.6,611594.6,709598.2,235506.9,680954.6,596610.6,0.0
247570.9,279097.2,709337.9,606254.2,709282.2,232307.0,677461.5,592045.7,0.0
246656.9,278805.8,709426.4,604327.4,709368.8,232207.2,677060.6,590883.3,0.0
252188.4,282796.4,709858.2,607647.3,709810.6,235943.9,681013.3,595641.3,0.0
255274.7,284666.8,709946.3,608951.3,709904.5,237642.9,683046.1,598680.3,0.0
252433.6,282260.8,709644.9,605381.4,709597.2,235416.5,680958.8,596402.4,0.0
247449.0,278690.3,709340.6,600087.9,709282.6,232223.9,677476.9,591852.6,0.0
246515.0,278380.5,709426.8,598179.6,709366.6,232110.6,677063.9,590674.9,0.0
252048.8,282377.1,709858.4,601534.4,709808.6,235851.7,681018.4,595433.3,0.0
255157.8,284270.8,709951.7,602889.3,709908.1,237568.1,683069.2,598489.8,0.0
252313.1,281858.9,709652.2,599352.9,709602.8,235344.9,680983.1,596213.8,0.0
247329.0,278291.3,709346.3,594084.4,709286.1,232149.6,677494.2,591657.8,0.0
246394.9,277984.4,709431.3,592209.4,709368.5,232037.3,677082.8,590482.8,0.0
251910.0,281964.2,709859.1,595579.3,709806.9,235760.0,681019.5,595224.8,0.0
254998.5,283842.6,709950.0,596951.4,709904.3,237465.0,683041.9,598267.8,0.0
252140.2,281424.9,709650.3,593432.3,709598.3,235230.5,680943.8,595974.5,0.0
247181.0,277877.3,709347.5,588214.2,709285.4,232049.2,677471.9,591436.6,0.0
246252.0,277572.3,709432.0,586369.4,709367.9,231937.5,677061.8,590263.8,0.0
251776.8,281560.3,709863.2,589780.7,709809.6,235674.8,681014.8,595016.3,0.0
254882.6,283452.8,709953.8,591194.1,709906.0,237390.6,683064.9,598072.0,0.0
252041.4,281048.7,709651.8,587717.8,709598.0,235167.2,680978.6,595798.6,0.0
247067.3,277491.2,709348.8,582514.9,709284.3,231977.3,677495.0,591251.3,0.0
246137.4,277193.3,709434.8,580698.9,709367.9,231865.9,677081.3,590077.5,0.0
251652.8,281178.3,709865.9,584138.0,709809.8,235598.6,681028.3,594826.7,0.0
254753.5,283067.9,709959.3,585581.1,709909.4,237312.5,683061.5,597880.7,0.0
251928.1,280679.1,709659.1,582143.9,709603.2,235097.2,680984.6,595616.3,0.0
246952.0,277121.4,709353.8,576968.3,709287.3,231906.0,677504.5,591066.3,0.0
246006.7,276813.7,709438.1,575169.1,709369.1,231785.4,677083.1,589879.0,0.0
251513.5,280793.7,709869.6,578628.5,709811.0,235511.4,681019.0,594619.8,0.0
254625.1,282692.2,709964.1,580107.9,709911.3,237235.7,683059.9,597683.9,0.0
251789.2,280292.1,709663.1,576692.4,709604.7,235017.4,680979.8,595414.2,0.0
246814.1,276739.5,709357.1,571541.8,709288.6,231827.7,677494.8,590860.6,0.0
245879.0,276439.9,709443.8,569775.9,709372.3,231716.2,677078.1,589679.8,0.0
251392.0,280424.7,709871.3,573263.6,709811.1,235444.2,681017.8,594425.0,0.0
254501.5,282323.0,709962.6,574767.0,709908.7,237161.2,683062.6,597484.0,0.0
251673.5,279931.7,709663.3,571384.8,709602.5,234946.3,680979.4,595217.9,0.0
246695.5,276374.5,709358.5,566268.8,709287.6,231756.7,677493.4,590668.1,0.0
245759.3,276072.6,709445.2,564530.7,709372.1,231640.8,677074.1,589487.9,0.0
251286.7,280069.3,709877.9,568060.4,709815.5,235384.5,681024.3,594249.9,0.0
254397.6,281970.2,709968.9,569592.4,709912.7,237109.0,683062.6,597314.6,0.0
251559.5,279572.9,709665.8,566225.9,709603.8,234888.1,680978.8,595041.0,0.0
246577.1,276016.8,709360.7,561125.8,709287.6,231692.7,677489.3,590484.3,0.0
245645.1,275722.1,709445.6,559416.0,709370.6,231580.1,677073.1,589306.0,0.0
251174.3,279720.5,709877.4,562969.3,709813.2,235321.8,681024.9,594063.6,0.0
254287.5,281626.3,709969.1,564525.7,709910.9,237048.1,683064.1,597128.7,0.0
251452.5,279236.0,709668.6,561185.6,709604.7,234829.7,680976.1,594857.6,0.0
246471.2,275678.6,709362.5,556107.3,709288.0,231632.2,677481.1,590299.4,0.0
245533.8,275375.6,709446.4,554420.8,709369.1,231517.5,677059.8,589121.2,0.0
251058.5,279373.7,709877.1,557999.1,709811.0,235260.9,681009.9,593880.3,0.0
254171.3,281278.7,709971.0,559582.8,709911.4,236985.6,683061.1,596948.8,0.0
251340.1,278885.8,709667.5,556265.8,709601.4,234762.3,680969.6,594677.9,0.0
246371.6,275340.3,709364.9,551222.9,709287.9,231574.9,677484.8,590132.5,0.0
245435.7,275043.3,709453.2,549563.0,709373.4,231464.0,677069.0,588959.4,0.0
250950.0,279033.0,709881.3,553155.0,709813.3,235193.4,681009.9,593708.7,0.0
254069.7,280946.3,709974.1,554768.0,709912.6,236917.4,683066.1,596779.8,0.0
251233.2,278552.4,709672.8,551474.0,709604.7,234691.7,680971.8,594506.6,0.0
246247.9,274993.6,709365.6,546436.6,709286.5,231486.5,677466.3,589941.9,0.0
245313.6,274700.6,709449.8,544796.8,709368.5,231370.7,677043.7,588763.2,0.0
250848.6,278712.3,709881.9,548437.1,709811.9,235121.7,681006.9,593536.4,0.0
253962.4,280619.2,709973.6,550067.5,709909.9,236843.4,683058.9,596602.9,0.0
251123.6,278223.0,709670.7,546792.4,709601.3,234616.3,680963.1,594323.3,0.0
246138.9,274665.3,709363.3,541781.4,709283.1,231412.8,677462.4,589756.5,0.0
245216.9,274382.2,709450.8,540171.8,709368.3,231300.1,677047.5,588582.2,0.0
250738.4,278380.9,709883.7,543822.1,709811.9,235039.7,681005.8,593345.8,0.0
253838.2,280277.8,709976.6,545470.8,709911.4,236758.0,683065.1,596406.6,0.0
251011.4,277894.4,709674.4,542224.4,709602.8,234538.0,680967.3,594131.6,0.0
246038.0,274348.5,709366.4,537238.0,709284.2,231343.0,677469.4,589571.4,0.0
245105.8,274057.6,709455.3,535652.3,709370.8,231236.9,677057.4,588400.1,0.0
250622.0,278051.3,709884.9,539320.7,709811.5,234970.3,681007.6,593154.0,0.0
253744.2,279967.6,709974.9,541001.5,709907.9,236693.9,683073.8,596221.1,0.0
250922.0,277589.0,709675.0,537786.4,709601.9,234483.6,680984.4,593957.1,0.0
245940.0,274036.2,709367.8,532818.5,709283.8,231285.8,677482.8,589394.9,0.0
245017.9,273753.1,709454.7,531253.1,709367.9,231180.3,677067.8,588225.4,0.0
250545.5,277754.5,709887.1,534954.2,709811.7,234925.7,681019.0,592995.8,0.0
253651.7,279656.5,709977.6,536645.8,709908.7,236641.1,683051.6,596059.6,0.0
250825.8,277276.5,709676.9,533441.1,709601.7,234423.2,680965.9,593786.9,0.0
245845.9,273722.6,709370.2,528497.3,709283.8,231225.6,677471.1,589228.9,0.0
244918.2,273436.7,709458.0,526953.5,709369.4,231117.6,677058.6,588060.0,0.0
250449.4,277447.1,709888.3,530675.1,709811.1,234862.8,681015.1,592831.3,0.0
253560.3,279359.2,709979.9,532392.9,709908.9,236584.1,683064.1,595899.1,0.0
250734.7,276981.3,709678.9,529210.9,709601.6,234366.1,680972.1,593628.8,0.0
245765.4,273443.0,709375.0,524292.2,709286.9,231176.0,677482.8,589073.4,0.0
244845.7,273164.1,709462.6,522773.6,709372.4,231073.8,677073.9,587907.7,0.0
250367.9,277164.6,709890.8,526506.6,709812.1,234807.8,681025.7,592668.5,0.0
253472.9,279072.3,709982.3,528236.0,709909.6,236524.2,683084.2,595730.8,0.0
250638.1,276686.5,709679.4,525066.8,709600.6,234305.4,680982.7,593455.2,0.0
245662.9,273144.9,709373.1,520165.0,709283.5,231111.6,677485.4,588898.1,0.0
244725.8,272850.2,709458.0,518656.0,709366.1,230996.4,677064.5,587722.5,0.0
250264.2,276865.8,709890.9,522424.1,709810.4,234745.0,681022.3,592497.4,0.0
253362.8,278766.8,709979.7,524170.0,709905.8,236454.5,683048.3,595551.0,0.0
250510.9,276370.7,709675.9,521003.4,709595.6,234215.4,680940.2,593252.5,0.0
245571.8,272854.9,709373.9,516144.5,709282.2,231043.4,677467.6,588720.1,0.0
244655.4,272580.1,709459.3,514664.9,709365.4,230942.2,677058.6,587558.8,0.0
250179.0,276582.6,709888.6,518442.8,709806.4,234682.5,681009.9,592324.2,0.0
253287.8,278492.3,709980.2,520218.4,709904.7,236402.4,683061.2,595391.5,0.0
250480.0,276134.2,709682.5,517108.2,709600.3,234198.8,680984.4,593133.6,0.0
245503.2,272591.6,709375.4,512241.7,709282.3,231004.3,677486.4,588573.3,0.0
244560.8,272293.1,709459.9,510767.0,709364.5,230886.9,677067.1,587395.0,0.0
250088.1,276300.5,709889.9,514563.6,709805.9,234623.6,681016.0,592161.2,0.0
253208.8,278221.9,709979.8,516364.2,709902.7,236348.3,683056.4,595234.3,0.0
250377.8,275841.6,709678.3,513253.8,709594.6,234128.2,680965.9,592957.1,0.0
245403.3,272302.2,709374.6,508404.8,709280.2,230935.5,677468.6,588395.8,0.0
244470.0,272015.8,709457.8,506952.6,709360.9,230823.3,677046.1,587219.6,0.0
249987.8,276015.8,709886.3,510764.3,709800.7,234557.3,680995.2,591980.2,0.0
253101.0,277934.0,709979.6,512582.7,709900.4,236278.6,683061.8,595050.6,0.0
250288.0,275573.2,709680.5,509498.4,709594.8,234064.9,680967.6,592779.9,0.0
245311.8,272029.3,709372.3,504661.5,709276.1,230865.3,677462.6,588213.4,0.0
244392.5,271753.3,709459.5,503232.4,709361.1,230755.8,677048.9,587044.3,0.0
249928.7,275771.1,709893.8,507078.5,709806.6,234504.4,681013.3,591823.4,0.0
253043.5,277687.8,709986.5,508912.9,709905.6,236227.5,683063.8,594890.4,0.0
250225.9,275322.6,709685.6,505848.3,709598.4,234020.4,680977.4,592623.1,0.0
245256.0,271787.9,709382.2,501038.8,709283.6,230833.5,677482.2,588068.1,0.0
244319.4,271496.9,709465.6,499616.8,709365.1,230721.1,677055.8,586890.6,0.0
249845.5,275503.7,709896.3,503474.9,709807.3,234467.8,681007.9,591663.9,0.0
252970.4,277434.5,709988.7,505333.3,709906.6,236196.8,683063.4,594738.6,0.0
250137.7,275060.0,709683.0,502272.5,709594.6,233974.9,680963.4,592455.8,0.0
245160.2,271517.8,709376.4,497472.6,709276.7,230778.9,677460.4,587887.5,0.0
244247.0,271250.2,709465.1,496091.8,709362.9,230685.7,677058.8,586731.7,0.0
249772.7,275260.0,709895.4,499966.9,709805.1,234429.8,681018.9,591504.1,0.0
252882.1,277175.6,709989.3,501834.9,709905.6,236153.3,683079.1,594573.1,0.0
250057.0,274809.0,709686.6,498792.9,709596.8,233933.7,680971.9,592293.8,0.0
245087.3,271276.6,709379.9,494015.4,709278.8,230744.7,677471.9,587735.2,0.0
244170.3,271003.4,709467.0,492644.2,709363.5,230645.3,677063.3,586574.1,0.0
249690.5,275005.3,709895.6,496526.9,709803.8,234379.3,681009.9,591340.8,0.0
252800.8,276925.6,709988.6,498410.8,709903.3,236102.3,683058.3,594409.9,0.0
249983.1,274566.4,709687.9,495398.1,709596.3,233897.0,680974.6,592145.8,0.0
245007.9,271030.4,709379.9,490627.8,709277.1,230699.8,677468.4,587581.3,0.0
244076.9,270745.7,709465.3,489257.6,709360.2,230587.0,677043.4,586405.4,0.0
249608.3,274757.0,709897.2,493168.2,709803.8,234333.6,680997.3,591180.8,0.0
252718.0,276673.4,709987.8,495066.2,709900.8,236056.3,683043.8,594246.0,0.0
249894.6,274309.2,709686.9,492059.7,709593.6,233845.5,680951.6,591971.6,0.0
244925.0,270774.6,709381.8,487314.0,709277.1,230658.0,677456.9,587415.9,0.0
243997.6,270493.7,709468.6,485966.9,709361.8,230550.8,677042.1,586248.2,0.0
249512.5,274495.8,709897.9,489878.8,709803.4,234283.5,680991.6,591010.0,0.0
252631.7,276422.1,709989.3,491800.2,709901.4,236010.7,683058.0,594084.4,0.0
249812.6,274060.2,709687.6,488814.1,709593.6,233796.8,680963.3,591813.8,0.0
244834.5,270521.7,709378.8,484074.8,709273.3,230597.7,677456.4,587244.8,0.0
243914.0,270247.6,709466.1,482745.4,709358.1,230496.0,677044.9,586081.6,0.0
249447.2,274261.8,709897.7,486684.6,709801.9,234242.4,681002.4,590860.1,0.0
252563.2,276184.8,709988.9,488613.9,709899.9,235963.6,683051.3,593927.8,0.0
249741.6,273822.8,709686.6,485633.5,709591.1,233744.2,680956.2,591649.8,0.0
244778.3,270299.6,709383.7,480921.1,709276.5,230559.7,677463.4,587096.4,0.0
243836.5,270008.8,709469.1,479592.8,709359.4,230442.9,677036.9,585916.1,0.0
249355.3,274013.4,709897.9,483538.6,709800.1,234182.1,680991.6,590682.6,0.0
252473.1,275939.1,709989.3,485486.4,709898.5,235910.5,683057.0,593754.2,0.0
249658.8,273581.3,709687.1,482528.1,709589.6,233701.5,680960.5,591483.7,0.0
244695.7,270057.6,709379.9,477829.1,709271.3,230515.0,677464.1,586927.8,0.0
243753.7,269767.4,709463.6,476510.3,709352.5,230392.8,677031.0,585744.1,0.0
249277.0,273776.5,709895.1,480471.5,709796.1,234132.1,680983.8,590513.4,0.0
252408.5,275714.9,709988.4,482443.5,709896.1,235867.9,683057.6,593595.1,0.0
249594.9,273362.4,709686.2,479502.4,709587.4,233661.7,680964.6,591327.8,0.0
244620.5,269831.8,709379.7,474807.3,709269.3,230468.8,677458.9,586761.4,0.0
243695.6,269557.2,709466.9,473518.7,709354.4,230365.6,677046.4,585594.8,0.0
249226.7,273575.2,709899.4,477504.0,709799.0,234115.1,681007.7,590374.7,0.0
252338.3,275497.2,709991.8,479474.3,709897.8,235836.6,683052.6,593441.0,0.0
249521.4,273138.0,709690.0,476542.1,709589.9,233624.8,680958.3,591166.5,0.0
244556.1,269616.1,709383.0,471863.9,709271.3,230437.6,677458.1,586603.4,0.0
243627.2,269340.6,709468.0,470582.8,709353.5,230330.7,677038.1,585430.3,0.0
249151.1,273351.7,709899.8,474571.9,709797.3,234070.6,680996.2,590201.1,0.0
252257.2,275270.9,709989.6,476550.2,709894.6,235787.0,683047.0,593260.5,0.0
249425.4,272905.2,709686.9,473618.5,709585.1,233567.8,680935.8,590975.3,0.0
244476.6,269395.4,709382.8,468969.9,709269.1,230392.9,677453.3,586433.4,0.0
243553.7,269123.4,709467.3,467705.0,709351.9,230283.4,677036.0,585265.5,0.0
249077.1,273138.0,709897.8,471706.0,709795.1,234023.0,680982.6,590032.5,0.0
252193.2,275066.5,709990.1,473706.8,709894.0,235748.2,683028.1,593101.1,0.0
249357.7,272694.3,709689.6,470790.2,709586.8,233528.0,680924.8,590815.3,0.0
244407.9,269182.5,709384.8,466149.2,709270.1,230348.0,677433.4,586265.1,0.0
243494.3,268920.3,709468.8,464901.9,709351.5,230245.1,677021.7,585101.2,0.0
249004.5,272922.8,709898.5,468906.9,709793.6,233977.7,680970.5,589861.1,0.0
252122.4,274853.2,709991.1,470922.9,709893.3,235706.2,683049.9,592934.9,0.0
249316.6,272503.7,709690.4,468041.4,709586.0,233505.5,680958.4,590676.1,0.0
244365.3,268993.3,709386.1,463410.0,709270.1,230322.3,677464.0,586122.4,0.0
243432.7,268717.3,709473.8,462164.0,709355.4,230213.7,677041.4,584946.2,0.0
248946.4,272720.7,709902.3,466184.0,709797.0,233950.9,680983.8,589707.0,0.0
252068.3,274651.1,709993.4,468213.3,709894.6,235677.3,683032.9,592780.4,0.0
249249.3,272296.9,709692.9,465335.5,709587.6,233469.3,680943.8,590514.4,0.0
244280.3,268775.9,709384.3,460700.6,709267.3,230274.3,677437.1,585948.1,0.0
243339.1,268491.0,709468.6,459460.0,709348.6,230154.1,677007.0,584765.1,0.0
248872.2,272514.6,709900.2,463507.6,709792.6,233901.5,680971.5,589541.3,0.0
252007.8,274458.3,709995.5,465559.7,709894.8,235640.0,683061.1,592627.1,0.0
249192.7,272105.1,709693.8,462698.0,709586.8,233437.3,680965.3,590362.2,0.0
244217.3,268578.3,709385.8,458070.3,709267.4,230239.0,677451.4,585789.6,0.0
243285.4,268304.7,709471.8,456846.1,709350.6,230127.3,677026.1,584611.8,0.0
248802.5,272312.1,709901.6,460891.5,709793.1,233866.0,680977.4,589376.9,0.0
251930.3,274251.1,709995.0,462948.6,709893.8,235601.0,683057.2,592457.1,0.0
249131.6,271917.7,709696.4,460102.5,709588.3,233402.7,680963.6,590198.8,0.0
244163.2,268396.4,709392.8,455497.1,709272.6,230217.0,677464.3,585642.4,0.0
243219.3,268110.9,709476.1,454275.7,709354.0,230099.1,677031.1,584460.1,0.0
248741.9,272123.7,709904.3,458331.4,709794.4,233833.0,680977.9,589222.4,0.0
251863.5,274056.1,709995.9,460394.6,709893.6,235561.4,683041.3,592294.2,0.0
249060.7,271716.0,709697.3,457557.3,709588.4,233364.4,680948.1,590031.8,0.0
244093.0,268196.6,709389.5,452955.9,709268.3,230168.7,677441.7,585464.2,0.0
243157.0,267919.1,709476.3,451753.9,709352.4,230052.9,677017.2,584285.1,0.0
248686.9,271940.1,709908.7,455836.6,709797.3,233801.8,680980.1,589061.9,0.0
251814.0,273879.8,709999.5,457916.7,709895.3,235535.5,683049.1,592143.5,0.0
248991.1,271523.1,709694.0,455068.6,709583.4,233315.8,680937.7,589859.8,0.0
244018.6,267999.3,709387.6,450478.5,709264.9,230123.1,677434.6,585290.6,0.0
243097.9,267735.8,709474.7,449299.1,709349.9,230020.8,677020.0,584125.5,0.0
248631.1,271760.2,709905.2,453393.2,709792.9,233769.4,680980.2,588904.9,0.0
251747.9,273691.6,709996.1,455476.2,709890.9,235495.8,683043.9,591976.9,0.0
248928.3,271337.3,709695.1,452650.8,709583.8,233288.8,680948.0,589707.2,0.0
243962.3,267820.2,709388.8,448069.4,709265.3,230098.6,677441.3,585139.6,0.0
243032.1,267548.4,709474.6,446882.8,709348.1,229987.3,677014.4,583958.6,0.0
248571.8,271576.5,709907.0,450988.0,709793.1,233738.5,680980.8,588739.3,0.0
251702.6,273520.7,709999.9,453091.3,709893.7,235474.2,683064.0,591819.9,0.0
248890.4,271172.8,709698.1,450275.8,709585.3,233267.2,680963.0,589547.5,0.0
243919.1,267648.3,709390.7,445707.2,709265.9,230078.3,677456.0,584980.6,0.0
242984.3,267368.6,709477.1,444534.3,709349.4,229967.5,677030.6,583802.1,0.0
248523.2,271401.4,709910.4,448649.1,709795.3,233719.3,680992.5,588582.8,0.0
251651.9,273343.0,710002.1,450758.3,709894.0,235451.8,683046.4,591663.9,0.0
248847.3,271004.0,709700.8,447958.3,709586.5,233251.2,680958.4,589402.6,0.0
243873.9,267480.1,709392.8,443394.2,709266.5,230056.6,677450.6,584834.3,0.0
242936.5,267200.3,709478.0,442225.9,709348.8,229939.8,677019.7,583652.3,0.0
248462.7,271218.1,709908.4,446340.8,709792.1,233682.8,680974.0,588423.6,0.0
251602.9,273168.9,710000.8,448465.5,709892.3,235420.0,683045.3,591511.1,0.0
248802.5,270831.0,709700.1,445676.7,709584.7,233216.8,680951.4,589252.6,0.0
243832.6,267311.6,709394.3,441125.9,709266.6,230023.0,677447.7,584688.9,0.0
242893.7,267032.6,709478.3,439966.4,709348.2,229904.5,677017.4,583504.6,0.0
248425.7,271055.5,709909.9,444095.3,709792.8,233648.5,680976.5,588279.4,0.0
251560.8,273000.7,710002.4,446231.2,709892.9,235385.9,683050.0,591367.6,0.0
248756.2,270660.7,709700.8,443449.3,709583.9,233180.9,680954.9,589107.1,0.0
243788.3,267140.8,709392.9,438906.6,709264.1,229986.9,677448.1,584542.3,0.0
242856.0,266870.4,709478.4,437762.6,709346.9,229877.7,677025.7,583368.1,0.0
248381.3,270891.7,709909.6,441894.1,709790.7,233622.1,680980.8,588138.4,0.0
251525.6,272847.5,710003.4,444045.6,709892.1,235369.8,683060.5,591234.9,0.0
248723.2,270510.4,709703.3,441276.7,709585.4,233171.3,680969.5,588978.6,0.0
243734.7,266974.2,709395.3,436731.1,709265.3,229968.5,677452.4,584405.5,0.0
242791.7,266696.7,709479.1,435588.5,709346.5,229852.8,677020.7,583221.9,0.0
248340.7,270741.6,709911.8,439751.2,709792.6,233616.4,680989.6,588012.6,0.0
251481.6,272696.4,710003.8,441905.7,709892.0,235356.8,683049.4,591100.5,0.0
248644.8,270327.9,709700.3,439115.6,709581.9,233130.0,680935.3,588809.3,0.0
243678.7,266803.8,709390.9,434591.9,709259.4,229937.0,677425.9,584246.8,0.0
242762.1,266546.4,709478.0,433476.5,709344.1,229839.3,677011.7,583085.3,0.0
248306.0,270585.7,709911.0,437640.1,709790.3,233596.4,680972.6,587871.6,0.0
251460.3,272551.2,710004.6,439817.4,709891.1,235348.0,683045.1,590977.6,0.0
248665.9,270221.3,709707.8,437073.9,709587.9,233152.7,680969.3,588727.8,0.0
243687.5,266694.0,709399.2,432550.2,709266.7,229950.3,677457.1,584157.1,0.0
242733.9,266405.5,709480.5,431410.4,709345.3,229822.1,677012.8,582963.1,0.0
248283.3,270448.9,709913.6,435588.7,709791.4,233585.9,680980.5,587755.9,0.0
251433.2,272410.9,710006.3,437770.0,709891.8,235336.1,683049.4,590855.7,0.0
248630.5,270073.9,709702.3,435023.7,709581.1,233133.7,680961.4,588599.1,0.0
243660.8,266556.5,709397.4,430517.3,709263.4,229944.6,677462.1,584042.3,0.0
242720.2,266285.2,709484.8,429404.1,709348.3,229832.5,677037.1,582867.8,0.0
248256.8,270319.0,709915.3,433582.1,709792.6,233585.0,680997.2,587651.9,0.0
251407.8,272282.1,710009.3,435775.3,709893.4,235336.5,683066.6,590757.2,0.0
248594.2,269936.6,709707.6,433030.4,709585.1,233129.4,680968.8,588494.8,0.0
243613.3,266412.2,709398.4,428521.5,709263.2,229930.7,677458.7,583926.9,0.0
242677.6,266144.7,709482.9,427418.8,709345.1,229823.2,677035.7,582755.9,0.0
248220.1,270179.2,709914.6,431607.7,709790.3,233578.8,680993.1,587547.6,0.0
251380.1,272148.7,710008.2,433809.3,709891.5,235329.3,683051.1,590658.6,0.0
248574.3,269810.9,709707.1,431075.5,709584.3,233125.0,680968.4,588403.6,0.0
243589.0,266280.9,709397.8,426569.9,709262.6,229922.2,677452.0,583834.3,0.0
242649.5,266005.0,709482.3,425467.6,709344.1,229807.1,677019.1,582658.8,0.0
248199.4,270050.3,709918.6,429672.2,709793.8,233569.8,680990.0,587457.5,0.0
251343.9,272007.5,710009.1,431873.7,709892.3,235313.6,683056.9,590561.1,0.0
248539.4,269670.6,709708.0,429149.8,709583.9,233111.5,680970.3,588308.6,0.0
243567.3,266153.8,709399.9,424661.6,709263.1,229917.3,677463.8,583748.2,0.0
242631.6,265884.1,709486.3,423574.8,709346.5,229805.3,677037.4,582577.1,0.0
248153.4,269903.1,709916.6,427763.1,709790.7,233544.7,680982.3,587351.4,0.0
251301.6,271862.5,710011.1,429972.3,709892.4,235288.4,683048.7,590453.4,0.0
248500.5,269527.5,709710.5,427261.8,709584.6,233088.7,680967.9,588204.0,0.0
243517.6,265999.0,709399.2,422771.7,709260.4,229885.6,677452.7,583633.5,0.0
242569.1,265720.8,709483.6,421677.9,709342.5,229765.7,677018.4,582448.4,0.0
248121.2,269770.2,709915.8,425897.0,709788.2,233528.6,680989.8,587247.5,0.0
251266.7,271728.1,710008.5,428115.2,709888.4,235273.4,683058.3,590349.3,0.0
248468.1,269397.4,709708.1,425410.3,709581.0,233071.8,680975.5,588096.6,0.0
243494.0,265877.6,709398.6,420931.1,709258.6,229869.9,677462.4,583529.3,0.0
242541.4,265594.8,709482.4,419843.8,709340.1,229750.5,677028.6,582344.3,0.0
248082.3,269634.3,709916.1,424062.1,709788.0,233509.0,680994.0,587134.7,0.0
251247.8,271612.3,710011.3,426297.3,709890.4,235260.4,683074.1,590250.1,0.0
248444.7,269275.9,709708.1,423593.8,709580.4,233050.8,680990.4,587997.0,0.0
243457.4,265744.5,709399.1,419116.3,709258.6,229846.0,677474.3,583427.3,0.0
242508.3,265465.3,709483.8,418038.7,709340.3,229730.4,677040.8,582246.1,0.0
248049.6,269509.4,709915.9,422264.4,709786.6,233487.3,680999.6,587034.4,0.0
251205.5,271476.3,710007.8,424502.5,709885.9,235235.3,683059.1,590143.7,0.0
248410.1,269144.5,709708.1,421815.2,709579.7,233036.7,680987.5,587899.0,0.0
243433.4,265623.1,709401.6,417349.4,709259.9,229838.4,677481.4,583336.7,0.0
242481.2,265342.4,709488.1,416278.5,709343.9,229721.5,677050.8,582157.8,0.0
248016.8,269379.0,709920.1,420502.1,709789.8,233469.8,681003.6,586941.3,0.0
251182.6,271353.6,710013.3,422752.2,709890.8,235223.8,683067.4,590059.1,0.0
248377.8,269014.3,709707.9,420060.8,709578.9,233017.1,680979.9,587804.5,0.0
243398.4,265492.6,709400.3,415602.9,709257.8,229821.3,677473.6,583242.1,0.0
242446.6,265215.4,709483.6,414532.1,709338.8,229701.2,677038.3,582056.2,0.0
247970.6,269241.9,709915.3,418759.6,709784.0,233445.8,680989.4,586832.8,0.0
251131.8,271213.2,710010.4,421014.9,709887.1,235197.0,683067.9,589949.4,0.0
248339.9,268886.4,709711.8,418339.4,709581.8,232998.3,680990.9,587706.3,0.0
243357.4,265360.0,709402.4,413879.6,709258.6,229795.5,677474.6,583136.0,0.0
242404.0,265079.0,709485.6,412809.4,709339.0,229670.1,677035.2,581945.2,0.0
247946.8,269121.8,709918.7,417055.8,709786.5,233429.3,681001.4,586740.0,0.0
251101.6,271090.7,710011.6,419316.9,709887.3,235181.3,683063.9,589855.4,0.0
248291.1,268751.4,709708.1,416635.7,709576.1,232969.8,680973.0,587595.6,0.0
243312.4,265227.5,709399.5,412186.1,709254.7,229767.3,677461.3,583029.0,0.0
242367.0,264957.1,709484.8,411130.7,709337.2,229649.7,677027.1,581845.4,0.0
247911.3,269002.8,709917.0,415382.0,709783.5,233407.3,680986.9,586636.6,0.0
251080.7,270984.9,710011.7,417656.7,709886.3,235167.3,683056.6,589762.7,0.0
248267.2,268644.8,709710.6,414980.1,709577.7,232958.2,680970.3,587504.3,0.0
243281.9,265119.2,709402.3,410533.1,709256.2,229755.0,677457.1,582932.9,0.0
242340.9,264849.0,709486.1,409486.0,709337.3,229638.5,677028.0,581754.3,0.0
247870.9,268877.2,709915.5,413732.3,709781.0,233385.3,680990.2,586538.9,0.0
251008.8,270831.5,710007.9,415987.7,709881.4,235121.0,683065.7,589638.3,0.0
248183.9,268482.4,709704.3,413300.9,709570.4,232896.3,680951.4,587361.1,0.0
243242.1,264989.3,709400.7,408897.2,709253.4,229724.4,677466.9,582827.9,0.0
242307.0,264724.2,709487.4,407865.2,709337.5,229614.0,677044.8,581658.5,0.0
247836.0,268756.7,709915.9,412116.8,709780.1,233358.5,680993.3,586441.1,0.0
251004.5,270735.5,710012.1,414404.7,709884.4,235115.5,683065.1,589567.9,0.0
248207.5,268406.1,709710.8,411751.6,709576.1,232916.6,680992.1,587325.6,0.0
243228.8,264883.9,709403.2,407317.6,709254.9,229711.8,677477.9,582757.1,0.0
242272.2,264601.8,709486.7,406274.2,709335.7,229586.1,677037.9,581568.8,0.0
247809.7,268643.7,709918.2,410541.5,709781.8,233339.1,680996.6,586357.8,0.0
250972.4,270618.9,710011.1,412830.9,709882.7,235092.2,683065.9,589476.9,0.0
248175.8,268291.2,709709.9,410183.8,709574.1,232892.9,680994.9,587234.7,0.0
243190.6,264762.3,709400.8,405752.2,709251.4,229686.0,677479.7,582664.7,0.0
242231.8,264478.1,709483.2,404712.5,709331.1,229557.6,677034.6,581469.9,0.0
247766.7,268517.3,709916.3,408985.9,709778.8,233310.9,680994.6,586258.2,0.0
250928.7,270492.2,710012.4,411281.1,709882.8,235066.5,683073.9,589376.8,0.0
248138.3,268170.0,709710.6,408643.5,709574.3,232868.5,680993.7,587132.9,0.0
243160.8,264649.7,709402.8,404227.7,709252.7,229668.3,677481.9,582569.9,0.0
242198.2,264362.6,709484.1,403190.9,709331.4,229537.9,677039.0,581374.4,0.0
247718.9,268389.4,709912.6,407455.9,709774.1,233279.4,680982.5,586147.8,0.0
250884.2,270365.3,710007.1,409759.3,709876.9,235035.8,683048.1,589270.5,0.0
248089.8,268038.7,709708.3,407128.8,709570.4,232838.4,680975.5,587030.9,0.0
243108.2,264516.1,709399.1,402714.9,709247.2,229634.2,677462.4,582465.4,0.0
242149.1,264233.9,709482.7,401688.8,709328.1,229510.9,677023.3,581273.5,0.0
247686.0,268278.5,709915.3,405972.3,709775.8,233268.9,680986.0,586060.2,0.0
250847.5,270254.8,710008.8,408280.0,709877.3,235023.6,683065.7,589178.1,0.0
248051.2,267927.1,709707.2,405651.0,709568.3,232823.0,680985.6,586932.5,0.0
243076.9,264408.5,709401.3,401245.1,709248.7,229625.7,677473.7,582370.1,0.0
242107.9,264120.8,709483.8,400211.9,709328.1,229494.1,677021.5,581166.8,0.0
247639.2,268159.8,709916.2,404498.0,709775.6,233246.2,680978.4,585947.5,0.0
250807.2,270137.7,710010.4,406815.5,709877.9,235003.2,683060.1,589070.3,0.0
248021.0,267817.0,709708.6,404193.7,709568.5,232807.0,680982.8,586830.3,0.0
243039.3,264292.5,709399.9,399784.8,709245.6,229602.1,677467.8,582260.4,0.0
242069.7,264002.1,709480.2,398756.3,709323.2,229466.2,677017.8,581056.9,0.0
247607.2,268045.5,709913.5,403052.9,709771.6,233224.9,680978.5,585847.8,0.0
250780.2,270030.9,710010.6,405381.4,709877.1,234988.7,683053.2,588978.3,0.0
247985.5,267705.8,709708.3,402763.8,709567.3,232790.1,680978.8,586733.7,0.0
243005.3,264184.7,709398.4,398363.9,709243.3,229589.9,677465.1,582166.9,0.0
242031.0,263890.5,709480.6,397338.2,709322.4,229454.6,677013.9,580960.4,0.0
247567.6,267935.0,709915.7,401640.3,709772.9,233213.4,680977.6,585749.2,0.0
250749.2,269927.1,710013.5,403982.8,709879.3,234986.0,683062.4,588889.2,0.0
247946.9,267590.9,709710.6,401362.7,709568.8,232778.6,680977.5,586636.7,0.0
242964.5,264063.8,709402.5,396964.4,709246.3,229572.4,677458.9,582065.0,0.0
242008.6,263788.5,709488.1,395958.8,709328.9,229450.8,677018.2,580872.5,0.0
247546.8,267836.0,709921.9,400268.3,709778.0,233211.4,680985.6,585663.5,0.0
250717.7,269817.2,710013.4,402601.2,709878.0,234969.2,683064.7,588788.8,0.0
247925.9,267491.2,709710.3,399992.0,709567.2,232768.5,680979.0,586546.1,0.0
242946.8,263968.2,709400.9,395597.2,709243.1,229560.1,677463.6,581975.8,0.0
241975.0,263676.5,709482.9,394580.5,709322.3,229420.4,677007.9,580766.4,0.0
247506.8,267715.4,709914.1,398889.8,709768.7,233174.8,680967.2,585550.3,0.0
250692.1,269712.4,710011.0,401243.1,709874.6,234947.3,683066.3,588687.9,0.0
247910.8,267396.8,709713.2,398650.2,709569.8,232758.5,680998.3,586454.4,0.0
242927.1,263870.2,709404.4,394262.0,709246.3,229554.9,677481.1,581885.1,0.0
241949.7,263572.8,709486.7,393251.1,709325.1,229417.5,677027.1,580677.0,0.0
247479.5,267613.4,709919.3,397561.2,709773.4,233169.8,680979.3,585454.0,0.0
250664.4,269612.3,710015.6,399915.3,709878.4,234939.4,683061.1,588587.4,0.0
247881.3,267295.4,709714.5,397325.0,709570.1,232746.3,680990.8,586351.4,0.0
242901.4,263770.8,709404.7,392939.2,709245.2,229540.2,677471.7,581781.9,0.0
241927.2,263480.9,709486.8,391929.3,709324.0,229402.8,677017.4,580573.6,0.0
247453.8,267521.2,709920.1,396244.1,709773.1,233155.9,680975.3,585356.4,0.0
250635.3,269512.8,710015.6,398601.6,709877.3,234925.2,683070.1,588492.5,0.0
247848.0,267188.7,709713.0,396010.0,709566.9,232725.3,680991.0,586250.0,0.0
242874.8,263669.0,709404.9,391633.8,709244.5,229520.4,677472.8,581683.4,0.0
241901.1,263376.8,709487.6,390629.0,709323.8,229381.7,677015.4,580474.3,0.0
247422.8,267411.7,709918.8,394944.8,709771.0,233130.3,680968.4,585250.6,0.0
250606.7,269410.2,710013.8,397308.4,709875.0,234899.4,683061.8,588386.6,0.0
247830.3,267101.8,709714.6,394733.3,709568.1,232712.2,680994.0,586157.1,0.0
242847.6,263575.9,709405.9,390359.9,709244.5,229512.2,677479.5,581592.4,0.0
241871.2,263282.6,709487.4,389358.5,709323.1,229374.2,677023.4,580383.6,0.0
247384.7,267311.5,709916.8,393664.7,709768.3,233108.9,680963.8,585145.4,0.0
250551.4,269295.0,710011.1,396020.4,709871.1,234866.5,683044.3,588268.4,0.0
247743.3,266958.0,709710.4,393425.2,709562.7,232657.9,680949.4,586011.6,0.0
242795.7,263459.9,709405.1,389085.3,709242.9,229483.0,677458.9,581472.5,0.0
241831.8,263175.3,709487.4,388100.1,709321.8,229357.3,677012.6,580274.0,0.0
247362.0,267223.2,709918.5,392429.9,709769.1,233111.4,680965.3,585057.3,0.0
250550.7,269228.2,710014.6,394808.3,709873.9,234885.9,683051.4,588203.1,0.0
247760.0,266903.3,709713.3,392231.2,709564.8,232687.8,680974.8,585963.6,0.0
242766.2,263365.8,709400.8,387853.8,709237.4,229470.0,677444.1,581379.9,0.0
241793.5,263076.9,709484.9,386865.8,709318.0,229337.0,676994.3,580174.1,0.0
247315.2,267112.0,709917.1,391193.8,709766.7,233089.7,680952.6,584952.3,0.0
250510.6,269118.3,710015.4,393577.9,709873.0,234867.5,683054.9,588097.8,0.0
247737.1,266812.4,709714.8,391015.4,709564.5,232679.4,680986.7,585870.4,0.0
242755.5,263286.4,709402.1,386650.7,709237.1,229469.3,677465.9,581299.2,0.0
241764.6,262979.8,709481.8,385648.9,709313.7,229319.5,676995.8,580074.4,0.0
247291.6,267019.1,709913.7,389980.3,709762.9,233068.1,680947.0,584848.5,0.0
250483.3,269020.2,710011.8,392372.2,709869.7,234846.1,683050.9,587997.4,0.0
247713.9,266715.0,709714.9,389819.4,709564.9,232662.0,680985.4,585775.4,0.0
242741.8,263199.3,709405.9,385462.8,709240.4,229459.9,677469.0,581208.1,0.0
241766.0,262911.6,709487.3,384478.7,709317.8,229326.0,677013.9,579998.4,0.0
247286.7,266948.3,709919.9,388814.7,709767.3,233079.2,680967.9,584778.3,0.0
250473.9,268951.4,710017.6,391206.3,709874.1,234858.5,683057.6,587926.6,0.0
247685.3,266627.9,709714.5,388638.7,709563.4,232659.7,680980.0,585690.2,0.0
242699.4,263096.1,709404.0,384277.2,709237.1,229447.7,677455.7,581116.1,0.0
241721.4,262806.3,709488.1,383293.9,709318.0,229310.8,676997.6,579903.9,0.0
247242.8,266843.4,709921.2,387635.8,709767.7,233062.7,680954.7,584682.6,0.0
250433.1,268842.8,710018.1,390033.3,709873.6,234837.3,683053.5,587828.6,0.0
247657.1,266532.0,709717.4,387479.4,709564.9,232648.5,680978.9,585601.2,0.0
242674.8,263006.6,709406.5,383124.9,709238.1,229440.1,677454.3,581031.9,0.0
241676.8,262696.8,709486.3,382133.4,709314.7,229289.8,676984.6,579808.1,0.0
247204.1,266741.5,709918.8,386481.6,709764.7,233042.2,680948.0,584591.2,0.0
250404.3,268750.9,710017.3,388888.8,709872.3,234823.1,683055.7,587748.8,0.0
247630.4,266438.0,709717.0,386338.9,709564.1,232631.5,680981.1,585523.3,0.0
242654.7,262914.3,709407.4,381990.6,709238.3,229421.6,677462.3,580954.3,0.0
241672.8,262616.7,709490.1,381010.9,709317.6,229277.6,676999.1,579736.0,0.0
247185.1,266647.2,709922.6,385355.2,709767.7,233022.6,680952.4,584508.0,0.0
250377.9,268654.4,710019.2,387763.7,709873.4,234803.6,683058.4,587658.9,0.0
247599.9,266341.4,709716.8,385218.1,709562.6,232613.8,680983.7,585430.1,0.0
242612.9,262813.3,709405.8,380869.1,709235.3,229401.6,677456.6,580854.4,0.0
241626.4,262514.6,709486.0,379890.6,709312.4,229255.1,676991.3,579634.6,0.0
247146.6,266550.7,709917.8,384245.1,709761.7,233002.9,680953.2,584413.8,0.0
250344.3,268560.3,710015.9,386656.2,709869.0,234782.1,683070.9,587565.7,0.0
247577.7,266256.1,709716.3,384118.0,709561.4,232597.5,680996.4,585342.4,0.0
242600.8,262732.4,709405.9,379776.4,709234.6,229388.9,677474.7,580772.6,0.0
241608.9,262429.5,709487.1,378798.1,709311.6,229239.0,677005.1,579551.2,0.0
247121.0,266463.1,709917.9,383149.1,709760.3,232987.3,680958.6,584324.8,0.0
250317.3,268471.2,710016.3,385570.7,709868.3,234774.6,683070.8,587483.3,0.0
247551.8,266170.3,709717.4,383041.7,709561.4,232592.9,681007.2,585265.2,0.0
242570.9,262647.4,709405.3,378698.4,709232.1,229376.8,677479.1,580690.6,0.0
241571.9,262338.8,709485.4,377713.4,709309.1,229220.8,676999.5,579458.4,0.0
247085.9,266372.5,709917.0,382066.5,709758.6,232970.0,680947.8,584229.9,0.0
250277.0,268373.8,710011.3,384486.2,709862.9,234753.1,683052.2,587382.8,0.0
247508.1,266066.1,709712.3,381959.9,709555.2,232571.4,680987.1,585163.4,0.0
242528.1,262541.9,709403.9,377621.9,709229.6,229361.3,677461.5,580589.4,0.0
241524.8,262229.5,709482.3,376633.8,709304.2,229200.2,676978.5,579350.6,0.0
247042.8,266270.2,709917.4,380995.7,709758.1,232955.6,680934.4,584128.4,0.0
250243.3,268284.1,710015.6,383425.8,709866.5,234743.9,683048.1,587291.8,0.0
247474.3,265972.9,709711.2,380896.6,709553.5,232549.1,680977.3,585069.1,0.0
242493.9,262441.9,709400.1,376555.8,709224.8,229328.5,677444.5,580488.3,0.0
241501.0,262139.0,709484.3,375579.7,709305.1,229175.8,676970.0,579256.8,0.0
247021.0,266182.1,709916.8,379945.3,709756.7,232933.7,680934.2,584036.2,0.0
250223.8,268194.9,710014.2,382376.8,709864.0,234721.8,683055.3,587195.4,0.0
247461.5,265890.8,709714.3,379857.3,709555.6,232539.6,680982.1,584979.9,0.0
242486.8,262363.3,709405.1,375529.4,709228.9,229325.9,677454.9,580409.8,0.0
241492.5,262056.3,709487.3,374561.0,709306.6,229171.2,676979.5,579180.1,0.0
247010.8,266102.9,709921.8,378934.6,709760.6,232931.1,680943.3,583962.7,0.0
250213.8,268122.3,710018.3,381375.7,709866.9,234723.8,683059.9,587130.4,0.0
247445.4,265814.9,709716.6,378856.8,709556.9,232535.5,680987.3,584911.5,0.0
242475.1,262291.8,709407.1,374534.6,709229.4,229325.7,677460.2,580345.6,0.0
241455.5,261962.3,709484.3,373545.8,709302.0,229152.0,676962.1,579093.9,0.0
246965.6,266000.8,709915.3,377909.3,709752.3,232900.5,680915.4,583863.1,0.0
250181.6,268028.4,710016.7,380363.9,709864.5,234702.2,683042.8,587039.0,0.0
247421.1,265724.7,709716.8,377850.8,709555.8,232514.8,680973.6,584820.8,0.0
242445.2,262194.8,709403.8,373517.5,709224.6,229289.9,677435.6,580240.1,0.0
241443.4,261879.9,709485.9,372551.1,709302.5,229133.8,676956.1,579008.8,0.0
246954.9,265922.8,709916.6,376920.3,709752.8,232885.4,680915.7,583780.0,0.0
250145.5,267931.3,710011.1,379352.8,709858.4,234667.8,683034.0,586932.4,0.0
247358.1,265604.6,709709.4,376821.1,709547.8,232463.0,680938.0,584690.2,0.0
242418.4,262100.2,709401.9,372523.9,709221.7,229268.4,677429.2,580145.3,0.0
241423.9,261794.7,709483.1,371559.6,709298.1,229115.0,676951.5,578912.9,0.0
246937.2,265845.2,709915.9,375938.5,709751.4,232876.8,680913.6,583688.5,0.0
250156.4,267883.3,710014.3,378399.5,709860.7,234681.9,683043.8,586869.8,0.0
247404.4,265587.3,709714.3,375898.7,709551.3,232502.4,680983.0,584664.9,0.0
242422.6,262048.0,709403.0,371572.4,709220.8,229277.9,677443.8,580087.3,0.0
241401.8,261719.2,709483.4,370591.0,709296.8,229105.7,676947.4,578833.7,0.0
246907.1,265759.7,709914.3,374961.3,709748.6,232858.9,680907.2,583600.1,0.0
250126.0,267795.5,710013.8,377423.7,709858.6,234664.2,683052.0,586777.7,0.0
247373.7,265497.5,709714.9,374930.2,709551.3,232488.8,680987.3,584573.9,0.0
242400.3,261963.9,709404.4,370613.2,709221.5,229267.9,677450.6,580000.4,0.0
241384.4,261642.9,709483.2,369635.8,709295.3,229094.0,676952.8,578747.7,0.0
246885.8,265684.5,709917.3,374015.1,709750.4,232850.6,680910.1,583520.1,0.0
250105.8,267724.8,710019.6,376486.9,709863.8,234658.7,683045.6,586702.1,0.0
247356.8,265429.6,709719.3,373994.9,709554.8,232479.9,680989.3,584498.9,0.0
242372.0,261887.2,709406.7,369669.3,709221.9,229254.1,677448.8,579918.4,0.0
241345.5,261554.6,709482.3,368680.5,709292.5,229073.6,676941.3,578652.0,0.0
246840.2,265588.6,709913.4,373053.8,709746.4,232827.5,680897.1,583414.6,0.0
250069.2,267632.0,710015.1,375532.2,709858.7,234646.3,683049.9,586604.5,0.0
247319.6,265338.3,709714.3,373042.4,709548.6,232469.4,680984.4,584399.6,0.0
242343.7,261810.6,709404.6,368726.0,709219.0,229247.9,677448.1,579822.5,0.0
241322.5,261484.0,709484.9,367751.6,709293.6,229077.1,676948.4,578567.6,0.0
246820.9,265519.5,709917.4,372134.7,709748.6,232834.7,680908.1,583338.4,0.0
250046.8,267562.5,710016.6,374611.8,709859.5,234646.3,683057.6,586525.9,0.0
247296.8,265267.8,709718.4,372124.3,709552.3,232469.2,680990.8,584325.1,0.0
242314.2,261725.5,709407.2,367805.7,709220.1,229240.5,677445.3,579748.3,0.0
241293.5,261400.0,709486.5,366832.3,709294.0,229066.4,676943.1,578493.3,0.0
246792.7,265439.4,709916.6,371213.8,709747.1,232815.8,680896.9,583257.8,0.0
250005.3,267468.4,710014.8,373691.2,709856.8,234624.0,683041.7,586439.7,0.0
247258.4,265176.9,709715.4,371208.8,709548.1,232450.9,680978.4,584241.4,0.0
242266.5,261627.6,709400.4,366887.0,709211.9,229218.3,677428.9,579658.0,0.0
241256.6,261314.6,709480.1,365922.8,709286.0,229048.1,676932.0,578410.8,0.0
246765.2,265362.1,709915.4,370314.3,709745.0,232805.1,680892.6,583183.3,0.0
249982.3,267394.9,710016.3,372793.1,709857.4,234611.3,683036.6,586364.8,0.0
247231.9,265097.6,709715.1,370309.3,709546.7,232431.0,680968.8,584163.1,0.0
242259.1,261567.2,709403.4,366003.8,709212.8,229208.8,677433.3,579593.0,0.0
241229.1,261231.5,709481.6,365027.0,709284.8,229026.5,676925.1,578326.5,0.0
246737.4,265273.1,709916.1,369421.0,709744.8,232784.6,680888.5,583099.0,0.0
249972.7,267324.0,710017.8,371916.0,709858.3,234601.2,683045.3,586293.4,0.0
247225.3,265031.7,709719.8,369442.9,709550.6,232424.0,680983.8,584094.2,0.0
242247.4,261493.3,709408.2,365134.8,709215.8,229196.4,677444.8,579515.1,0.0
241212.0,261151.7,709482.4,364152.5,709283.8,229004.7,676929.8,578240.2,0.0
246699.3,265178.9,709912.1,368532.9,709739.1,232746.6,680877.9,582995.2,0.0
249917.9,267213.8,710012.4,371028.8,709851.8,234564.0,683032.8,586187.9,0.0
247187.6,264936.9,709713.4,368565.5,709543.2,232398.5,680977.8,583997.6,0.0
242215.9,261406.7,709402.4,364263.2,709208.6,229174.3,677439.3,579422.0,0.0
241189.5,261076.5,709480.9,363294.8,709280.3,228995.6,676934.6,578158.3,0.0
246691.2,265116.9,709913.7,367689.3,709739.9,232751.1,680893.0,582924.6,0.0
249911.3,267153.1,710012.8,370182.5,709851.6,234561.7,683040.6,586110.5,0.0
247165.4,264859.8,709714.9,367719.3,709543.8,232389.1,680983.1,583918.4,0.0
242194.0,261331.5,709405.1,363419.0,709208.8,229164.8,677445.0,579342.9,0.0
241175.1,261008.6,709487.1,362456.6,709283.6,228989.9,676943.6,578083.4,0.0
246667.9,265043.0,709918.4,366845.8,709743.3,232738.1,680895.5,582841.8,0.0
249884.6,267076.4,710017.1,369336.0,709854.4,234542.1,683038.1,586021.8,0.0
247139.9,264786.2,709716.4,366868.3,709544.4,232365.0,680975.1,583821.9,0.0
242160.5,261249.3,709405.0,362569.5,709207.1,229141.3,677437.5,579247.6,0.0
241128.1,260915.8,709485.4,361604.6,709279.7,228963.3,676933.6,577984.5,0.0
246633.1,264962.1,709919.1,366008.6,709743.3,232722.2,680897.2,582755.9,0.0
249856.1,266999.4,710018.1,368505.7,709854.7,234531.1,683043.6,585943.3,0.0
247103.7,264700.5,709717.4,366034.3,709543.8,232347.1,680971.8,583739.4,0.0
242127.3,261167.3,709406.3,361737.2,709204.9,229120.1,677431.2,579163.1,0.0
241104.1,260842.0,709484.8,360777.5,709274.9,228944.3,676929.3,577902.5,0.0
246604.9,264883.8,709917.9,365177.3,709740.7,232699.6,680888.2,582670.1,0.0
249834.0,266929.0,710018.5,367681.5,709854.1,234514.1,683043.9,585863.3,0.0
247093.5,264640.4,709718.8,365224.2,709544.4,232339.8,680986.9,583668.6,0.0
242103.9,261092.3,709404.0,360916.5,709199.8,229098.1,677433.7,579077.1,0.0
241073.1,260757.0,709480.5,359951.5,709265.9,228912.4,676922.1,577807.8,0.0
246579.9,264804.9,709916.3,364363.1,709737.1,232674.8,680889.1,582581.2,0.0
249792.8,266836.8,710017.3,366859.6,709851.5,234479.7,683032.7,585759.3,0.0
247011.5,264513.2,709713.6,364370.3,709538.1,232274.5,680939.8,583525.7,0.0
242064.1,261002.1,709402.6,360103.2,709193.5,229069.2,677420.7,578974.1,0.0
241054.0,260686.4,709482.7,359158.8,709260.6,228902.4,676927.8,577726.1,0.0
246550.9,264722.8,709914.9,363556.5,709734.9,232652.0,680879.5,582485.8,0.0
249786.2,266771.9,710016.3,366071.0,709850.3,234471.2,683050.7,585685.8,0.0
247053.4,264493.2,709717.4,363628.1,709540.6,232306.4,680996.6,583501.5,0.0
242074.9,260956.6,709406.7,359336.4,709188.3,229079.5,677453.1,578924.4,0.0
241041.2,260622.0,709481.3,358367.9,709243.3,228889.0,676936.6,577648.8,0.0
246536.3,264660.7,709914.6,362770.5,709732.2,232638.6,680891.4,582411.9,0.0
249759.6,266698.3,710015.4,365279.0,709848.3,234450.1,683042.3,585602.3,0.0
247022.0,264413.5,709716.0,362832.4,709538.3,232280.6,680986.2,583414.6,0.0
242053.0,260888.5,709404.6,358548.5,709167.1,229056.7,677449.9,578845.6,0.0
241015.7,260553.0,709479.6,357587.2,709204.9,228870.7,676937.6,577572.9,0.0
246507.4,264586.6,709911.9,361993.6,709726.8,232621.3,680892.6,582333.3,0.0
249736.4,266627.2,710015.3,364514.6,709847.4,234440.4,683051.6,585532.9,0.0
247005.8,264347.6,709716.1,362071.0,709537.1,232269.6,680999.8,583345.4,0.0
242032.7,260817.2,709404.4,357786.7,709136.6,229041.3,677462.3,578771.6,0.0
240990.9,260477.0,709482.1,356821.2,709151.1,228848.9,676942.8,577495.0,0.0
246476.5,264503.1,709913.3,361225.3,709724.3,232594.9,680889.7,582252.0,0.0
249723.4,266561.8,710015.6,363759.9,709846.6,234424.1,683056.2,585459.9,0.0
246999.5,264292.9,709718.1,361328.2,709537.5,232261.2,681011.4,583283.8,0.0
242004.0,260741.2,709403.4,357031.2,709096.0,229022.1,677461.6,578698.3,0.0
240956.8,260395.1,709479.9,356065.8,709079.6,228829.2,676942.4,577419.0,0.0
246462.2,264442.8,709914.1,360480.0,709719.6,232582.2,680899.1,582184.6,0.0
249695.9,266486.9,710016.7,363004.5,709846.8,234399.0,683054.9,585382.8,0.0
246958.2,264202.2,709716.8,360560.6,709535.1,232225.3,680994.9,583193.2,0.0
241989.5,260676.6,709405.3,356286.1,709063.4,229006.2,677463.9,578628.4,0.0
240955.3,260339.6,709483.2,355333.8,709016.1,228823.5,676955.6,577362.2,0.0
246446.1,264371.6,709914.5,359741.2,709712.7,232567.6,680900.1,582117.5,0.0
249683.5,266421.4,710017.3,362271.8,709846.6,234391.0,683046.9,585318.8,0.0
246958.5,264148.9,709719.9,359844.2,709536.9,232233.1,681004.9,583141.8,0.0
241983.4,260619.7,709408.0,355563.8,709019.2,229007.0,677465.7,578569.5,0.0
240933.4,260272.1,709482.7,354598.6,708934.1,228810.3,676939.9,577285.7,0.0
246410.5,264292.8,709913.5,358997.5,709702.7,232549.2,680879.5,582030.6,0.0
249663.9,266355.8,710013.2,361534.5,709841.3,234374.1,683042.3,585234.3,0.0
246938.7,264080.3,709715.1,359108.6,709530.3,232211.8,680995.4,583053.9,0.0
241950.4,260535.6,709402.1,354820.8,708954.6,228975.8,677445.8,578468.3,0.0
240900.5,260189.3,709479.6,353859.6,708830.1,228781.5,676922.4,577186.7,0.0
246398.3,264230.5,709912.1,358276.2,709690.9,232532.4,680874.3,581946.0,0.0
249648.8,266291.2,710015.6,360824.1,709843.4,234364.2,683045.2,585161.6,0.0
246915.2,264012.3,709717.4,358394.7,709530.1,232197.9,680993.9,582980.4,0.0
241930.5,260472.6,709404.1,354114.1,708894.8,228966.1,677447.9,578402.3,0.0
240886.0,260133.2,709479.9,353157.1,708726.8,228772.9,676928.8,577123.1,0.0
246395.9,264187.5,709917.6,357593.0,709683.5,232539.3,680894.9,581902.1,0.0
249638.2,266239.5,710018.5,360134.6,709845.1,234365.5,683045.2,585110.4,0.0
246892.5,263946.0,709714.9,357689.9,709524.9,232184.5,680984.6,582913.1,0.0
241919.7,260418.3,709402.0,353410.7,708826.9,228954.6,677441.0,578336.3,0.0
240872.2,260072.0,709475.8,352453.7,708617.2,228759.3,676918.3,577058.1,0.0
246360.4,264107.2,709908.7,356867.9,709661.6,232504.9,680867.3,581814.1,0.0
249608.9,266172.0,710015.2,359417.8,709841.2,234338.2,683042.8,585029.1,0.0
246879.6,263897.0,709716.6,356994.7,709523.9,232174.9,680994.5,582848.5,0.0
241895.7,260357.2,709402.0,352717.1,708751.3,228943.2,677446.8,578268.9,0.0
240850.3,260015.9,709478.9,351762.4,708501.0,228751.2,676922.6,576986.7,0.0
246343.1,264054.8,709913.4,356188.5,709649.5,232506.1,680873.3,581750.9,0.0
249589.6,266112.6,710013.3,358734.0,709838.1,234330.3,683021.1,584957.3,0.0
246853.0,263828.2,709712.3,356307.2,709515.7,232156.9,680969.3,582771.7,0.0
241880.1,260299.3,709401.1,352043.5,708676.5,228934.7,677434.9,578204.5,0.0
240826.8,259950.4,709476.5,351087.2,708378.4,228736.9,676909.0,576918.4,0.0
246322.8,263992.8,709911.4,355515.1,709629.4,232491.1,680864.9,581680.7,0.0
249575.8,266060.0,710016.1,358070.7,709840.3,234323.0,683035.4,584895.9,0.0
246836.7,263771.8,709715.7,355642.7,709515.1,232151.3,680975.8,582709.9,0.0
241850.3,260229.0,709400.3,351360.4,708587.5,228913.5,677420.9,578125.5,0.0
240808.2,259889.6,709477.4,350410.7,708252.8,228724.8,676903.1,576847.1,0.0
246305.9,263932.3,709912.8,354841.7,709610.1,232481.9,680862.1,581611.9,0.0
249548.3,265987.8,710013.5,357390.3,709836.3,234306.4,683024.6,584818.8,0.0
246816.6,263706.1,709713.2,354969.1,709507.4,232138.8,680968.6,582638.5,0.0
241834.7,260166.3,709402.4,350702.7,708506.0,228912.9,677426.9,578067.2,0.0
240775.9,259816.0,709477.4,349743.0,708122.2,228712.3,676897.4,576774.6,0.0
246269.8,263860.4,709908.5,354166.8,709583.3,232462.3,680846.5,581527.1,0.0
249520.0,265920.8,710010.9,356723.6,709832.9,234293.5,683015.2,584738.6,0.0
246772.7,263625.7,709711.8,354292.4,709500.4,232114.3,680950.8,582542.0,0.0
241813.4,260106.1,709402.0,350041.2,708415.1,228900.5,677422.3,577983.7,0.0
240765.8,259764.9,709478.0,349095.3,707987.0,228710.7,676901.1,576703.3,0.0
246251.5,263795.6,709911.4,353520.0,709560.4,232458.1,680847.9,581456.0,0.0
249490.7,265847.2,710010.3,356064.0,709830.9,234274.8,683016.4,584652.8,0.0
246742.5,263554.7,709710.4,353630.0,709492.4,232095.4,680946.8,582452.6,0.0
241797.1,260048.6,709401.4,349390.9,708312.3,228893.3,677426.3,577905.9,0.0
240752.3,259708.6,709477.6,348446.7,707839.8,228701.9,676906.2,576627.0,0.0
246230.0,263735.1,709907.9,352864.6,709529.0,232439.7,680846.1,581372.3,0.0
249481.5,265798.2,710010.5,355424.9,709830.3,234271.9,683017.1,584587.0,0.0
246771.0,263536.5,709712.7,353021.8,709487.7,232118.2,680978.9,582421.4,0.0
241799.3,260009.8,709401.3,348764.6,708208.6,228895.2,677442.6,577855.6,0.0
240720.6,259643.2,709472.3,347793.0,707679.7,228678.4,676895.2,576544.8,0.0
246209.3,263682.9,709906.0,352222.5,709494.2,232429.8,680843.8,581296.4,0.0
249480.3,265761.7,710012.3,354800.9,709831.4,234277.5,683025.8,584524.5,0.0
246753.8,263482.3,709711.2,352389.2,709477.8,232114.3,680975.8,582345.9,0.0
241783.8,259954.0,709398.7,348129.6,708095.8,228886.2,677436.1,577774.6,0.0
240706.3,259588.1,709474.8,347163.6,707533.9,228673.8,676895.0,576469.6,0.0
246181.5,263612.8,709907.0,351582.8,709463.0,232413.5,680835.0,581212.4,0.0
249454.2,265691.2,710011.4,354163.7,709829.7,234258.2,683018.9,584441.1,0.0
246743.0,263428.9,709713.5,351767.0,709469.4,232103.8,680980.7,582277.0,0.0
241769.5,259899.2,709402.5,347513.1,707984.5,228882.0,677442.9,577711.1,0.0
240688.0,259531.8,709475.6,346543.8,707376.3,228665.8,676893.9,576400.2,0.0
246165.4,263562.7,709907.9,350964.7,709427.7,232407.5,680836.5,581140.6,0.0
249436.3,265641.4,710011.5,353545.6,709828.3,234251.6,683034.2,584368.6,0.0
246731.3,263382.5,709713.9,351157.6,709457.4,232105.0,680994.6,582211.5,0.0
241755.0,259848.1,709400.3,346900.0,707858.7,228877.0,677449.4,577640.1,0.0
240674.6,259485.0,709475.5,345935.1,707217.2,228665.7,676905.0,576332.3,0.0
246143.4,263511.5,709907.6,350355.8,709389.4,232404.4,680845.9,581069.8,0.0
249412.7,265586.9,710010.7,352935.0,709825.9,234245.6,683039.4,584296.4,0.0
246723.4,263340.6,709718.5,350561.8,709446.4,232111.6,681016.1,582155.8,0.0
241740.1,259799.3,709402.2,346297.2,707729.7,228874.8,677465.9,577577.4,0.0
240647.4,259425.1,709475.1,345321.9,707044.6,228648.9,676910.9,576257.1,0.0
246112.3,263445.2,709908.3,349739.5,709345.3,232384.8,680844.7,580994.4,0.0
249391.3,265526.8,710012.7,352333.1,709826.9,234238.2,683033.6,584233.6,0.0
246690.1,263266.6,709713.8,349950.2,709425.9,232090.5,681000.0,582080.7,0.0
241712.1,259729.3,709399.9,345692.1,707589.6,228856.5,677453.9,577508.6,0.0
240614.5,259354.8,709471.1,344708.7,706863.8,228623.4,676890.3,576179.4,0.0
246086.5,263385.3,709905.0,349133.2,709293.6,232364.5,680829.2,580918.8,0.0
249381.9,265483.8,710014.8,351743.9,709828.1,234231.0,683033.5,584176.0,0.0
246679.5,263222.9,709716.6,349357.2,709410.3,232081.9,680998.1,582021.2,0.0
241709.2,259694.1,709401.3,345098.8,707456.5,228848.9,677451.4,577447.1,0.0
240602.5,259308.6,709472.5,344115.5,706700.3,228618.3,676886.9,576117.1,0.0
246067.8,263331.2,709907.8,348541.8,709250.1,232363.1,680829.5,580859.6,0.0
249372.7,265440.9,710017.3,351156.6,709829.2,234232.2,683037.1,584118.7,0.0
246684.0,263193.2,709719.3,348784.1,709391.8,232090.5,681009.5,581975.5,0.0
241696.8,259645.5,709401.3,344517.1,707315.4,228843.3,677450.8,577394.5,0.0
240580.5,259251.3,709472.6,343528.2,706532.9,228605.4,676881.1,576058.7,0.0
246038.2,263267.2,709906.0,347946.1,709197.6,232341.5,680815.3,580785.9,0.0
249351.0,265382.3,710015.6,350566.9,709825.4,234213.9,683027.1,584047.3,0.0
246669.7,263141.2,709720.1,348203.9,709367.9,232079.9,681007.4,581913.8,0.0
241693.5,259604.7,709404.0,343951.5,707177.3,228846.5,677462.4,577342.2,0.0
240581.2,259215.1,709475.2,342966.2,706373.2,228609.8,676892.9,576002.9,0.0
246027.2,263220.1,709908.9,347378.7,709149.9,232338.3,680819.7,580723.6,0.0
249326.2,265318.3,710014.6,349991.3,709823.3,234202.4,683036.2,583976.6,0.0
246654.3,263086.7,709716.4,347632.5,709338.1,232072.0,681017.4,581845.3,0.0
241674.9,259549.5,709401.5,343378.1,707024.3,228837.1,677464.3,577270.4,0.0
240547.5,259145.5,709471.1,342381.3,706186.9,228590.8,676880.7,575918.2,0.0
246006.7,263167.2,709904.8,346802.4,709086.0,232330.9,680812.3,580645.7,0.0
249311.5,265273.1,710012.3,349424.2,709819.1,234199.9,683033.1,583904.9,0.0
246641.8,263041.1,709717.4,347076.3,709309.8,232071.1,681019.1,581779.1,0.0
241665.2,259503.2,709403.6,342824.2,706873.5,228833.7,677466.8,577205.9,0.0
240543.9,259106.3,709474.1,341831.9,706021.3,228590.0,676890.0,575859.8,0.0
245994.5,263119.1,709906.6,346254.4,709030.0,232327.0,680822.8,580585.6,0.0
249306.7,265228.1,710014.8,348883.5,709819.8,234203.3,683034.6,583851.4,0.0
246629.0,262987.3,709718.1,346524.1,709279.6,232067.7,681013.3,581717.9,0.0
241652.0,259446.2,709400.4,342268.6,706723.5,228830.5,677461.6,577140.8,0.0
240522.6,259044.1,709471.5,341271.3,705849.8,228583.5,676878.3,575784.4,0.0
245980.5,263068.4,709906.4,345695.9,708970.6,232322.7,680814.8,580509.9,0.0
249295.6,265180.1,710014.4,348329.3,709817.4,234201.7,683033.3,583780.4,0.0
246617.2,262937.3,709719.1,345978.9,709244.1,232072.3,681016.9,581653.1,0.0
241618.1,259380.0,709404.0,341722.4,706567.8,228829.0,677460.4,577072.3,0.0
240503.8,258991.0,709475.4,340740.8,705697.3,228590.3,676889.6,575733.1,0.0
245955.8,263008.3,709905.8,345155.1,708912.9,232317.7,680813.9,580448.6,0.0
249250.0,265102.7,710012.9,347771.6,709813.6,234178.9,683025.9,583698.6,0.0
246547.4,262844.5,709714.4,345400.3,709192.6,232026.4,680985.2,581543.5,0.0
241609.7,259340.0,709404.4,341190.2,706414.1,228820.5,677465.8,577008.7,0.0
240495.7,258953.7,709475.8,340211.3,705525.1,228584.3,676896.8,575672.3,0.0
245949.5,262973.8,709908.9,344634.1,708846.6,232320.4,680826.6,580396.5,0.0
249270.6,265090.6,710017.6,347273.5,709816.3,234204.5,683048.3,583673.3,0.0
246578.8,262831.0,709717.4,344907.8,709159.9,232060.2,681018.9,581533.9,0.0
241599.5,259289.2,709399.7,340659.9,706253.9,228824.3,677465.6,576961.9,0.0
240472.7,258894.5,709471.7,339668.3,705344.8,228579.4,676883.3,575609.2,0.0
245927.0,262915.5,709907.8,344091.6,708773.9,232315.1,680814.4,580330.5,0.0
249248.2,265034.4,710015.6,346736.0,709811.5,234197.0,683034.3,583606.6,0.0
246577.6,262796.5,709720.1,344393.5,709116.6,232068.4,681019.0,581485.1,0.0
241590.1,259248.1,709404.0,340142.4,706091.8,228825.5,677464.3,576908.9,0.0
240456.4,258846.4,709475.5,339152.2,705173.7,228575.6,676883.2,575556.9,0.0
245908.9,262868.3,709906.6,343573.9,708697.1,232306.0,680811.2,580274.1,0.0
249236.8,264992.6,710016.1,346226.2,709808.0,234194.4,683038.9,583556.5,0.0
246564.7,262754.7,709719.9,343885.0,709065.4,232065.8,681024.8,581435.3,0.0
241578.7,259208.5,709402.8,339636.4,705930.4,228821.1,677468.7,576859.5,0.0
240430.5,258795.8,709471.1,338633.8,704992.2,228558.5,676871.8,575491.0,0.0
245871.3,262805.8,709904.5,343054.3,708614.9,232286.8,680797.8,580204.9,0.0
249213.1,264939.3,710016.2,345712.8,709803.1,234181.6,683031.9,583493.1,0.0
246558.3,262713.8,709720.1,343380.0,709012.3,232061.7,681027.3,581382.4,0.0
241570.1,259166.1,709401.9,339129.1,705763.3,228817.3,677470.8,576805.8,0.0
240406.0,258738.3,709468.4,338110.9,704805.9,228544.3,676860.3,575420.8,0.0
245853.2,262749.6,709902.5,342530.7,708524.3,232275.1,680782.6,580131.3,0.0
249200.6,264889.0,710018.3,345202.4,709800.3,234181.3,683028.2,583431.6,0.0
246529.7,262651.6,709721.6,342864.5,708945.8,232052.1,681018.5,581311.9,0.0
241534.1,259092.8,709403.8,338610.8,705578.4,228800.7,677459.8,576727.9,0.0
240389.9,258682.7,709471.9,337611.9,704633.1,228541.5,676867.2,575360.4,0.0
245831.6,262695.5,709903.3,342029.4,708444.5,232264.7,680787.1,580068.8,0.0
249158.8,264816.5,710012.4,344680.9,709789.3,234148.0,683022.8,583347.9,0.0
246503.2,262590.0,709716.6,342353.7,708881.3,232031.3,681018.7,581239.7,0.0
241532.9,259058.7,709403.6,338121.4,705425.2,228803.0,677475.4,576681.1,0.0
240370.0,258636.2,709470.6,337109.1,704463.1,228534.4,676869.9,575298.8,0.0
245812.6,262652.2,709904.1,341532.0,708359.3,232263.9,680793.6,580010.4,0.0
249154.9,264787.5,710016.3,344199.9,709786.8,234160.7,683030.4,583306.3,0.0
246497.0,262556.7,709720.1,341872.4,708822.1,232038.2,681025.9,581196.3,0.0
241509.5,259008.3,709402.6,337625.9,705267.7,228791.4,677468.7,576618.9,0.0
240352.3,258590.1,709471.8,336618.3,704312.1,228527.3,676868.2,575242.3,0.0
245793.0,262601.3,709905.3,341037.5,708282.8,232255.7,680789.4,579952.3,0.0
249136.0,264733.6,710013.8,343702.2,709778.2,234150.9,683035.9,583244.9,0.0
246478.9,262505.5,709716.3,341371.9,708752.2,232029.5,681026.5,581133.9,0.0
241496.5,258960.0,709400.3,337127.2,705105.2,228787.6,677466.8,576559.9,0.0
240328.7,258528.6,709469.6,336111.9,704137.6,228515.4,676855.1,575175.1,0.0
245768.0,262537.0,709901.6,340531.1,708185.4,232240.5,680773.6,579884.1,0.0
249129.7,264688.6,710014.8,343211.8,709770.8,234148.4,683021.6,583194.5,0.0
246481.5,262471.4,709718.6,340890.8,708684.7,232030.7,681021.5,581094.5,0.0
241487.6,258912.3,709400.7,336640.8,704937.3,228779.3,677461.3,576518.3,0.0
240321.1,258485.7,709470.0,335626.0,703968.9,228505.6,676853.1,575133.3,0.0
245749.0,262485.3,709899.8,340033.4,708088.4,232219.4,680760.3,579826.4,0.0
249100.5,264624.5,710010.6,342709.3,709756.4,234118.8,683013.8,583126.9,0.0
246460.5,262412.5,709715.1,340399.8,708599.1,232009.3,681021.9,581034.6,0.0
241482.9,258872.6,709400.1,336165.3,704769.9,228770.7,677470.6,576468.3,0.0
240305.1,258441.6,709465.3,335139.9,703784.6,228487.0,676848.4,575068.3,0.0
245730.4,262442.9,709895.8,339549.3,707978.4,232203.6,680758.0,579762.3,0.0
249083.7,264583.8,710011.0,342235.5,709745.7,234111.1,683021.5,583071.0,0.0
246451.9,262376.3,709718.3,339931.1,708513.1,232003.6,681030.1,580982.1,0.0
241471.9,258834.8,709401.8,335688.5,704587.8,228758.1,677471.9,576408.4,0.0
240281.6,258389.8,709466.7,334661.3,703606.1,228470.0,676849.6,575007.4,0.0
245710.0,262393.8,709900.0,339079.5,707876.8,232192.5,680768.6,579708.5,0.0
249077.7,264548.4,710012.8,341771.9,709733.8,234105.8,683035.4,583021.5,0.0
246431.9,262331.0,709716.4,339461.7,708422.6,231992.7,681037.1,580921.3,0.0
241444.5,258781.3,709399.9,335219.8,704415.2,228745.3,677475.9,576344.8,0.0
240266.0,258346.0,709468.0,334196.9,703441.1,228461.4,676854.4,574946.8,0.0
245710.7,262368.0,709905.3,338628.4,707787.5,232195.6,680782.6,579657.1,0.0
249079.3,264522.3,710019.3,341324.6,709726.8,234108.4,683037.8,582972.3,0.0
246422.0,262286.2,709717.0,339002.6,708328.1,231981.2,681030.8,580865.0,0.0
241435.5,258733.9,709399.5,334761.4,704248.3,228732.5,677472.8,576289.3,0.0
240247.6,258294.6,709467.9,333734.1,703271.1,228446.9,676847.4,574883.3,0.0
245683.2,262308.3,709899.8,338151.4,707670.4,232168.1,680760.3,579579.5,0.0
249037.7,264451.4,710010.0,340831.8,709698.8,234067.8,683015.7,582878.2,0.0
246369.3,262214.8,709712.4,338504.0,708199.5,231935.4,681000.6,580756.8,0.0
241420.6,258695.6,709400.1,334297.4,704067.3,228718.3,677471.4,576214.1,0.0
240252.8,258269.2,709468.0,333290.4,703116.4,228447.8,676865.3,574831.8,0.0
245674.7,262269.3,709901.4,337705.5,707566.8,232165.0,680773.9,579523.0,0.0
249044.1,264423.2,710015.2,340402.7,709687.5,234079.4,683028.7,582839.6,0.0
246408.0,262211.8,709720.1,338102.0,708135.4,231971.7,681039.8,580752.4,0.0
241424.0,258664.4,709403.2,333870.3,703919.9,228729.5,677489.1,576183.8,0.0
240208.8,258199.9,709467.3,332829.8,702931.6,228428.5,676851.3,574764.9,0.0
245635.8,262204.7,709899.4,337244.1,707439.4,232146.4,680762.3,579457.6,0.0
249013.5,264365.1,710012.5,339946.9,709662.6,234064.4,683037.0,582781.9,0.0
246379.5,262156.4,709718.3,337652.2,708021.6,231959.3,681048.9,580699.6,0.0
241390.8,258605.5,709400.7,333411.1,703734.9,228708.1,677481.9,576122.6,0.0
240191.7,258156.5,709466.8,332376.5,702759.1,228411.7,676847.6,574709.4,0.0
245611.3,262154.8,709898.9,336789.1,707317.4,232125.6,680754.3,579398.0,0.0
248990.0,264313.0,710010.4,339493.7,709633.9,234041.8,683013.1,582720.6,0.0
246371.0,262117.7,709716.1,337206.8,707905.2,231941.4,681034.5,580642.3,0.0
241394.2,258578.5,709402.3,332976.5,703565.7,228696.0,677480.0,576073.5,0.0
240194.6,258127.4,709468.8,331941.9,702594.1,228397.4,676846.1,574661.1,0.0
245612.3,262123.9,709901.6,336357.6,707201.8,232112.2,680755.1,579351.7,0.0
248974.8,264267.9,710014.1,339055.6,709608.1,234022.0,683022.3,582665.6,0.0
246364.6,262078.1,709720.7,336772.7,707788.9,231927.2,681046.6,580592.3,0.0
241376.9,258525.3,709399.9,332531.2,703384.4,228672.8,677481.1,576012.9,0.0
240151.7,258054.7,709461.1,331478.7,702394.1,228359.1,676829.8,574578.8,0.0
245583.5,262068.9,709896.0,335904.8,707055.3,232087.5,680746.0,579277.5,0.0
248973.7,264237.9,710011.3,338623.0,709568.8,234015.4,683013.1,582609.4,0.0
246350.6,262035.2,709715.6,336336.8,707654.6,231913.7,681031.8,580528.8,0.0
241369.2,258490.2,709399.1,332108.1,703215.4,228667.9,677478.0,575958.4,0.0
240155.6,258034.2,709464.9,331072.1,702241.9,228366.5,676839.3,574537.6,0.0
245561.1,262024.4,709896.4,335481.2,706918.5,232075.1,680740.6,579214.3,0.0
248961.3,264202.5,710011.3,338205.7,709525.3,234003.2,683026.3,582549.6,0.0
246341.0,262001.3,709714.9,335922.9,707516.2,231901.5,681043.5,580475.4,0.0
241356.9,258455.6,709399.9,331694.4,703031.3,228655.8,677485.0,575907.8,0.0
240135.9,257989.4,709463.7,330647.9,702054.8,228344.2,676836.3,574477.5,0.0
245547.6,261983.6,709894.9,335060.2,706771.9,232053.2,680741.8,579159.6,0.0
248939.3,264155.5,710011.9,337790.1,709476.4,233988.1,683033.4,582501.3,0.0
246323.0,261958.1,709716.4,335513.0,707379.2,231891.7,681055.4,580429.9,0.0
241333.0,258402.0,709396.1,331272.3,702848.8,228634.8,677484.0,575849.4,0.0
240113.9,257936.7,709460.4,330225.2,701877.7,228324.1,676833.8,574417.3,0.0
245532.7,261940.5,709897.4,334645.7,706628.6,232041.0,680742.0,579100.9,0.0
248932.0,264121.2,710013.4,337377.5,709417.3,233976.7,683017.8,582442.6,0.0
246319.0,261925.9,709719.4,335105.3,707239.1,231882.3,681045.0,580377.4,0.0
241338.6,258380.5,709403.6,330877.9,702692.2,228636.1,677489.8,575810.4,0.0
240113.6,257913.8,709465.5,329831.1,701728.1,228326.4,676837.8,574376.9,0.0
245523.5,261911.2,709897.6,334245.2,706498.1,232038.8,680739.2,579055.5,0.0
248921.6,264085.8,710011.5,336970.8,709351.4,233969.0,683008.8,582390.8,0.0
246319.3,261899.5,709719.9,334704.8,707106.8,231884.4,681044.6,580332.5,0.0
241337.4,258356.4,709406.7,330482.5,702543.4,228645.8,677496.5,575771.8,0.0
240092.5,257871.9,709467.3,329419.6,701561.1,228320.7,676830.4,574322.2,0.0
245492.1,261860.2,709897.5,333824.9,706333.2,232022.8,680722.4,578987.9,0.0
248894.6,264038.1,710010.9,336557.6,709259.4,233957.7,683012.1,582328.5,0.0
246298.5,261855.2,709719.3,334298.9,706947.2,231877.4,681050.4,580276.6,0.0
241313.1,258304.0,709402.5,330070.0,702357.8,228628.9,677491.3,575707.3,0.0
240077.4,257828.8,709464.0,329014.5,701389.1,228310.5,676835.1,574265.9,0.0
245483.0,261821.9,709897.3,333427.2,706179.7,232022.3,680736.2,578943.0,0.0
248896.6,264012.8,710012.7,336170.2,709152.9,233966.1,683020.9,582294.4,0.0
246301.5,261833.7,709721.2,333912.1,706789.1,231884.3,681058.3,580240.3,0.0
241308.1,258272.2,709401.8,329677.4,702184.6,228626.2,677489.3,575662.3,0.0
240066.8,257794.4,709464.6,328617.0,701215.9,228302.8,676824.6,574213.1,0.0
245461.2,261781.5,709895.8,333020.2,706000.4,232005.1,680716.6,578878.8,0.0
248873.8,263971.0,710011.5,335767.4,709002.4,233951.4,683018.6,582233.3,0.0
246273.3,261786.3,709719.1,333508.3,706606.4,231867.4,681049.8,580178.3,0.0
241295.9,258243.0,709401.4,329287.3,702011.3,228622.3,677492.5,575612.3,0.0
240044.1,257756.6,709462.2,328218.9,701036.4,228290.0,676821.3,574153.9,0.0
245436.3,261741.7,709895.8,332622.8,705824.7,231995.4,680714.4,578817.8,0.0
248853.9,263928.9,710012.8,335374.2,708844.6,233946.1,683018.6,582175.6,0.0
246261.2,261746.9,709718.5,333117.9,706431.6,231866.8,681054.4,580125.7,0.0
241281.2,258200.8,709399.9,328888.4,701834.0,228614.4,677492.8,575556.2,0.0
240016.0,257699.4,709458.2,327811.3,700855.3,228274.2,676812.9,574088.1,0.0
245409.9,261685.7,709890.6,332216.5,705643.6,231976.5,680706.5,578752.1,0.0
248834.7,263883.0,710009.4,334972.1,708682.1,233929.4,683014.3,582114.4,0.0
246235.5,261699.7,709717.4,332714.0,706245.9,231844.7,681047.1,580060.4,0.0
241262.4,258159.0,709403.2,328501.0,701666.0,228605.7,677497.9,575504.9,0.0
240018.7,257679.1,709464.9,327437.3,700709.7,228281.6,676829.8,574052.2,0.0
245403.5,261657.0,709895.4,331830.4,705486.9,231976.7,680710.4,578702.6,0.0
248811.0,263837.4,710010.1,334572.5,708517.9,233915.7,683006.1,582049.4,0.0
246195.5,261636.4,709714.7,332297.5,706034.0,231812.5,681022.8,579972.9,0.0
241242.0,258109.7,709401.1,328100.8,701473.6,228584.2,677484.1,575429.3,0.0
240001.5,257631.8,709462.8,327047.9,700530.4,228265.0,676826.7,573984.9,0.0
245397.0,261620.1,709895.3,331453.1,705316.9,231969.4,680719.8,578649.4,0.0
248826.4,263821.6,710013.0,334215.5,708376.4,233924.3,683016.3,582014.9,0.0
246240.2,261645.5,709719.6,331974.4,705916.3,231849.4,681063.8,579974.3,0.0
241267.5,258105.0,709401.1,327759.2,701337.6,228604.3,677511.3,575411.1,0.0
239992.1,257599.2,709460.7,326674.9,700361.6,228256.6,676822.6,573932.0,0.0
245371.3,261573.8,709891.4,331072.3,705137.9,231951.8,680704.9,578584.6,0.0
248806.3,263780.0,710007.6,333837.6,708207.3,233906.7,683015.5,581950.4,0.0
246231.7,261613.5,709717.2,331605.8,705742.9,231840.0,681068.3,579922.8,0.0
241245.9,258059.3,709400.4,327383.2,701164.4,228585.8,677506.9,575354.6,0.0
239977.4,257561.0,709461.8,326304.4,700198.8,228243.4,676825.0,573882.3,0.0
245354.5,261537.1,709892.9,330700.2,704968.7,231937.8,680707.8,578532.3,0.0
248793.5,263745.2,710009.8,333469.6,708049.1,233898.9,683023.6,581903.0,0.0
246222.9,261581.6,709719.9,331240.9,705578.3,231834.9,681081.3,579876.3,0.0
241234.1,258026.6,709400.9,327015.3,701003.8,228577.5,677513.1,575305.3,0.0
239950.8,257515.8,709458.6,325923.6,700022.1,228221.6,676816.1,573816.2,0.0
245338.0,261501.1,709891.4,330329.8,704794.2,231924.7,680706.5,578474.6,0.0
248789.2,263721.4,710011.1,333112.9,707892.3,233897.1,683021.9,581861.4,0.0
246219.8,261559.3,709720.1,330880.2,705408.8,231831.0,681077.7,579833.6,0.0
241215.0,257987.3,709398.7,326643.0,700832.2,228563.2,677501.4,575251.5,0.0
239933.1,257474.3,709458.2,325556.7,699860.9,228210.2,676807.1,573769.1,0.0
245330.2,261470.0,709890.9,329968.2,704631.0,231918.7,680701.1,578433.5,0.0
248771.4,263681.6,710011.3,332749.4,707722.9,233887.1,683013.6,581814.3,0.0
246198.0,261510.9,709720.1,330522.3,705226.3,231820.3,681071.6,579787.2,0.0
241225.8,257966.1,709402.6,326313.8,700681.9,228577.2,677520.8,575231.0,0.0
239942.2,257457.6,709459.3,325220.7,699704.8,228218.6,676819.4,573739.4,0.0
245318.7,261433.6,709890.1,329618.0,704454.0,231910.9,680697.0,578385.7,0.0
248771.3,263654.6,710011.8,332406.7,707555.9,233883.6,683025.6,581772.1,0.0
246213.4,261500.9,709723.2,330184.8,705063.4,231826.6,681086.4,579752.9,0.0
241233.5,257949.3,709404.4,325963.1,700519.1,228574.8,677524.8,575185.9,0.0
239934.3,257425.0,709461.5,324869.1,699541.6,228214.1,676822.4,573692.1,0.0
245304.8,261396.8,709890.0,329261.7,704275.5,231899.7,680694.5,578331.5,0.0
248756.2,263615.0,710009.3,332046.7,707375.1,233868.8,683020.9,581716.8,0.0
246181.1,261444.4,709717.8,329815.9,704866.3,231800.2,681072.4,579689.2,0.0
241206.4,257900.2,709401.8,325600.8,700335.0,228550.4,677515.2,575129.9,0.0
239920.0,257388.0,709461.1,324512.4,699366.8,228197.8,676820.1,573643.5,0.0
245293.8,261364.3,709891.6,328912.5,704100.9,231894.8,680701.7,578290.3,0.0
248747.0,263589.9,710009.9,331704.7,707198.9,233870.4,683017.9,581680.4,0.0
246180.6,261431.6,709719.3,329484.2,704695.8,231809.8,681077.0,579661.1,0.0
241198.8,257882.0,709402.5,325265.4,700175.9,228558.5,677516.6,575095.1,0.0
239911.4,257370.8,709461.5,324175.6,699209.7,228204.3,676819.4,573604.3,0.0
245285.9,261345.8,709893.8,328575.0,703934.8,231899.6,680701.8,578251.9,0.0
248730.8,263557.8,710011.9,331360.8,707027.4,233870.5,683030.8,581638.6,0.0
246174.8,261408.0,709722.1,329143.1,704529.1,231812.8,681094.0,579623.3,0.0
241187.2,257848.4,709401.5,324917.8,700009.2,228551.3,677521.3,575051.4,0.0
239894.9,257327.8,709458.4,323821.4,699039.3,228189.6,676815.6,573556.3,0.0
245273.6,261307.5,709891.5,328222.3,703758.2,231889.2,680699.1,578203.1,0.0
248724.5,263524.9,710011.1,331012.3,706846.3,233864.2,683028.1,581588.8,0.0
246161.9,261361.9,709723.4,328796.9,704347.3,231806.7,681090.3,579573.3,0.0
241193.7,257818.4,709405.1,324587.4,699853.9,228558.9,677533.4,575015.1,0.0
239889.6,257294.3,709459.7,323486.0,698878.8,228191.4,676822.1,573511.4,0.0
245247.2,261261.8,709889.0,327874.6,703575.1,231876.5,680689.8,578143.4,0.0
248710.0,263493.0,710010.3,330677.4,706673.1,233862.4,683015.0,581542.6,0.0
246160.0,261347.0,709722.6,328472.8,704185.6,231814.1,681089.4,579539.9,0.0
241178.8,257791.7,709404.1,324255.1,699693.8,228559.5,677527.1,574974.8,0.0
239878.3,257271.9,709459.9,323155.6,698721.9,228194.3,676819.2,573471.4,0.0
245233.0,261236.2,709888.9,327539.3,703400.1,231875.0,680684.1,578097.9,0.0
248691.3,263459.8,710008.9,330334.4,706480.5,233851.9,683013.6,581488.2,0.0
246150.9,261319.8,709721.9,328135.5,704002.6,231806.5,681086.6,579487.5,0.0
241176.9,257773.8,709403.2,323924.3,699527.8,228554.7,677529.1,574929.0,0.0
239854.3,257233.5,709456.1,322806.8,698537.4,228174.1,676804.7,573410.1,0.0
245206.5,261193.6,709885.0,327192.4,703206.3,231857.0,680670.8,578037.7,0.0
248688.0,263440.6,710007.3,330007.8,706296.1,233848.2,683006.6,581447.4,0.0
246141.3,261294.9,709719.0,327807.4,703819.0,231798.9,681082.3,579444.9,0.0
241161.5,257743.6,709401.3,323595.1,699355.9,228547.6,677523.4,574884.6,0.0
239835.0,257197.7,709456.0,322479.1,698368.9,228168.3,676799.7,573364.9,0.0
245191.9,261162.2,709887.8,326867.7,703032.7,231853.6,680670.0,577996.8,0.0
248654.9,263391.2,710010.0,329672.0,706098.6,233834.8,683008.6,581394.4,0.0
246078.5,261218.3,709717.9,327441.5,703588.1,231758.5,681052.3,579359.5,0.0
241129.8,257694.1,709401.3,323253.5,699161.4,228526.5,677513.3,574823.5,0.0
239818.8,257162.2,709454.6,322146.6,698189.7,228154.6,676797.4,573314.5,0.0
245170.8,261122.8,709886.7,326533.8,702840.6,231838.2,680664.8,577940.1,0.0
248655.3,263371.0,710011.5,329359.4,705917.4,233836.5,683019.1,581355.9,0.0
246112.0,261227.4,709720.3,327159.5,703450.8,231786.0,681091.3,579353.9,0.0
241129.5,257672.2,709397.2,322938.3,698999.5,228524.3,677520.2,574782.6,0.0
239818.4,257144.4,709454.3,321833.3,698027.9,228154.8,676805.7,573270.3,0.0
245178.7,261114.7,709886.4,326227.7,702677.6,231844.2,680679.3,577902.3,0.0
248650.5,263344.8,710007.1,329038.2,705736.2,233828.1,683018.3,581305.3,0.0
246104.6,261194.7,709719.7,326839.2,703284.0,231780.3,681089.3,579305.8,0.0
241126.7,257645.7,709399.3,322623.2,698854.1,228525.7,677523.0,574739.4,0.0
239801.6,257107.2,709454.6,321511.8,697878.0,228150.6,676800.7,573221.9,0.0
245161.4,261077.5,709886.8,325905.3,702518.6,231840.9,680673.8,577854.7,0.0
248639.7,263317.3,710007.8,328717.1,705563.6,233828.2,683015.6,581258.2,0.0
246110.1,261185.9,709720.7,326531.7,703124.9,231791.9,681101.3,579273.0,0.0
241129.6,257634.9,709400.9,322318.5,698705.4,228538.6,677539.2,574712.6,0.0
239798.4,257089.2,709455.3,321195.0,697719.2,228153.3,676807.2,573183.7,0.0
245156.3,261058.3,709886.3,325585.2,702348.5,231841.9,680676.3,577814.0,0.0
248630.0,263294.9,710006.7,328401.5,705389.7,233834.6,683008.8,581223.5,0.0
246096.5,261159.4,709717.2,326210.1,702955.1,231793.4,681092.0,579231.6,0.0
241129.6,257618.4,709401.6,322006.5,698559.3,228547.2,677541.1,574680.6,0.0
239800.2,257078.1,709457.0,320887.4,697583.6,228165.1,676812.8,573155.6,0.0
245137.8,261029.4,709883.8,325260.0,702189.9,231836.3,680664.1,577767.3,0.0
248619.3,263272.0,710007.5,328079.6,705229.6,233830.9,683014.9,581180.6,0.0
246084.7,261132.1,709719.5,325891.6,702803.3,231789.5,681096.3,579190.5,0.0
241111.8,257584.0,709402.1,321686.7,698403.9,228537.0,677538.4,574636.0,0.0
239774.0,257035.8,709455.9,320559.7,697411.4,228144.2,676802.3,573100.6,0.0
245118.2,260996.5,709885.9,324942.3,702012.4,231824.9,680662.6,577717.8,0.0
248612.5,263247.7,710010.6,327775.2,705050.5,233830.0,683021.6,581142.4,0.0
246077.2,261104.9,709719.3,325583.5,702625.0,231781.1,681094.5,579147.6,0.0
241096.8,257548.2,709397.3,321368.8,698226.3,228518.8,677524.6,574582.4,0.0
239752.5,256993.4,709451.0,320238.7,697231.3,228124.5,676782.5,573044.2,0.0
245091.2,260948.9,709882.5,324620.7,701822.8,231803.3,680643.4,577662.6,0.0
248593.1,263209.1,710007.6,327460.9,704854.9,233809.3,683008.4,581095.9,0.0
246071.0,261078.6,709718.4,325278.8,702444.6,231769.5,681091.5,579114.7,0.0
241093.2,257522.2,709398.2,321063.9,698053.3,228505.3,677520.1,574550.4,0.0
239756.6,256972.3,709451.9,319937.9,697061.4,228111.5,676781.6,573015.9,0.0
245101.9,260932.0,709886.8,324330.9,701656.4,231798.0,680651.9,577645.6,0.0
248612.8,263202.9,710012.9,327178.7,704685.8,233812.5,683024.9,581083.4,0.0
246084.7,261067.3,709721.6,324991.8,702279.6,231768.9,681103.4,579094.8,0.0
241102.8,257508.3,709400.1,320780.7,697899.8,228509.1,677536.7,574535.2,0.0
239739.7,256939.6,709451.8,319639.0,696894.2,228102.3,676784.9,572985.3,0.0
245080.0,260901.0,709884.6,324021.1,701475.6,231779.7,680646.1,577602.4,0.0
248575.7,263154.1,710009.4,326862.8,704491.1,233788.2,683013.1,581033.4,0.0
246061.3,261029.0,709720.9,324692.5,702107.9,231757.3,681105.7,579060.3,0.0
241088.8,257477.6,709402.4,320487.1,697741.6,228500.0,677541.7,574504.3,0.0
239726.9,256909.4,709454.8,319348.9,696739.3,228096.7,676793.1,572953.4,0.0
245067.9,260870.0,709886.9,323735.2,701316.1,231778.0,680656.9,577571.3,0.0
248580.7,263136.9,710012.1,326583.8,704331.5,233788.9,683027.6,581010.6,0.0
246056.2,261000.9,709721.2,324403.3,701946.8,231747.3,681109.2,579027.8,0.0
241082.8,257448.8,709402.4,320195.3,697588.5,228493.0,677544.6,574469.1,0.0
239723.7,256882.7,709453.3,319049.1,696582.4,228084.4,676787.9,572912.9,0.0
245055.9,260835.1,709882.1,323423.2,701140.6,231754.3,680639.3,577519.2,0.0
248553.5,263088.6,710006.9,326267.3,704141.1,233766.1,683008.4,580954.4,0.0
246042.0,260966.9,709720.9,324098.3,701775.9,231737.7,681103.2,578985.8,0.0
241075.5,257418.3,709401.1,319894.3,697428.6,228481.6,677540.3,574433.7,0.0
239713.6,256852.0,709453.3,318748.7,696421.4,228072.1,676786.6,572876.8,0.0
245046.9,260810.3,709887.1,323125.9,700975.3,231746.9,680644.4,577483.3,0.0
248564.7,263080.9,710013.5,325982.0,703975.3,233765.1,683020.5,580924.6,0.0
246054.0,260954.6,709723.4,323814.0,701613.1,231731.5,681114.1,578954.3,0.0
241072.0,257394.4,709402.4,319604.3,697260.8,228466.5,677544.5,574394.4,0.0
239708.3,256830.9,709453.9,318460.3,696253.4,228058.5,676789.1,572837.3,0.0
245029.5,260774.0,709882.3,322828.5,700795.0,231725.8,680637.0,577434.6,0.0
248547.0,263040.5,710006.9,325683.6,703791.6,233745.3,683015.8,580879.8,0.0
246047.0,260924.3,709719.7,323524.7,701448.8,231724.2,681120.6,578921.8,0.0
241067.2,257362.9,709399.1,319315.7,697103.4,228459.6,677551.1,574362.0,0.0
239675.7,256768.3,709447.4,318154.2,696078.1,228033.3,676777.1,572786.0,0.0
244999.8,260717.6,709875.6,322521.3,700611.1,231697.1,680620.6,577381.6,0.0
248524.4,262994.0,710001.9,325383.8,703603.4,233717.9,683001.9,580832.8,0.0
246028.6,260883.6,709717.2,323231.2,701270.6,231697.1,681110.6,578879.4,0.0
241050.0,257324.9,709396.7,319020.3,696930.6,228429.6,677541.3,574319.5,0.0
239666.6,256743.6,709447.4,317861.0,695910.3,228008.3,676775.1,572749.4,0.0
244992.7,260695.3,709882.1,322238.2,700449.3,231685.2,680630.3,577355.3,0.0
248511.1,262966.2,710007.7,325097.7,703429.2,233704.0,683004.2,580800.4,0.0
245969.7,260813.5,709714.9,322904.7,701055.4,231644.5,681067.2,578797.4,0.0
241015.0,257269.5,709392.6,318712.9,696740.6,228394.1,677511.1,574251.2,0.0
239653.7,256702.6,709444.9,317571.6,695740.9,227987.9,676758.9,572696.8,0.0
244981.0,260654.5,709878.2,321949.7,700274.8,231663.3,680614.6,577300.1,0.0
248516.0,262938.5,710007.1,324826.8,703268.0,233699.7,683009.8,580763.5,0.0
246014.7,260818.1,709716.3,322666.5,700940.6,231672.6,681107.4,578800.5,0.0
241025.3,257247.8,709394.3,318450.8,696605.4,228400.6,677528.9,574229.5,0.0
239635.8,256660.4,709444.5,317291.6,695581.9,227978.2,676759.6,572654.1,0.0
244957.6,260609.2,709875.3,321664.5,700101.6,231650.3,680609.3,577251.2,0.0
248498.1,262899.5,710005.1,324545.6,703086.5,233688.0,683007.0,580716.8,0.0
246008.6,260790.6,709718.3,322400.2,700774.0,231671.0,681118.5,578767.9,0.0
241019.1,257218.0,709394.7,318181.4,696443.2,228394.7,677538.7,574198.6,0.0
239615.8,256619.0,709444.3,317004.4,695410.1,227957.7,676753.2,572606.8,0.0
244933.5,260567.7,709876.3,321372.2,699928.2,231626.9,680602.0,577199.1,0.0
248471.5,262850.5,710005.3,324249.0,702908.8,233661.2,682995.3,580663.6,0.0
245982.8,260741.7,709719.1,322105.0,700602.9,231645.8,681106.3,578717.0,0.0
241002.6,257182.0,709397.1,317898.4,696281.4,228378.8,677538.1,574155.4,0.0
239595.6,256585.3,709445.6,316724.9,695243.1,227941.4,676753.0,572562.7,0.0
244907.6,260529.2,709875.4,321087.7,699749.1,231604.7,680591.7,577147.6,0.0
248461.1,262827.8,710005.5,323979.4,702737.6,233653.6,682996.6,580625.4,0.0
245974.1,260720.1,709718.6,321835.3,700435.9,231636.9,681105.9,578677.3,0.0
240995.5,257159.2,709394.3,317626.3,696120.5,228368.2,677533.8,574116.4,0.0
239584.4,256555.5,709441.4,316444.8,695079.6,227929.1,676744.8,572517.5,0.0
244900.4,260503.7,709874.9,320812.9,699591.7,231601.1,680593.2,577107.6,0.0
248458.9,262805.6,710005.7,323707.2,702580.1,233651.7,682997.9,580585.0,0.0
245975.9,260698.9,709718.5,321565.7,700287.9,231637.8,681107.1,578641.6,0.0
240991.3,257131.0,709396.1,317354.0,695972.5,228366.5,677533.8,574080.4,0.0
239570.6,256520.5,709443.7,316167.1,694923.3,227919.4,676737.6,572474.7,0.0
244868.7,260452.9,709874.6,320521.9,699415.9,231580.7,680573.1,577053.6,0.0
248435.0,262763.5,710005.0,323421.7,702399.9,233638.4,682984.9,580537.7,0.0
245956.9,260659.6,709719.0,321287.8,700116.2,231629.9,681099.2,578600.7,0.0
240983.1,257104.6,709395.9,317085.5,695813.9,228366.7,677530.4,574046.8,0.0
239572.6,256504.1,709444.8,315906.0,694773.3,227926.7,676740.9,572445.9,0.0
244866.8,260431.0,709871.6,320251.3,699249.5,231574.6,680565.3,577008.9,0.0
248428.3,262736.0,710001.5,323148.0,702224.2,233628.4,682973.3,580489.9,0.0
245954.9,260642.2,709717.6,321019.7,699947.3,231625.5,681094.9,578557.8,0.0
240978.9,257083.3,709395.1,316817.0,695644.0,228360.1,677526.6,574001.3,0.0
239553.0,256469.1,709442.2,315620.9,694583.9,227904.7,676718.5,572383.3,0.0
244849.2,260401.8,709873.9,319977.1,699070.7,231564.2,680553.5,576958.1,0.0
248423.8,262717.4,710005.7,322890.3,702057.3,233628.9,682990.8,580453.8,0.0
245962.3,260630.2,709719.0,320765.1,699785.3,231625.5,681110.1,578525.4,0.0
240974.3,257058.1,709394.7,316551.5,695473.1,228346.6,677529.1,573958.9,0.0
239538.4,256437.0,709443.3,315356.1,694414.6,227893.0,676724.7,572341.9,0.0
244837.5,260370.8,709874.4,319712.8,698897.7,231553.3,680561.2,576917.1,0.0
248410.3,262685.6,710003.8,322617.6,701874.4,233611.1,682990.1,580404.9,0.0
245944.7,260593.8,709718.1,320492.9,699608.2,231607.0,681113.2,578476.5,0.0
240962.5,257029.4,709395.3,316283.6,695302.8,228332.7,677532.6,573910.8,0.0
239526.8,256410.1,709442.0,315086.6,694243.3,227876.6,676725.8,572289.4,0.0
244818.8,260342.4,709871.3,319442.0,698724.3,231537.3,680562.0,576860.4,0.0
248397.8,262663.6,710001.1,322356.2,701704.8,233602.1,682985.1,580354.9,0.0
245941.0,260581.0,709716.3,320238.0,699450.3,231606.2,681112.1,578432.1,0.0
240959.3,257015.8,709394.5,316030.7,695153.1,228334.1,677536.1,573870.7,0.0
239517.9,256390.7,709440.9,314830.9,694091.1,227876.7,676727.5,572247.1,0.0
244809.3,260323.0,709869.7,319179.3,698564.6,231535.4,680557.9,576810.6,0.0
248381.6,262636.3,710001.7,322091.5,701541.3,233601.3,682994.0,580303.9,0.0
245935.5,260561.7,709716.9,319979.2,699294.1,231607.9,681125.1,578386.3,0.0
240962.1,257003.0,709396.8,315778.0,695005.9,228341.9,677552.1,573830.8,0.0
239509.8,256370.9,709443.1,314570.5,693937.9,227876.6,676734.1,572197.6,0.0
244806.4,260312.4,709874.7,318928.8,698416.9,231539.2,680572.8,576767.6,0.0
248390.1,262637.8,710006.1,321848.7,701397.1,233606.9,683001.9,580266.8,0.0
245926.2,260545.7,709718.2,319729.1,699140.9,231602.5,681127.8,578341.6,0.0
240943.7,256978.2,709394.8,315523.6,694840.4,228327.5,677551.4,573778.3,0.0
239490.0,256341.7,709438.9,314313.6,693766.8,227861.7,676730.6,572140.9,0.0
244789.3,260284.6,709872.3,318672.1,698246.3,231527.9,680566.1,576711.9,0.0
248380.6,262614.5,710006.1,321602.7,701234.0,233609.1,683003.6,580222.8,0.0
245928.0,260532.9,709717.6,319487.3,698983.7,231609.9,681134.1,578303.4,0.0
240950.0,256970.7,709394.5,315284.3,694690.8,228338.6,677560.3,573744.8,0.0
239496.5,256338.2,709443.0,314076.3,693619.4,227873.7,676745.9,572111.2,0.0
244774.0,260259.8,709870.5,318418.1,698080.9,231524.8,680568.3,576665.4,0.0
248360.7,262588.0,710002.2,321340.0,701056.3,233595.5,682994.9,580167.0,0.0
245887.9,260489.7,709715.2,319211.2,698793.9,231583.6,681112.4,578231.0,0.0
240927.9,256940.3,709397.4,315024.4,694522.9,228329.4,677554.4,573690.4,0.0
239488.7,256319.2,709444.9,313830.4,693469.4,227880.2,676751.9,572074.1,0.0
244777.5,260255.0,709876.8,318182.6,697940.3,231540.9,680584.3,576639.4,0.0
248360.7,262578.8,710011.0,321101.7,700913.1,233610.8,683011.5,580138.6,0.0
245890.5,260479.2,709723.2,318975.2,698655.9,231600.6,681129.9,578208.2,0.0
240933.5,256931.6,709402.0,314789.3,694386.1,228342.6,677569.5,573669.0,0.0
239489.0,256311.4,709448.3,313585.3,693322.2,227882.7,676756.6,572040.4,0.0
244775.2,260250.6,709881.9,317936.9,697792.4,231547.1,680588.8,576606.8,0.0
248385.0,262598.8,710018.7,320883.7,700793.6,233641.4,683029.6,580138.8,0.0
245926.3,260509.1,709731.8,318769.3,698554.1,231641.2,681163.4,578224.8,0.0
240922.6,256916.4,709402.2,314540.6,694242.1,228344.6,677567.5,573645.1,0.0
239446.9,256263.1,709446.1,313310.6,693150.8,227861.9,676730.2,571989.8,0.0
244741.1,260206.7,709880.6,317670.1,697624.4,231531.5,680569.4,576560.7,0.0
248359.5,262563.6,710015.7,320623.1,700624.5,233628.8,683027.1,580095.2,0.0
245901.8,260472.3,709725.9,318510.9,698383.7,231628.1,681159.3,578181.4,0.0
240926.6,256907.7,709402.8,314312.3,694100.0,228356.8,677587.8,573630.4,0.0
239452.6,256260.4,709446.6,313084.1,693010.0,227874.2,676751.6,571977.1,0.0
244724.3,260185.8,709876.1,317424.3,697463.3,231524.7,680569.2,576525.6,0.0
248326.0,262524.2,710009.4,320367.5,700449.7,233610.7,683013.0,580047.6,0.0
245889.2,260451.8,709720.9,318267.5,698221.6,231622.1,681152.8,578143.4,0.0
240907.2,256884.7,709397.3,314062.1,693934.0,228347.6,677573.6,573586.4,0.0
239428.9,256236.5,709441.3,312831.4,692839.4,227862.5,676736.3,571929.9,0.0
244709.1,260170.5,709873.6,317182.0,697299.6,231520.9,680565.6,576487.6,0.0
248327.2,262521.4,710010.8,320136.5,700297.6,233616.5,683008.4,580021.3,0.0
245883.0,260440.8,709725.9,318038.4,698074.2,231626.2,681154.1,578121.3,0.0
240901.7,256869.5,709400.9,313831.4,693782.9,228345.9,677576.6,573561.7,0.0
239428.4,256222.5,709445.2,312606.5,692691.1,227865.0,676743.6,571908.8,0.0
244698.7,260146.3,709874.7,316948.6,697140.9,231517.4,680562.9,576455.8,0.0
248321.1,262501.4,710008.6,319902.6,700136.3,233615.8,683004.7,579989.4,0.0
245890.2,260430.1,709724.5,317815.5,697925.3,231635.8,681157.4,578102.5,0.0
240897.2,256848.2,709400.1,313605.1,693632.3,228351.0,677572.7,573539.6,0.0
239411.6,256191.8,709443.9,312369.1,692531.2,227860.9,676726.9,571876.8,0.0
244689.2,260125.0,709875.9,316715.5,696987.1,231519.6,680552.8,576434.6,0.0
248296.4,262466.0,710009.1,319659.7,699970.9,233609.0,682998.2,579959.9,0.0
245864.8,260392.4,709723.6,317568.6,697755.6,231625.1,681143.9,578066.3,0.0
240893.3,256828.0,709400.3,313371.8,693478.8,228353.6,677572.3,573517.7,0.0
239413.6,256180.8,709445.1,312143.0,692388.1,227871.7,676735.7,571859.2,0.0
244686.5,260113.4,709878.6,316487.8,696844.1,231527.9,680562.6,576408.4,0.0
248303.7,262463.9,710011.1,319438.5,699833.5,233620.8,683014.4,579935.7,0.0
245866.2,260386.6,709725.8,317346.3,697614.8,231633.3,681158.6,578038.8,0.0
240875.5,256803.0,709399.4,313132.1,693318.9,228344.9,677570.8,573471.9,0.0
239387.7,256145.9,709440.6,311891.4,692212.3,227851.7,676721.1,571800.8,0.0
244663.2,260080.1,709875.7,316241.1,696671.9,231515.2,680551.4,576355.3,0.0
248291.3,262436.8,710011.1,319202.5,699672.5,233618.4,683012.8,579897.4,0.0
245869.8,260370.6,709727.0,317121.8,697465.6,231640.2,681166.4,578014.6,0.0
240880.6,256789.9,709399.5,312913.1,693170.9,228351.5,677579.8,573450.5,0.0
239377.7,256118.6,709438.6,311664.1,692053.6,227849.0,676721.6,571768.2,0.0
244645.3,260042.8,709870.1,316002.9,696497.9,231501.7,680538.6,576310.6,0.0
248287.8,262410.7,710007.6,318978.0,699505.6,233612.4,682993.9,579863.4,0.0
245863.0,260339.6,709722.8,316895.5,697296.7,231628.3,681146.6,577977.6,0.0
240866.3,256753.3,709396.2,312682.7,692996.8,228333.3,677556.1,573409.1,0.0
239363.0,256083.9,709438.9,311433.9,691878.7,227829.9,676696.6,571729.3,0.0
244639.8,260019.7,709869.4,315782.2,696332.3,231490.9,680525.3,576282.2,0.0
248278.1,262388.0,710006.3,318757.0,699339.1,233602.4,682997.0,579834.9,0.0
245857.0,260323.0,709723.1,316676.3,697136.1,231622.4,681147.6,577952.7,0.0
240868.6,256741.0,709399.5,312472.1,692854.7,228340.2,677564.8,573396.1,0.0
239359.8,256066.7,709440.6,311218.8,691734.9,227835.6,676701.7,571710.7,0.0
244621.4,259988.3,709869.4,315550.4,696170.5,231483.3,680512.9,576244.2,0.0
248269.2,262365.3,710007.3,318526.9,699180.9,233601.5,682988.4,579798.9,0.0
245860.0,260311.5,709724.7,316458.6,696991.4,231636.3,681155.1,577930.4,0.0
240870.5,256728.9,709399.0,312253.1,692703.4,228350.3,677570.6,573371.8,0.0
239341.5,256040.6,709437.2,310982.7,691565.1,227828.8,676690.3,571667.4,0.0
244599.3,259962.9,709867.6,315315.0,696002.9,231477.6,680504.3,576198.6,0.0
248259.6,262348.7,710006.4,318306.6,699026.5,233605.7,682991.4,579767.7,0.0
245846.2,260285.7,709722.1,316238.1,696833.6,231635.1,681153.0,577899.2,0.0
240856.9,256703.0,709397.8,312033.1,692546.3,228348.4,677569.3,573340.1,0.0
239348.3,256032.8,709440.2,310781.2,691425.3,227841.9,676706.6,571653.1,0.0
244605.5,259952.5,709871.4,315112.1,695861.4,231487.3,680517.1,576184.1,0.0
248250.6,262324.2,710010.8,318089.9,698873.8,233606.5,682990.8,579741.3,0.0
245834.3,260264.5,709726.8,316015.1,696678.9,231632.3,681147.4,577865.5,0.0
240843.4,256679.4,709398.4,311804.3,692387.1,228338.4,677557.1,573300.2,0.0
239324.0,255999.7,709437.6,310542.3,691261.8,227825.4,676691.1,571605.2,0.0
244586.2,259927.8,709868.4,314877.4,695704.4,231477.1,680511.1,576141.8,0.0
248214.1,262284.2,710003.8,317846.7,698702.6,233583.4,682987.4,579686.3,0.0
245769.7,260192.1,709718.1,315752.9,696486.5,231588.8,681117.5,577786.0,0.0
240824.2,256644.6,709395.9,311577.6,692235.7,228326.6,677553.1,573256.0,0.0
239320.7,255981.7,709437.5,310330.6,691126.3,227827.1,676694.0,571573.8,0.0
244572.9,259898.9,709868.6,314659.2,695561.6,231474.0,680503.0,576101.7,0.0
248225.0,262273.3,710007.6,317648.8,698580.6,233600.0,682986.6,579669.4,0.0
245828.4,260223.6,709723.0,315590.5,696403.1,231638.0,681158.0,577812.1,0.0
240846.1,256644.5,709394.1,311384.0,692116.2,228344.8,677568.3,573250.6,0.0
239300.8,255945.5,709434.1,310108.5,690973.6,227819.8,676684.2,571538.9,0.0
244545.3,259861.0,709862.5,314432.3,695401.2,231460.4,680489.8,576062.1,0.0
248203.0,262239.8,709999.4,317422.4,698417.5,233581.4,682983.1,579626.4,0.0
245802.7,260185.7,709717.2,315363.6,696238.6,231616.5,681150.8,577768.8,0.0
240821.2,256613.1,709393.5,311163.6,691959.4,228332.2,677571.2,573216.4,0.0
239288.0,255925.6,709435.3,309894.2,690822.2,227812.7,676693.8,571511.5,0.0
244528.0,259831.5,709862.5,314208.2,695239.5,231445.6,680488.3,576023.0,0.0
248191.4,262214.1,709998.2,317199.3,698256.8,233568.1,682983.6,579590.1,0.0
245799.3,260167.5,709716.6,315147.2,696081.8,231608.0,681157.6,577737.3,0.0
240812.3,256583.6,709392.4,310947.0,691797.1,228319.9,677573.9,573183.3,0.0
239283.3,255901.6,709433.6,309681.0,690660.4,227801.4,676700.8,571478.7,0.0
244522.4,259814.4,709864.7,314000.3,695081.6,231440.6,680504.4,575996.4,0.0
248188.7,262202.4,710002.1,316997.4,698105.1,233570.5,682991.8,579569.6,0.0
245786.9,260146.5,709717.1,314940.0,695926.6,231603.5,681158.6,577708.9,0.0
240810.2,256574.9,709393.3,310741.4,691647.5,228318.6,677575.4,573152.6,0.0
239270.3,255883.9,709434.8,309468.8,690506.6,227796.6,676695.9,571440.6,0.0
244513.9,259797.6,709864.0,313790.0,694931.1,231436.1,680498.9,575957.2,0.0
248181.6,262185.3,710005.9,316794.2,697962.9,233572.5,682994.5,579535.3,0.0
245800.0,260150.7,709724.3,314749.4,695797.3,231617.6,681176.3,577688.6,0.0
240813.0,256569.6,709398.1,310543.9,691511.1,228324.5,677588.4,573127.6,0.0
239274.5,255875.9,709438.3,309270.3,690370.1,227800.1,676705.3,571413.8,0.0
244520.9,259792.0,709867.8,313592.1,694795.3,231441.6,680508.1,575927.9,0.0
248187.5,262177.3,710002.8,316586.4,697814.9,233566.4,682992.1,579495.9,0.0
245795.3,260130.0,709720.1,314535.8,695644.3,231606.4,681167.8,577645.8,0.0
240816.2,256552.7,709398.0,310338.3,691369.1,228323.4,677588.8,573096.0,0.0
239266.6,255851.6,709437.2,309052.5,690215.8,227787.4,676695.8,571369.7,0.0
244512.8,259771.5,709869.6,313379.3,694646.8,231430.9,680502.9,575890.3,0.0
248186.3,262166.7,710007.6,316383.0,697679.3,233567.8,682998.4,579469.7,0.0
245789.5,260115.1,709721.6,314328.3,695504.3,231604.0,681170.5,577615.7,0.0
240803.1,256527.7,709394.9,310124.6,691220.1,228311.5,677583.4,573058.8,0.0
239248.9,255823.0,709434.8,308837.9,690067.1,227777.3,676692.6,571334.9,0.0
244487.8,259739.2,709866.1,313158.9,694487.4,231416.8,680496.5,575846.9,0.0
248170.7,262142.9,710005.4,316174.3,697528.3,233561.1,683000.1,579436.6,0.0
245785.9,260101.5,709721.9,314131.8,695365.2,231605.8,681180.2,577590.3,0.0
240789.7,256508.0,709393.1,309920.1,691070.8,228304.6,677583.3,573020.4,0.0
239226.2,255796.0,709429.0,308623.4,689904.6,227761.7,676679.6,571282.4,0.0
244468.4,259711.5,709860.8,312946.8,694327.8,231404.9,680482.9,575794.8,0.0
248153.5,262115.0,710002.5,315961.1,697365.7,233546.9,682987.2,579382.6,0.0
245774.1,260075.9,709719.6,313919.3,695205.2,231593.5,681170.1,577540.3,0.0
240794.5,256493.9,709395.1,309718.7,690925.8,228305.1,677585.3,572986.6,0.0
239230.1,255781.6,709433.1,308420.7,689761.0,227761.5,676683.0,571250.7,0.0
244456.8,259689.1,709863.0,312730.3,694171.0,231394.1,680476.4,575750.6,0.0
248142.9,262092.0,710003.1,315745.4,697211.4,233539.2,682982.7,579341.1,0.0
245771.7,260063.8,709720.1,313709.0,695056.7,231587.9,681171.1,577504.6,0.0
240783.1,256479.0,709390.9,309503.2,690770.7,228290.9,677583.3,572943.3,0.0
239206.7,255755.1,709427.5,308196.1,689597.3,227740.1,676672.8,571197.1,0.0
244432.3,259654.4,709858.9,312508.0,694010.3,231374.0,680467.1,575699.9,0.0
248139.7,262077.6,710003.4,315545.6,697068.5,233534.3,682989.7,579309.4,0.0
245771.7,260051.7,709721.1,313515.5,694920.6,231591.6,681186.8,577480.9,0.0
240762.6,256443.6,709387.1,309287.8,690613.3,228274.3,677576.2,572899.0,0.0
239186.8,255722.6,709424.8,307980.4,689437.2,227723.3,676663.1,571150.5,0.0
244416.2,259631.1,709857.6,312296.2,693854.1,231363.5,680462.1,575657.7,0.0
248117.2,262045.5,709998.8,315327.0,696907.6,233519.7,682976.6,579261.3,0.0
245752.8,260021.7,709716.4,313300.2,694758.8,231575.0,681167.7,577430.0,0.0
240762.5,256434.9,709388.9,309098.8,690474.3,228282.4,677578.9,572871.5,0.0
239191.8,255719.9,709425.1,307798.4,689301.1,227735.0,676672.3,571129.0,0.0
244428.3,259634.6,709856.8,312116.1,693714.7,231374.7,680472.3,575634.1,0.0
248123.4,262046.8,709999.0,315141.2,696759.6,233525.5,682982.8,579228.1,0.0
245749.0,260013.1,709715.8,313108.7,694605.7,231576.2,681170.3,577392.4,0.0
240754.7,256415.8,709385.1,308898.3,690316.1,228274.2,677572.1,572828.4,0.0
239173.1,255691.3,709424.1,307591.6,689142.4,227722.7,676660.8,571080.9,0.0
244403.1,259599.8,709855.8,311904.6,693555.4,231361.2,680457.9,575581.5,0.0
248098.4,262009.9,709996.1,314926.3,696599.4,233510.7,682967.7,579173.8,0.0
245701.9,259957.5,709713.2,312873.7,694424.3,231543.6,681138.9,577317.3,0.0
240729.8,256382.9,709388.9,308685.1,690153.4,228260.7,677563.1,572771.7,0.0
239163.8,255670.5,709425.4,307392.7,688991.1,227720.8,676660.3,571037.3,0.0
244384.1,259572.4,709855.1,311700.2,693397.9,231350.8,680448.6,575530.4,0.0
248085.9,261987.8,709997.9,314733.8,696452.6,233506.5,682979.4,579133.8,0.0
245702.4,259941.2,709712.4,312690.7,694288.3,231545.4,681153.4,577287.3,0.0
240731.4,256369.3,709386.1,308498.0,690014.0,228257.6,677569.0,572739.4,0.0
239159.6,255655.1,709422.9,307198.2,688845.6,227709.6,676663.0,570998.3,0.0
244390.0,259565.3,709855.1,311515.2,693261.6,231348.9,680462.3,575503.4,0.0
248093.4,261979.4,709998.2,314551.0,696318.8,233510.4,682994.3,579110.8,0.0
245737.7,259958.8,709717.4,312532.0,694180.9,231572.7,681190.1,577287.8,0.0
240752.3,256373.6,709392.1,308335.7,689904.9,228282.6,677603.9,572737.4,0.0
239150.1,255632.0,709426.8,307015.0,688712.3,227717.0,676676.4,570975.5,0.0
244363.9,259528.8,709854.1,311313.3,693105.2,231335.6,680452.5,575459.2,0.0
248091.5,261964.0,709999.1,314365.6,696174.9,233507.3,682983.6,579084.0,0.0
245725.6,259935.1,709716.8,312341.4,694029.8,231562.7,681178.1,577260.2,0.0
240728.4,256340.3,709387.2,308133.6,689738.8,228259.4,677580.5,572697.3,0.0
239143.4,255614.7,709422.1,306821.6,688554.4,227700.9,676659.9,570941.2,0.0
244361.4,259513.1,709854.1,311129.2,692956.1,231330.1,680449.6,575435.8,0.0
248067.2,261930.4,709995.6,314169.4,696010.6,233489.1,682972.4,579047.4,0.0
245714.7,259915.0,709714.8,312157.2,693875.0,231553.0,681175.6,577234.4,0.0
240732.7,256332.3,709388.7,307959.9,689592.3,228258.9,677588.3,572683.0,0.0
239126.9,255587.1,709420.8,306631.3,688388.1,227684.4,676651.5,570910.0,0.0
244344.6,259485.5,709852.6,310936.2,692788.5,231313.2,680437.1,575399.8,0.0
248068.9,261915.9,709995.3,313990.4,695859.6,233485.3,682971.0,579025.1,0.0
245716.8,259898.1,709716.6,311985.5,693731.1,231553.5,681183.2,577220.4,0.0
240725.4,256304.1,709389.6,307781.2,689441.9,228252.8,677592.6,572661.4,0.0
239129.7,255570.0,709424.4,306458.0,688244.8,227686.0,676665.1,570893.4,0.0
244333.9,259457.9,709850.8,310748.1,692631.9,231303.4,680439.8,575370.3,0.0
248057.1,261887.7,709993.6,313796.8,695698.6,233473.8,682967.0,578990.1,0.0
245700.0,259864.9,709713.8,311782.5,693566.9,231540.5,681169.0,577175.4,0.0
240714.8,256278.0,709386.6,307586.7,689289.6,228249.2,677585.6,572627.4,0.0
239107.7,255533.8,709418.8,306254.9,688082.7,227673.3,676649.9,570852.9,0.0
244331.5,259440.5,709852.3,310567.0,692490.4,231307.5,680442.6,575352.5,0.0
248048.0,261865.9,709993.3,313612.2,695550.4,233468.7,682965.9,578967.3,0.0
245688.4,259840.7,709709.3,311594.0,693410.4,231526.2,681163.8,577146.6,0.0
240707.5,256257.3,709382.1,307394.8,689129.6,228228.1,677571.7,572590.3,0.0
239111.6,255521.9,709419.9,306075.1,687940.3,227661.9,676644.3,570824.9,0.0
244331.0,259425.7,709851.6,310383.7,692344.9,231292.5,680430.9,575315.9,0.0
248045.6,261851.3,709994.5,313431.0,695409.2,233459.8,682956.1,578932.8,0.0
245684.9,259823.3,709711.4,311418.4,693273.6,231522.9,681159.1,577118.3,0.0
240696.4,256232.6,709384.4,307221.3,688991.1,228225.3,677572.3,572566.1,0.0
239091.5,255491.3,709418.3,305895.4,687790.8,227652.4,676640.4,570794.6,0.0
244312.6,259396.6,709849.7,310197.9,692189.9,231280.1,680426.8,575280.6,0.0
248051.1,261842.6,709994.6,313259.9,695269.4,233460.8,682967.5,578915.1,0.0
245705.5,259829.9,709713.9,311255.8,693143.3,231532.9,681178.0,577110.6,0.0
240720.1,256242.6,709385.9,307057.1,688861.6,228237.5,677590.7,572559.0,0.0
239106.4,255494.6,709420.5,305721.4,687653.1,227661.6,676651.5,570780.5,0.0
244313.9,259389.2,709850.9,310018.9,692043.9,231285.8,680428.6,575260.9,0.0
248046.2,261828.8,709997.2,313078.3,695118.4,233464.8,682962.4,578888.6,0.0
245704.5,259816.8,709716.2,311076.5,692995.2,231538.0,681173.0,577087.4,0.0
240714.5,256226.0,709388.2,306878.8,688710.8,228238.0,677583.6,572534.7,0.0
239084.4,255463.1,709417.5,305534.6,687488.4,227646.6,676635.0,570744.1,0.0
244292.0,259359.7,709847.4,309832.6,691878.1,231269.6,680418.6,575223.1,0.0
248036.7,261810.6,709993.0,312899.7,694959.9,233454.0,682980.5,578860.7,0.0
245698.8,259802.2,709715.2,310903.9,692842.5,231532.2,681196.0,577064.4,0.0
240710.8,256211.5,709389.1,306708.6,688562.4,228235.5,677606.5,572515.2,0.0
239077.2,255444.3,709419.9,305359.8,687339.5,227643.6,676654.7,570721.3,0.0
244274.7,259328.3,709848.3,309650.3,691724.8,231262.7,680429.9,575194.8,0.0
248014.4,261770.9,709993.0,312714.5,694804.8,233448.7,682971.9,578829.6,0.0
245675.5,259758.8,709710.2,310708.8,692677.4,231519.9,681177.8,577025.1,0.0
240692.0,256170.6,709383.1,306513.6,688397.4,228223.5,677590.7,572476.8,0.0
239070.3,255414.9,709416.9,305176.3,687187.1,227640.6,676646.0,570694.7,0.0
244264.4,259295.1,709844.6,309461.1,691564.0,231250.1,680413.3,575161.9,0.0
248014.8,261747.7,709991.9,312534.3,694649.4,233438.9,682977.9,578803.8,0.0
245686.1,259748.8,709714.9,310546.9,692540.3,231524.7,681200.1,577016.2,0.0
240695.3,256154.2,709384.7,306341.7,688251.4,228218.3,677601.2,572458.7,0.0
239064.6,255391.8,709415.9,304992.2,687027.9,227623.7,676645.8,570663.1,0.0
244271.0,259288.4,709847.7,309288.7,691417.6,231245.3,680422.6,575138.5,0.0
247999.7,261721.8,709989.3,312342.7,694484.4,233413.3,682963.1,578757.3,0.0
245640.0,259696.3,709707.0,310327.4,692342.6,231470.3,681157.4,576938.3,0.0
240673.1,256124.1,709382.4,306148.6,688080.5,228190.5,677585.8,572409.1,0.0
239062.8,255380.3,709415.6,304817.2,686878.1,227616.0,676651.2,570634.4,0.0
244265.3,259272.9,709848.8,309111.0,691265.4,231238.1,680429.9,575111.1,0.0
248011.9,261721.1,709994.2,312182.6,694350.7,233424.4,682990.2,578753.1,0.0
245680.0,259717.8,709715.1,310191.3,692239.8,231503.5,681207.4,576961.7,0.0
240687.3,256119.7,709387.3,305992.6,687957.3,228204.0,677613.4,572409.3,0.0
239042.8,255345.4,709418.8,304637.3,686724.7,227607.6,676652.3,570605.0,0.0
244245.7,259240.6,709848.3,308935.5,691111.3,231232.1,680430.4,575080.4,0.0
248001.0,261701.0,709993.3,312018.4,694204.6,233426.8,682972.7,578731.1,0.0
245668.8,259697.2,709711.8,310026.4,692088.0,231502.7,681191.2,576939.7,0.0
240673.7,256100.3,709382.9,305822.5,687797.8,228198.2,677595.6,572383.8,0.0
239031.9,255332.0,709415.7,304472.1,686570.4,227604.5,676637.3,570586.5,0.0
244224.5,259216.2,709845.6,308761.5,690948.1,231221.5,680406.8,575051.9,0.0
247990.1,261679.8,709992.6,311848.3,694046.8,233423.3,682967.8,578708.4,0.0
245668.0,259683.7,709715.1,309867.4,691944.5,231512.7,681199.2,576930.1,0.0
240674.0,256088.8,709385.8,305665.6,687657.5,228208.9,677606.6,572374.5,0.0
239023.8,255311.2,709412.8,304302.3,686418.4,227603.2,676638.7,570562.4,0.0
244207.0,259186.9,709838.9,308577.8,690784.0,231207.1,680395.6,575014.1,0.0
247978.6,261660.4,709989.9,311673.6,693889.9,233414.5,682962.3,578676.6,0.0
245659.7,259666.8,709711.6,309691.4,691784.2,231498.9,681186.5,576895.1,0.0
240676.3,256076.9,709383.0,305499.1,687504.2,228199.2,677599.0,572348.6,0.0
239022.0,255297.5,709414.1,304138.2,686264.1,227593.2,676632.1,570536.3,0.0
244216.3,259185.7,709846.1,308428.6,690645.1,231211.1,680406.4,575002.5,0.0
247980.5,261646.0,709994.5,311514.8,693744.1,233409.3,682964.8,578658.0,0.0
245662.0,259651.2,709712.4,309528.0,691635.5,231489.3,681183.7,576872.4,0.0
240671.6,256053.0,709384.3,305330.0,687350.3,228185.2,677592.3,572319.7,0.0
239021.2,255273.1,709415.9,303970.2,686114.6,227583.8,676628.8,570511.7,0.0
244209.0,259156.5,709845.1,308250.5,690486.4,231193.8,680395.1,574967.9,0.0
247970.8,261616.9,709991.7,311336.0,693583.5,233391.5,682966.8,578619.4,0.0
245659.1,259627.1,709710.5,309362.6,691485.1,231483.9,681196.3,576844.6,0.0
240672.6,256035.3,709383.0,305167.7,687203.7,228183.5,677602.0,572294.7,0.0
239014.7,255252.3,709415.3,303802.3,685961.1,227576.7,676630.8,570479.3,0.0
244196.2,259133.9,709844.6,308084.9,690330.4,231188.4,680394.2,574934.1,0.0
247970.9,261607.8,709992.8,311184.2,693436.4,233396.9,682959.6,578599.3,0.0
245655.2,259614.1,709711.4,309206.3,691334.3,231484.1,681186.8,576821.8,0.0
240662.0,256016.1,709382.2,305005.3,687047.3,228178.7,677591.6,572266.6,0.0
238997.6,255228.7,709409.9,303630.2,685796.5,227565.4,676611.5,570441.4,0.0
244180.8,259107.7,709838.6,307908.3,690168.0,231175.4,680374.9,574894.3,0.0
247963.7,261586.3,709990.1,311011.2,693283.4,233390.1,682965.1,578565.4,0.0
245656.8,259601.5,709713.6,309042.1,691192.1,231487.3,681199.8,576797.0,0.0
240669.8,256007.2,709385.1,304845.0,686909.4,228184.4,677607.4,572246.8,0.0
239006.0,255219.9,709411.9,303469.7,685656.9,227567.7,676629.0,570422.4,0.0
244190.4,259103.3,709842.7,307753.7,690031.3,231181.0,680396.3,574880.3,0.0
247971.0,261580.3,709992.2,310855.3,693144.4,233392.0,682966.4,578549.6,0.0
245656.5,259588.9,709710.8,308879.3,691047.2,231483.0,681193.8,576775.4,0.0
240664.6,255992.8,709380.6,304677.3,686758.1,228176.4,677597.3,572219.1,0.0
238989.1,255196.2,709410.3,303298.5,685499.9,227556.8,676614.6,570387.1,0.0
244164.5,259070.9,709837.4,307574.2,689862.6,231159.8,680373.1,574835.2,0.0
247946.4,261545.8,709985.5,310680.7,692976.2,233370.5,682948.9,578510.5,0.0
245643.4,259563.1,709705.2,308710.2,690880.6,231462.0,681183.2,576739.9,0.0
240647.2,255964.0,709375.4,304510.2,686592.7,228156.3,677587.3,572183.9,0.0
238975.1,255168.3,709405.5,303136.6,685341.3,227543.1,676607.9,570360.8,0.0
244163.9,259053.4,709837.4,307420.1,689712.2,231155.5,680375.6,574818.3,0.0
247933.6,261520.7,709982.4,310512.6,692810.5,233353.9,682966.6,578472.5,0.0
245634.6,259543.2,709706.4,308555.8,690727.8,231461.7,681211.1,576712.9,0.0
240650.2,255954.1,709378.8,304364.9,686450.9,228169.0,677621.8,572169.0,0.0
238975.9,255162.3,709406.5,302981.1,685190.9,227548.8,676636.0,570335.6,0.0
244148.8,259031.8,709836.4,307257.5,689554.8,231154.1,680391.1,574783.8,0.0
247930.3,261506.2,709985.3,310365.8,692671.4,233369.1,682964.9,578456.8,0.0
245623.0,259521.1,709703.9,308393.2,690574.9,231462.1,681195.3,576685.3,0.0
240639.0,255933.6,709374.6,304199.1,686293.6,228160.9,677607.4,572137.2,0.0
238955.1,255131.0,709402.9,302817.2,685029.7,227537.2,676623.3,570303.6,0.0
244121.7,259001.2,709835.0,307093.4,689393.8,231144.2,680384.9,574752.6,0.0
247923.7,261497.5,709986.3,310212.0,692523.5,233366.8,682968.9,578436.9,0.0
245614.8,259506.7,709706.6,308244.3,690432.3,231462.2,681200.5,576668.7,0.0
240614.6,255902.5,709375.9,304040.4,686139.6,228153.0,677599.1,572110.3,0.0
238943.6,255116.8,709406.5,302663.0,684880.8,227536.8,676616.8,570280.0,0.0
244115.0,258987.8,709833.4,306934.9,689237.2,231135.7,680369.1,574721.1,0.0
247902.1,261468.8,709983.6,310046.3,692351.9,233350.5,682959.6,578394.9,0.0
245576.3,259468.6,709703.3,308061.6,690240.9,231428.4,681177.9,576608.3,0.0
240605.8,255891.2,709375.6,303882.3,685975.9,228140.8,677594.9,572073.0,0.0
238937.6,255104.4,709405.9,302513.8,684730.6,227531.7,676621.9,570251.8,0.0
244100.8,258969.7,709835.0,306783.8,689089.0,231133.8,680375.7,574694.1,0.0
247904.3,261466.2,709985.3,309901.8,692218.3,233358.3,682961.3,578380.5,0.0
245613.2,259494.7,709705.8,307947.4,690141.5,231465.6,681212.7,576629.9,0.0
240616.7,255896.1,709374.3,303744.8,685855.0,228159.8,677613.8,572074.3,0.0
238926.0,255092.2,709404.9,302357.3,684591.9,227533.5,676618.0,570232.0,0.0
244092.5,258961.4,709835.6,306631.4,688956.0,231139.4,680372.6,574675.4,0.0
247887.5,261446.5,709986.6,309751.2,692086.8,233367.5,682956.3,578362.9,0.0
245600.1,259476.0,709707.6,307794.3,690011.2,231475.8,681203.9,576611.1,0.0
240621.3,255891.7,709377.6,303603.8,685738.9,228179.8,677619.2,572071.0,0.0
238933.1,255089.1,709406.1,302216.5,684475.4,227553.6,676626.8,570232.2,0.0
244091.8,258949.7,709835.6,306481.2,688827.5,231147.4,680370.5,574664.4,0.0
247891.7,261442.7,709985.6,309602.3,691956.9,233372.6,682969.6,578350.0,0.0
245592.0,259461.7,709704.3,307639.2,689870.4,231472.5,681208.8,576588.5,0.0
240607.9,255873.2,709375.2,303445.7,685589.6,228171.5,677614.3,572040.6,0.0
238925.3,255073.5,709405.7,302061.6,684324.1,227545.7,676623.4,570205.6,0.0
244080.6,258932.8,709833.1,306322.3,688668.8,231137.1,680365.5,574637.7,0.0
247876.8,261415.4,709983.6,309434.5,691788.1,233353.4,682955.0,578315.9,0.0
245594.8,259448.3,709706.4,307487.3,689719.1,231464.5,681207.6,576571.7,0.0
240610.8,255858.5,709377.8,303298.8,685443.4,228164.8,677617.8,572030.9,0.0
238905.4,255041.5,709403.3,301897.1,684157.8,227521.0,676611.6,570175.1,0.0
244068.9,258907.3,709832.3,306166.4,688509.4,231117.6,680361.8,574611.8,0.0
247866.9,261393.7,709983.3,309292.8,691640.2,233345.3,682950.3,578301.7,0.0
245588.1,259431.6,709708.0,307353.1,689575.9,231462.0,681209.1,576562.5,0.0
240591.3,255828.6,709375.5,303148.8,685282.5,228147.2,677603.6,572001.8,0.0
238884.8,255013.4,709402.6,301747.8,683999.1,227506.9,676598.6,570145.1,0.0
244050.3,258883.6,709834.8,306022.6,688357.8,231111.6,680355.8,574585.4,0.0
247859.5,261379.5,709986.1,309148.2,691490.5,233340.2,682944.9,578276.1,0.0
245582.4,259416.5,709708.1,307204.3,689422.7,231453.3,681199.2,576533.4,0.0
240596.3,255825.5,709378.0,303015.8,685143.7,228149.6,677609.5,571987.9,0.0
238886.9,255003.5,709404.5,301608.9,683860.0,227503.5,676599.1,570126.7,0.0
244054.2,258874.9,709836.8,305879.9,688219.9,231104.4,680353.4,574566.8,0.0
247856.8,261367.7,709986.6,309002.3,691350.3,233330.9,682956.3,578253.8,0.0
245578.3,259401.8,709711.6,307059.2,689285.9,231447.2,681212.7,576511.8,0.0
240595.0,255808.9,709380.1,302868.9,685015.9,228143.7,677619.4,571968.3,0.0
238880.2,254981.9,709403.0,301460.0,683738.4,227493.2,676605.3,570106.1,0.0
244027.5,258835.7,709834.5,305719.8,688070.9,231083.8,680348.4,574533.4,0.0
247839.6,261334.5,709987.1,308852.0,691212.2,233314.7,682955.9,578231.2,0.0
245570.2,259375.8,709709.9,306915.0,689152.7,231432.1,681212.1,576494.3,0.0
240588.6,255785.2,709379.9,302724.3,684910.4,228130.3,677621.8,571949.5,0.0
238880.1,254966.6,709403.1,301314.5,683698.6,227483.9,676609.3,570084.7,0.0
244023.9,258816.5,709831.4,305567.3,687970.6,231069.2,680346.8,574504.6,0.0
247829.2,261309.2,709981.6,308691.5,691095.9,233293.2,682946.1,578192.6,0.0
245555.3,259345.5,709703.3,306753.2,689033.9,231410.0,681197.4,576454.3,0.0
240578.9,255756.4,709375.6,302566.5,684812.0,228112.2,677607.1,571912.3,0.0
238868.9,254932.0,709401.7,301157.9,683630.8,227461.1,676593.3,570049.9,0.0
244020.5,258789.3,709828.5,305412.7,687881.5,231047.2,680332.9,574472.6,0.0
247844.3,261298.5,709981.6,308550.5,691016.8,233286.5,682948.8,578174.5,0.0
245579.8,259348.0,709706.6,306614.8,688956.6,231407.4,681212.0,576440.4,0.0
240595.3,255753.8,709375.4,302420.8,684740.6,228104.3,677616.1,571893.6,0.0
238876.9,254922.5,709398.1,301005.0,683578.6,227448.6,676597.4,570023.5,0.0
244030.5,258779.5,709828.8,305264.9,687816.1,231040.7,680340.6,574450.3,0.0
247842.5,261275.5,709978.8,308394.4,690942.2,233271.0,682945.9,578144.4,0.0
245563.4,259307.8,709699.8,306450.8,688875.3,231382.9,681198.3,576402.2,0.0
240583.8,255719.0,709371.9,302261.6,684672.5,228079.5,677608.6,571859.7,0.0
238878.6,254904.8,709397.4,300852.8,683529.3,227426.8,676597.4,569995.9,0.0
244031.3,258765.6,709827.1,305113.8,687754.6,231017.9,680338.8,574425.8,0.0
247857.4,261276.5,709980.4,308258.7,690892.6,233261.2,682928.4,578137.6,0.0
245589.5,259319.2,709704.5,306326.2,688836.4,231380.9,681194.3,576407.0,0.0
240585.7,255704.1,709371.9,302120.8,684617.8,228061.1,677593.0,571847.5,0.0
238871.1,254877.8,709396.4,300707.2,683469.3,227404.3,676575.6,569980.4,0.0
244027.6,258740.3,709824.5,304960.6,687690.2,230990.6,680316.4,574404.4,0.0
247850.4,261247.7,709975.2,308096.4,690820.9,233229.7,682945.2,578105.6,0.0
245582.3,259289.5,709699.1,306160.1,688761.2,231350.3,681200.2,576370.4,0.0
240601.0,255697.6,709370.9,301970.7,684567.9,228048.1,677605.1,571828.1,0.0
238880.8,254868.5,709396.2,300558.1,683433.5,227392.7,676589.8,569961.1,0.0
244021.2,258720.0,709824.3,304810.7,687641.9,230980.1,680328.5,574380.1,0.0
247836.7,261224.2,709975.9,307944.8,690766.2,233215.8,682937.8,578077.0,0.0
245550.1,259253.4,709698.9,305993.6,688688.5,231323.2,681183.6,576324.9,0.0
240580.2,255669.9,709369.6,301815.0,684503.3,228031.4,677599.4,571790.9,0.0
238870.7,254847.4,709397.4,300413.5,683379.4,227389.9,676594.1,569935.6,0.0
244023.0,258702.9,709828.3,304676.1,687597.7,230984.0,680337.4,574364.7,0.0
247847.7,261213.3,709983.4,307819.4,690732.3,233226.4,682956.8,578072.2,0.0
245573.1,259254.6,709705.0,305881.0,688668.4,231342.9,681218.0,576334.4,0.0
240592.5,255664.5,709373.1,301692.5,684473.8,228041.7,677628.1,571792.0,0.0
238865.0,254827.2,709397.3,300269.8,683327.8,227377.9,676603.9,569913.4,0.0
244003.3,258676.8,709824.2,304521.3,687532.9,230958.7,680336.9,574328.6,0.0
247829.5,261186.7,709977.4,307666.7,690669.6,233201.0,682939.5,578036.9,0.0
245560.8,259229.4,709699.4,305732.9,688609.6,231319.6,681200.3,576302.8,0.0
240572.8,255635.0,709368.7,301541.2,684412.5,228014.3,677606.9,571755.5,0.0
238856.0,254809.2,709395.6,300131.6,683299.6,227362.3,676593.4,569890.1,0.0
243990.1,258655.7,709822.4,304377.7,687494.3,230940.9,680323.0,574300.8,0.0
247812.4,261166.1,709975.3,307523.4,690627.2,233185.6,682926.6,578009.7,0.0
245548.8,259217.8,709699.3,305593.6,688575.2,231311.3,681192.8,576282.8,0.0
240559.4,255622.0,709370.9,301400.9,684387.0,228005.8,677597.1,571735.3,0.0
238822.9,254779.0,709394.5,299977.9,683250.8,227340.0,676567.3,569854.3,0.0
243983.1,258649.3,709824.4,304241.7,687463.3,230935.9,680315.9,574282.8,0.0
247824.4,261172.6,709979.6,307394.4,690607.3,233186.7,682944.4,578001.3,0.0
245551.3,259211.0,709699.8,305455.5,688544.1,231303.2,681201.4,576263.9,0.0
240563.4,255616.9,709371.9,301263.2,684358.1,228000.9,677608.0,571718.4,0.0
238828.9,254777.2,709395.1,299838.6,683241.6,227335.4,676579.8,569838.0,0.0
243982.0,258637.1,709825.9,304103.8,687445.9,230928.6,680326.6,574265.4,0.0
247801.4,261139.2,709977.6,307245.7,690571.6,233170.5,682943.6,577970.2,0.0
245529.4,259179.2,709698.4,305304.6,688506.1,231285.3,681196.4,576231.1,0.0
240535.5,255584.4,709368.6,301107.8,684313.2,227978.1,677599.9,571678.9,0.0
238806.0,254752.6,709391.5,299688.3,683198.1,227318.0,676577.8,569802.7,0.0
243958.0,258615.8,709822.4,303951.7,687399.3,230909.5,680321.9,574230.0,0.0
247794.4,261136.2,709978.3,307108.9,690537.3,233162.5,682948.6,577948.6,0.0
245524.5,259177.1,709702.2,305181.3,688484.1,231285.8,681214.3,576222.9,0.0
240526.1,255569.8,709367.9,300977.8,684299.4,227967.1,677604.0,571664.8,0.0
238790.0,254727.1,709390.6,299549.1,683174.5,227293.7,676571.0,569777.0,0.0
243933.5,258580.6,709819.3,303806.8,687358.8,230877.6,680312.3,574196.3,0.0
247765.9,261095.5,709972.4,306957.6,690488.4,233124.8,682948.2,577910.6,0.0
245510.1,259149.5,709699.5,305039.1,688442.6,231259.7,681215.1,576191.1,0.0
240520.4,255552.1,709368.3,300849.7,684271.1,227955.4,677618.0,571643.9,0.0
238779.6,254709.6,709392.4,299422.7,683166.0,227285.9,676588.1,569759.3,0.0
243921.1,258564.7,709821.5,303678.9,687344.6,230871.1,680321.9,574176.4,0.0
247763.9,261091.0,709978.0,306841.4,690481.8,233130.6,682940.5,577900.9,0.0
245508.6,259144.7,709703.9,304921.5,688435.4,231261.0,681214.9,576183.6,0.0
240501.4,255530.4,709368.6,300713.3,684246.8,227937.2,677602.6,571619.3,0.0
238766.5,254689.0,709389.9,299286.9,683142.8,227267.1,676569.8,569733.4,0.0
243911.5,258543.4,709819.4,303547.3,687324.6,230854.6,680310.1,574152.9,0.0
247753.3,261062.8,709974.1,306707.7,690458.3,233109.8,682938.8,577872.6,0.0
245496.9,259115.2,709697.9,304786.5,688409.3,231239.1,681209.1,576148.5,0.0
240499.2,255510.3,709366.0,300589.5,684230.9,227925.1,677608.4,571594.4,0.0
238751.6,254659.6,709386.6,299155.3,683117.4,227247.2,676568.9,569700.9,0.0
243903.5,258522.2,709818.1,303422.6,687305.6,230842.1,680311.4,574126.7,0.0
247744.0,261044.6,709973.9,306585.8,690442.6,233099.4,682929.3,577849.7,0.0
245480.5,259091.0,709697.3,304661.1,688390.9,231225.5,681197.5,576125.1,0.0
240484.1,255484.6,709365.4,300464.7,684220.4,227912.9,677597.3,571573.8,0.0
238743.5,254640.8,709389.8,299036.8,683103.6,227241.3,676565.1,569687.1,0.0
243877.7,258490.0,709818.4,303285.3,687272.2,230819.0,680293.6,574094.7,0.0
247730.2,261023.7,709975.1,306453.6,690418.5,233081.2,682927.2,577825.5,0.0
245478.1,259081.9,709699.8,304537.6,688378.8,231217.9,681201.0,576114.6,0.0
240466.7,255465.5,709363.1,300327.2,684194.8,227893.8,677589.3,571549.9,0.0
238722.1,254619.5,709385.1,298897.7,683074.4,227219.6,676556.9,569658.8,0.0
243876.0,258484.9,709816.6,303162.4,687260.1,230813.3,680303.0,574082.1,0.0
247729.8,261021.5,709973.9,306329.4,690404.6,233077.4,682942.9,577810.9,0.0
245468.0,259068.7,709696.0,304401.3,688350.4,231201.9,681207.9,576084.6,0.0
240466.1,255461.8,709363.1,300196.6,684175.9,227885.3,677599.8,571523.9,0.0
238723.6,254619.0,709390.3,298767.8,683061.2,227215.2,676570.1,569635.6,0.0
243871.5,258475.6,709820.7,303030.0,687244.1,230806.3,680312.1,574057.9,0.0
247721.3,261005.7,709975.1,306196.8,690387.1,233066.8,682945.9,577784.8,0.0
245462.2,259054.8,709697.8,304273.5,688335.1,231193.8,681211.6,576060.8,0.0
240464.5,255451.3,709365.6,300075.5,684163.8,227879.1,677607.1,571505.5,0.0
238710.2,254596.8,709387.0,298637.6,683055.3,227197.8,676564.2,569607.7,0.0
243862.5,258463.8,709819.6,302903.5,687236.0,230792.6,680307.2,574031.7,0.0
247715.6,260996.8,709974.3,306075.3,690375.1,233055.2,682929.3,577764.6,0.0
245445.0,259038.8,709697.1,304142.5,688314.3,231173.3,681189.9,576034.3,0.0
240447.0,255433.9,709366.1,299945.3,684144.6,227861.6,677590.4,571482.0,0.0
238716.0,254596.8,709389.9,298527.8,683039.7,227200.9,676568.5,569606.9,0.0
243844.9,258439.3,709817.1,302770.8,687203.8,230774.9,680293.0,574007.3,0.0
247681.9,260958.1,709971.8,305929.5,690337.9,233027.9,682934.6,577722.7,0.0
245411.3,259000.8,709695.1,303996.3,688273.6,231146.0,681187.4,575983.8,0.0
240454.2,255433.1,709367.3,299830.7,684136.1,227863.0,677612.6,571460.6,0.0
238706.7,254580.9,709388.8,298398.8,683036.8,227190.8,676581.3,569570.9,0.0
243849.8,258436.3,709820.4,302656.3,687211.8,230779.0,680318.6,573987.4,0.0
247721.1,260988.2,709978.6,305840.5,690365.7,233056.5,682954.6,577731.6,0.0
245457.7,259033.4,709700.8,303914.9,688314.3,231181.1,681222.0,576008.0,0.0
240449.6,255418.1,709369.8,299712.0,684139.4,227863.4,677618.0,571449.4,0.0
238698.1,254565.6,709391.1,298274.6,683029.9,227183.0,676575.4,569549.5,0.0
243839.6,258417.4,709819.8,302532.3,687202.4,230770.6,680309.9,573965.4,0.0
247689.2,260944.2,709972.7,305695.5,690336.3,233030.2,682927.8,577689.2,0.0
245428.1,258990.8,709695.1,303773.9,688287.1,231159.5,681199.1,575968.4,0.0
240432.2,255389.8,709361.6,299574.9,684114.7,227846.5,677593.4,571412.6,0.0
238691.1,254550.7,709386.3,298147.4,683015.9,227177.6,676560.9,569524.3,0.0
243833.3,258405.9,709818.9,302408.0,687191.3,230767.6,680302.6,573941.8,0.0
247684.0,260936.0,709974.1,305576.0,690329.8,233032.2,682940.5,577671.8,0.0
245428.5,258985.5,709697.1,303655.4,688283.0,231163.5,681211.9,575952.4,0.0
240436.7,255387.1,709365.9,299458.8,684117.9,227850.4,677610.9,571400.8,0.0
238692.6,254548.3,709390.3,298026.7,683012.9,227176.1,676575.0,569508.7,0.0
243828.1,258398.6,709818.7,302277.9,687174.8,230756.4,680303.2,573915.4,0.0
247686.0,260930.0,709975.6,305456.8,690326.1,233027.3,682935.3,577653.4,0.0
245438.8,258988.1,709697.1,303541.1,688283.8,231162.2,681212.2,575939.1,0.0
240436.3,255379.8,709363.6,299337.5,684114.9,227844.8,677606.9,571381.1,0.0
238683.0,254528.1,709386.8,297899.9,682994.0,227165.8,676567.5,569481.3,0.0
243819.9,258378.1,709816.7,302157.2,687162.7,230750.1,680304.3,573894.2,0.0
247682.2,260918.9,709974.1,305338.0,690314.5,233020.7,682948.4,577634.0,0.0
245429.0,258972.2,709697.0,303422.5,688272.2,231154.3,681221.6,575921.0,0.0
240431.1,255367.5,709363.1,299220.9,684108.3,227840.0,677616.3,571364.4,0.0
238679.4,254517.9,709389.6,297788.2,682994.3,227168.0,676581.6,569469.9,0.0
243825.3,258382.0,709821.4,302050.0,687168.0,230758.0,680322.1,573887.4,0.0
247675.1,260912.9,709973.3,305217.9,690306.5,233017.7,682941.6,577617.0,0.0
245417.3,258960.0,709693.4,303296.6,688255.9,231144.4,681209.3,575896.1,0.0
240417.5,255350.2,709362.6,299101.1,684113.7,227832.8,677608.8,571344.1,0.0
238660.0,254496.3,709387.9,297662.9,683021.5,227154.2,676569.1,569446.9,0.0
243790.6,258345.0,709815.7,301906.8,687150.9,230729.7,680291.8,573847.6,0.0
247653.3,260884.8,709970.6,305080.8,690294.9,232996.2,682928.9,577581.7,0.0
245409.0,258946.2,709695.8,303170.1,688257.9,231135.2,681209.6,575873.1,0.0
240410.4,255340.2,709364.4,298971.8,684098.3,227823.7,677607.1,571321.6,0.0
238659.1,254493.0,709385.9,297533.8,682977.2,227143.2,676564.6,569420.6,0.0
243799.1,258348.6,709816.7,301790.1,687145.5,230729.1,680298.2,573831.3,0.0
247656.3,260881.8,709973.1,304965.3,690291.6,232996.9,682924.3,577565.8,0.0
245404.5,258935.2,709696.8,303047.8,688248.3,231131.4,681199.6,575852.3,0.0
240405.1,255330.3,709364.3,298845.2,684101.0,227815.9,677596.5,571297.6,0.0
238636.0,254462.4,709384.4,297395.4,682996.0,227123.2,676544.4,569388.8,0.0
243773.9,258311.9,709813.8,301657.3,687144.1,230711.5,680282.9,573807.9,0.0
247641.5,260858.3,709972.0,304841.2,690299.1,232986.0,682931.2,577550.5,0.0
245397.0,258919.5,709697.5,302930.3,688262.6,231125.4,681210.2,575839.6,0.0
240402.3,255315.0,709364.4,298731.4,684110.4,227811.1,677607.3,571285.6,0.0
238633.2,254447.8,709385.8,297282.5,682993.4,227119.1,676557.0,569373.4,0.0
243767.2,258295.3,709815.8,301537.5,687148.2,230701.0,680291.8,573783.3,0.0
247624.6,260827.8,709973.1,304714.9,690298.0,232968.8,682932.1,577517.9,0.0
245386.0,258894.5,709699.5,302808.1,688267.4,231113.4,681214.1,575810.8,0.0
240401.0,255301.5,709369.7,298617.9,684120.1,227807.7,677618.0,571265.3,0.0
238631.6,254434.0,709389.3,297164.2,682999.7,227113.0,676561.5,569348.9,0.0
243758.3,258276.7,709818.1,301408.9,687148.0,230689.2,680286.6,573750.0,0.0
247632.8,260826.4,709977.8,304599.3,690305.6,232969.8,682943.1,577499.6,0.0
245382.7,258883.1,709698.3,302684.8,688260.7,231101.3,681214.9,575783.6,0.0
240381.8,255274.9,709363.5,298484.0,684110.9,227784.7,677606.2,571226.4,0.0
238612.4,254410.1,709382.9,297032.4,683002.6,227090.3,676548.8,569310.3,0.0
243738.5,258250.9,709810.5,301275.2,687131.4,230659.9,680271.3,573706.1,0.0
247608.3,260796.0,709969.1,304457.6,690283.3,232933.9,682934.9,577446.5,0.0
245367.8,258863.1,709695.3,302550.8,688249.1,231076.7,681213.4,575738.8,0.0
240375.1,255264.8,709364.8,298359.4,684100.3,227769.7,677613.8,571189.6,0.0
238603.6,254396.8,709384.1,296912.9,682982.5,227080.5,676561.3,569279.4,0.0
243737.8,258245.9,709815.7,301167.5,687134.1,230662.0,680290.9,573688.6,0.0
247594.9,260779.4,709971.8,304344.0,690278.8,232929.2,682930.6,577423.6,0.0
245343.8,258833.6,709694.4,302428.3,688235.1,231063.0,681205.5,575707.8,0.0
240352.2,255236.5,709361.7,298234.2,684087.6,227757.9,677606.2,571157.6,0.0
238595.3,254382.4,709385.4,296793.4,682977.3,227077.9,676562.3,569255.1,0.0
243718.2,258216.8,709811.7,301032.3,687115.6,230646.3,680282.6,573650.8,0.0
