EEG 1,EEG 2,EEG 3,EEG 4,EEG 5,EEG 6,EEG 7,EEG 8,TRIG
198645.1,190826.4,457833.1,585610.3,200055.2,209755.1,215167.5,209979.5,0.0
199624.7,191414.2,457348.5,585232.3,200897.1,210285.5,215864.2,210993.4,0.0
201097.8,192248.8,457389.0,585733.2,202308.6,211123.1,216965.7,212816.4,0.0
201227.9,192293.2,456274.9,584762.4,202386.6,211126.8,216972.8,212982.7,0.0
200043.7,191555.4,454006.6,582207.4,201171.4,210316.3,215948.3,211495.0,0.0
198574.6,190650.7,451465.5,579213.1,199709.8,209339.7,214774.0,209687.6,0.0
199533.0,191222.4,451004.4,578851.6,200524.8,209852.0,215451.0,210670.4,0.0
200999.6,192048.8,451076.5,579373.3,201909.7,210669.0,216528.1,212466.9,0.0
201130.8,192082.6,450003.6,578441.6,201976.7,210662.9,216522.2,212626.5,0.0
199964.5,191363.0,447790.1,575944.4,200771.0,209861.0,215504.0,211153.3,0.0
198467.0,190437.3,445264.9,572958.4,199267.9,208851.2,214296.8,209312.6,0.0
199397.0,190982.1,444814.6,572589.3,200030.8,209320.8,214927.5,210249.1,0.0
200883.9,191827.1,444945.3,573162.5,201421.3,210143.3,216014.1,212057.9,0.0
201042.8,191892.7,443942.2,572295.0,201506.5,210159.4,216033.7,212241.2,0.0
199859.7,191145.1,441751.1,569816.1,200268.9,209332.0,214988.8,210744.0,0.0
198347.3,190200.7,439246.0,566845.4,198733.7,208299.7,213751.2,208877.9,0.0
199252.6,190726.8,438810.1,566483.2,199456.5,208742.2,214347.1,209782.4,0.0
200728.2,191554.0,438960.5,567066.8,200812.3,209539.9,215400.5,211566.6,0.0
200898.7,191625.4,438002.8,566241.1,200893.6,209556.3,215415.9,211760.0,0.0
199771.0,190937.3,435902.7,563855.5,199706.1,208779.9,214419.5,210322.1,0.0
198265.0,190005.8,433443.8,560934.3,198179.9,207761.1,213191.5,208469.8,0.0
199138.9,190503.4,433012.2,560564.7,198864.9,208171.0,213752.3,209335.1,0.0
200628.6,191356.6,433228.7,561219.6,200257.2,209003.4,214846.1,211156.1,0.0
200807.7,191432.6,432322.3,560445.8,200356.0,209028.8,214875.9,211364.7,0.0
199703.0,190758.1,430284.3,558119.0,199198.0,208269.5,213900.7,209949.1,0.0
198195.7,189823.0,427865.1,555233.1,197678.0,207251.2,212675.4,208093.6,0.0
199098.4,190359.1,427515.0,554949.3,198417.4,207711.5,213290.2,209000.8,0.0
200640.3,191265.9,427831.7,555706.5,199881.6,208608.4,214453.5,210883.7,0.0
200825.8,191349.6,426977.1,554990.7,200012.9,208655.9,214507.7,211113.8,0.0
199721.3,190676.6,424987.7,552717.9,198874.8,207908.6,213548.7,209717.0,0.0
198231.3,189766.3,422633.5,549900.8,197390.1,206922.5,212356.3,207890.7,0.0
199096.3,190277.7,422297.2,549629.3,198112.8,207369.6,212957.0,208776.8,0.0
200605.2,191151.1,422620.0,550393.1,199554.4,208238.3,214094.4,210635.6,0.0
200811.5,191252.8,421824.4,549744.5,199713.1,208304.6,214178.4,210898.6,0.0
199709.9,190576.1,419873.5,547517.4,198584.5,207559.5,213229.8,209508.6,0.0
198216.5,189658.9,417554.4,544736.0,197104.7,206572.0,212041.9,207680.3,0.0
199118.1,190217.9,417296.4,544549.3,197884.7,207073.4,212698.2,208615.8,0.0
200627.8,191097.0,417661.1,545359.4,199344.0,207954.0,213851.3,210489.6,0.0
200834.4,191198.5,416905.9,544756.6,199521.9,208031.9,213946.6,210763.8,0.0
199776.1,190574.9,415044.7,542632.3,198465.5,207353.5,213062.1,209438.0,0.0
198295.2,189682.6,412783.2,539910.5,197021.3,206400.9,211905.6,207631.7,0.0
199148.8,190205.3,412520.8,539716.3,197768.3,206876.2,212533.6,208519.5,0.0
200645.9,191072.6,412911.8,540550.3,199223.1,207753.9,213684.4,210375.1,0.0
200896.2,191211.4,412229.8,540020.9,199441.9,207867.3,213818.6,210684.6,0.0
199839.3,190576.9,410397.8,537925.9,198381.3,207178.5,212926.0,209356.8,0.0
198324.8,189658.2,408143.4,535218.0,196916.9,206209.7,211752.9,207538.1,0.0
199094.9,190121.4,407844.4,534985.8,197591.3,206628.2,212325.3,208365.0,0.0
200561.2,190972.3,408238.4,535820.9,199016.8,207488.5,213455.0,210201.5,0.0
200874.5,191155.5,407643.5,535385.8,199302.0,207656.1,213642.9,210580.8,0.0
199925.9,190591.8,405940.8,533432.3,198351.4,207047.4,212838.2,209362.4,0.0
198401.6,189664.0,403720.3,530764.4,196888.3,206080.0,211671.6,207548.3,0.0
199071.9,190047.0,403359.5,530460.2,197461.6,206420.7,212161.8,208274.7,0.0
200503.9,190866.5,403739.5,531272.9,198840.1,207242.2,213249.3,210063.0,0.0
200856.5,191077.9,403206.8,530899.4,199160.4,207435.7,213464.2,210478.9,0.0
199954.4,190563.0,401584.7,529036.6,198270.1,206882.8,212716.6,209325.8,0.0
198400.3,189611.6,399364.8,526371.2,196782.7,205894.4,211521.2,207485.6,0.0
199030.6,189957.5,398994.6,526043.7,197309.9,206195.7,211965.1,208162.2,0.0
200493.4,190806.9,399437.1,526909.9,198715.5,207045.2,213084.0,209981.3,0.0
200878.7,191054.8,398971.4,526612.8,199079.4,207280.7,213347.5,210449.5,0.0
199961.0,190517.2,397355.0,524757.8,198168.8,206699.5,212573.9,209276.9,0.0
198402.9,189564.6,395158.8,522118.9,196679.4,205709.9,211380.7,207435.0,0.0
199043.5,189939.0,394836.5,521846.5,197231.5,206047.3,211860.2,208138.7,0.0
200486.1,190767.1,395286.7,522727.6,198623.0,206883.4,212968.6,209947.0,0.0
200868.1,190995.3,394832.6,522431.0,198968.4,207090.7,213203.9,210390.6,0.0
199985.2,190492.0,393284.3,520644.0,198101.4,206548.7,212472.1,209257.9,0.0
198386.7,189499.4,391077.1,517985.3,196568.9,205519.2,211236.4,207368.9,0.0
198999.0,189840.9,390745.5,517691.2,197083.8,205822.1,211675.3,208023.8,0.0
200448.3,190668.1,391226.4,518599.1,198482.3,206663.9,212784.5,209830.9,0.0
200847.7,190919.9,390820.2,518355.0,198852.8,206895.3,213045.9,210294.9,0.0
199952.1,190402.0,389279.6,516563.9,197961.7,206325.9,212283.5,209127.6,0.0
198378.7,189436.0,387124.5,513953.7,196454.3,205325.2,211071.2,207250.1,0.0
198995.3,189791.7,386828.8,513697.9,196979.2,205646.3,211526.1,207906.5,0.0
200443.7,190627.7,387338.7,514633.4,198376.0,206490.3,212638.3,209712.0,0.0
200839.6,190875.8,386958.6,514416.4,198746.1,206721.6,212895.8,210173.5,0.0
199946.6,190358.6,385447.9,512662.5,197860.5,206161.3,212139.4,209013.5,0.0
198349.9,189363.5,383289.6,510038.6,196316.1,205123.1,210891.8,207098.4,0.0
198941.5,189689.3,382988.8,509761.4,196800.1,205402.8,211307.6,207714.7,0.0
200410.1,190533.1,383533.2,510723.9,198201.9,206247.3,212420.2,209522.9,0.0
200854.2,190833.0,383225.2,510589.5,198626.8,206535.6,212735.2,210043.2,0.0
199959.4,190310.5,381734.6,508857.6,197737.7,205973.8,211978.2,208884.1,0.0
198367.4,189323.3,379604.0,506267.6,196201.6,204948.3,210738.6,206981.7,0.0
198948.6,189641.7,379315.3,506005.0,196681.2,205230.3,211150.8,207592.2,0.0
200405.0,190469.9,379867.8,506974.8,198069.8,206063.1,212251.2,209392.6,0.0
200813.1,190725.3,379540.5,506809.6,198442.6,206294.5,212513.9,209868.0,0.0
199925.1,190209.2,378077.4,505107.3,197560.9,205733.3,211761.3,208722.8,0.0
198333.2,189225.9,375973.0,502541.3,196025.9,204710.3,210523.6,206827.2,0.0
198924.6,189557.8,375716.8,502311.5,196513.0,205003.1,210943.0,207450.8,0.0
200383.6,190397.0,376294.8,503319.1,197914.0,205845.8,212054.5,209268.7,0.0
200780.8,190638.6,375976.6,503162.8,198277.0,206063.1,212302.9,209739.9,0.0
199901.8,190125.9,374544.1,501485.0,197399.1,205505.7,211555.2,208604.3,0.0
198310.9,189148.4,372466.3,498945.1,195868.0,204489.8,210326.8,206715.6,0.0
198869.2,189451.0,372196.7,498691.5,196312.6,204741.9,210708.8,207296.3,0.0
200344.0,190299.9,372812.4,499725.0,197721.8,205590.5,211830.4,209124.1,0.0
200740.0,190544.2,372521.2,499594.9,198092.0,205815.2,212088.5,209600.4,0.0
199879.0,190053.4,371129.6,497956.8,197233.8,205277.0,211358.4,208478.2,0.0
198299.6,189095.0,369086.6,495450.9,195722.3,204282.3,210145.3,206597.1,0.0
198827.7,189366.0,368813.0,495184.9,196141.1,204513.2,210500.3,207141.6,0.0
200312.4,190227.9,369460.9,496252.8,197565.3,205378.8,211637.1,208981.8,0.0
200746.4,190512.8,369225.6,496187.4,197978.1,205643.4,211935.1,209499.4,0.0
199883.7,190023.9,367856.6,494578.5,197131.4,205116.3,211215.2,208388.5,0.0
198280.1,189044.5,365810.7,492066.0,195594.5,204102.4,209982.0,206484.6,0.0
198828.1,189348.4,365579.0,491847.6,196039.0,204367.0,210370.3,207060.7,0.0
200297.6,190188.0,366226.0,492915.8,197443.2,205209.0,211484.5,208882.7,0.0
200717.6,190453.9,366000.3,492855.9,197844.2,205457.7,211767.2,209387.0,0.0
199865.2,189978.7,364666.0,491280.6,197010.0,204939.4,211059.0,208289.0,0.0
198259.5,188995.9,362636.3,488787.8,195468.1,203920.8,209822.8,206379.0,0.0
198793.9,189285.8,362405.7,488569.3,195893.1,204168.0,210193.0,206930.6,0.0
200265.4,190127.6,363073.2,489653.3,197295.0,205006.9,211307.1,208751.3,0.0
200715.7,190422.7,362899.4,489654.5,197737.3,205292.6,211633.6,209302.5,0.0
199889.1,189968.7,361611.1,488140.3,196941.4,204811.1,210962.2,208243.7,0.0
198284.4,188989.3,359606.9,485673.5,195412.5,203806.2,209736.1,206343.4,0.0
198800.7,189266.1,359381.8,485454.3,195828.8,204048.9,210098.5,206883.5,0.0
200275.0,190111.3,360074.2,486567.8,197246.4,204903.2,211226.0,208719.3,0.0
200726.5,190405.4,359920.5,486589.8,197697.3,205190.2,211555.4,209276.1,0.0
199897.4,189951.5,358646.4,485083.3,196900.1,204701.6,210878.7,208212.4,0.0
198265.4,188943.2,356631.4,482597.5,195337.3,203663.7,209621.0,206276.8,0.0
198762.7,189200.9,356402.9,482365.5,195726.7,203882.9,209962.1,206787.1,0.0
200282.7,190096.8,357159.1,483549.3,197197.6,204791.3,211146.8,208677.1,0.0
200742.7,190397.8,357034.1,483599.9,197659.3,205092.0,211489.0,209248.5,0.0
199901.3,189923.9,355767.2,482098.2,196848.5,204589.1,210800.0,208173.2,0.0
198272.0,188918.0,353767.0,479625.0,195285.1,203550.2,209541.3,206232.4,0.0
198760.8,189169.4,353544.2,479395.5,195662.9,203760.9,209869.5,206725.7,0.0
200271.5,190049.8,354307.0,480583.6,197121.1,204656.5,211039.6,208603.4,0.0
200747.0,190361.3,354214.6,480667.8,197600.4,204971.9,211395.4,209189.0,0.0
199933.9,189918.5,352994.8,479214.2,196824.6,204501.5,210735.8,208144.4,0.0
198293.2,188911.1,351008.7,476761.0,195266.9,203471.9,209483.6,206207.6,0.0
198763.7,189153.7,350792.5,476542.5,195640.2,203682.9,209813.0,206695.6,0.0
200274.1,190035.1,351571.0,477746.7,197101.1,204576.8,210983.8,208574.1,0.0
200743.2,190338.1,351480.6,477834.6,197571.6,204876.0,211327.4,209151.9,0.0
199903.1,189854.5,350244.1,476357.5,196759.6,204365.0,210632.6,208071.6,0.0
198303.0,188890.3,348319.0,473965.0,195250.0,203385.9,209430.4,206179.6,0.0
198791.2,189157.4,348136.1,473784.9,195650.1,203629.0,209787.3,206691.5,0.0
200294.5,190025.1,348920.1,474996.4,197106.4,204516.8,210950.9,208565.3,0.0
200760.3,190319.2,348842.3,475097.9,197575.9,204813.6,211290.1,209145.2,0.0
199941.5,189861.4,347646.4,473670.2,196799.5,204334.4,210624.0,208104.3,0.0
198306.8,188864.2,345705.0,471258.2,195259.0,203320.3,209387.0,206181.8,0.0
198766.8,189104.2,345518.3,471063.0,195636.3,203537.7,209726.8,206665.0,0.0
200290.3,189983.0,346345.1,472316.3,197114.4,204446.9,210924.6,208562.2,0.0
200770.8,190293.5,346308.9,472460.1,197605.3,204763.7,211291.6,209161.1,0.0
199957.5,189852.9,345143.9,471068.5,196844.5,204301.3,210645.6,208129.4,0.0
198294.2,188820.3,343182.1,468631.5,195261.1,203248.7,209368.2,206155.6,0.0
198779.8,189087.2,343024.0,468464.3,195649.3,203485.6,209715.3,206644.4,0.0
200296.6,189968.2,343852.0,469717.6,197115.0,204382.2,210891.5,208524.8,0.0
200778.4,190279.2,343821.5,469864.2,197598.7,204689.6,211248.0,209114.7,0.0
199994.3,189857.9,342696.2,468518.5,196868.8,204256.6,210633.3,208115.7,0.0
198332.4,188826.7,340750.3,466096.1,195286.7,203206.2,209359.2,206146.0,0.0
198781.8,189061.4,340570.8,465898.3,195633.1,203405.6,209670.1,206593.7,0.0
200289.9,189923.9,341402.2,467152.1,197085.6,204287.2,210833.3,208465.3,0.0
200779.5,190234.5,341393.8,467325.9,197579.8,204600.5,211198.6,209069.9,0.0
199980.4,189798.8,340262.2,465970.4,196825.4,204143.3,210557.6,208049.3,0.0
198334.0,188787.4,338346.5,463578.3,195260.7,203112.5,209301.1,206096.4,0.0
198790.1,189035.3,338197.2,463417.1,195630.3,203338.4,209639.1,206567.9,0.0
200294.8,189893.8,339037.1,464679.0,197082.1,204216.1,210798.1,208439.2,0.0
200793.7,190213.0,339046.3,464873.1,197584.2,204533.2,211166.2,209053.9,0.0
200007.3,189780.0,337937.8,463541.1,196842.7,204082.4,210532.8,208046.4,0.0
198374.8,188782.5,336050.1,461180.1,195299.6,203069.0,209296.2,206115.0,0.0
198808.0,189005.7,335884.8,460999.5,195641.2,203263.5,209604.5,206558.9,0.0
200356.1,189913.9,336780.8,462333.4,197146.2,204194.3,210819.6,208490.6,0.0
200862.4,190246.7,336816.1,462562.8,197667.6,204531.9,211210.4,209131.8,0.0
200065.8,189811.8,335715.2,461240.6,196919.6,204078.7,210576.1,208121.5,0.0
198400.4,188782.6,333807.8,458859.7,195334.4,203033.5,209306.3,206154.5,0.0
198791.1,188954.8,333599.8,458624.5,195604.5,203168.3,209549.9,206532.9,0.0
200324.0,189836.7,334479.9,459923.9,197062.6,204053.9,210718.5,208424.8,0.0
200827.6,190168.8,334529.5,460165.3,197579.0,204393.8,211109.9,209069.8,0.0
200028.4,189727.7,333434.5,458848.9,196818.4,203935.9,210465.9,208057.5,0.0
198353.2,188690.1,331524.2,456457.7,195213.4,202873.4,209173.8,206069.8,0.0
198771.0,188905.0,331366.1,456271.9,195520.3,203048.1,209455.2,206479.3,0.0
200311.6,189796.5,332271.6,457596.8,196988.5,203947.5,210637.8,208377.6,0.0
200766.8,190069.0,332275.0,457778.4,197434.3,204212.0,210957.9,208947.9,0.0
199973.3,189635.4,331195.3,456469.3,196672.0,203749.9,210311.9,207927.0,0.0
198307.6,188617.3,329310.3,454095.9,195076.5,202703.0,209029.1,205945.3,0.0
198711.8,188818.3,329150.1,453894.0,195364.1,202863.5,209288.3,206330.0,0.0
200259.2,189716.1,330073.7,455238.6,196845.9,203775.0,210477.5,208239.0,0.0
200751.2,190028.5,330126.9,455469.8,197331.2,204082.9,210835.2,208848.2,0.0
199962.6,189595.2,329059.3,454166.3,196564.0,203616.0,210183.6,207821.3,0.0
198274.0,188546.5,327163.4,451774.8,194939.1,202538.3,208875.0,205810.0,0.0
198671.1,188737.2,327003.3,451570.3,195212.9,202683.4,209124.5,206184.0,0.0
200232.8,189653.8,327952.2,452943.2,196707.5,203609.3,210330.6,208113.3,0.0
200722.8,189970.7,328018.1,453193.6,197199.0,203923.7,210696.0,208732.4,0.0
199915.2,189518.0,326942.2,451883.9,196416.9,203443.0,210029.9,207691.7,0.0
198252.7,188498.0,325075.8,449523.8,194817.4,202391.2,208744.3,205704.2,0.0
198656.9,188698.3,324931.2,449330.8,195098.3,202548.5,209000.5,206079.0,0.0
200188.3,189568.8,325852.4,450660.6,196546.1,203423.5,210155.0,207955.5,0.0
200669.7,189870.6,325919.2,450906.6,197023.3,203722.9,210506.8,208562.7,0.0
199864.4,189421.3,324854.3,449603.6,196235.2,203236.2,209835.6,207519.8,0.0
198193.7,188400.3,322992.7,447245.4,194624.7,202178.3,208540.7,205522.0,0.0
198613.4,188622.2,322876.9,447083.2,194920.3,202355.8,208813.5,205913.2,0.0
200180.8,189531.7,323849.6,448475.6,196412.6,203274.7,210014.8,207842.3,0.0
200621.7,189788.1,323882.5,448683.4,196841.5,203523.7,210318.4,208404.1,0.0
199815.8,189337.4,322827.3,447386.6,196050.6,203040.2,209646.3,207362.9,0.0
198153.9,188320.9,320981.8,445036.4,194438.4,201986.2,208353.0,205364.7,0.0
198568.7,188535.6,320866.4,444861.7,194720.5,202149.0,208610.2,205735.6,0.0
200117.3,189424.2,321828.3,446236.7,196190.3,203040.9,209786.6,207640.0,0.0
200590.4,189723.7,321912.3,446499.9,196661.3,203335.9,210134.8,208249.3,0.0
199770.3,189260.1,320853.6,445196.4,195851.0,202832.5,209444.8,207190.9,0.0
198101.1,188236.7,319010.6,442850.8,194234.5,201771.2,208144.2,205187.3,0.0
198517.3,188449.2,318906.5,442690.6,194523.5,201935.9,208404.6,205563.6,0.0
200092.3,189358.3,319901.1,444100.1,196019.0,202850.6,209603.4,207494.6,0.0
200570.1,189653.9,319994.7,444372.4,196487.9,203143.2,209950.6,208103.5,0.0
199723.0,189166.0,318917.5,443050.3,195651.9,202619.3,209235.9,207017.8,0.0
198051.6,188145.2,317078.2,440706.3,194028.9,201556.5,207930.8,205006.0,0.0
198483.6,188378.5,316997.2,440571.7,194331.8,201739.8,208209.0,205396.7,0.0
200048.9,189272.2,317989.3,441974.6,195811.5,202637.5,209390.1,207311.6,0.0
200513.8,189558.6,318081.1,442244.8,196267.8,202920.3,209724.2,207910.4,0.0
199678.1,189082.6,317023.5,440940.7,195437.6,202401.6,209020.3,206835.5,0.0
198007.5,188059.7,315190.7,438597.2,193806.6,201328.4,207709.9,204817.3,0.0
198429.5,188280.3,315108.1,438450.8,194092.8,201492.6,207970.1,205189.6,0.0
200022.6,189202.9,316138.5,439894.7,195604.4,202415.4,209181.6,207136.4,0.0
200513.8,189525.8,316273.8,440214.8,196103.0,202737.7,209561.6,207775.5,0.0
199681.8,189067.7,315240.7,438946.7,195298.8,202249.9,208886.6,206720.7,0.0
198005.5,188043.5,313415.4,436612.5,193675.1,201185.0,207580.7,204698.3,0.0
198452.5,188291.6,313371.8,436505.2,193999.7,201383.3,207873.6,205094.5,0.0
200078.8,189250.5,314454.1,438010.4,195568.0,202356.6,209133.8,207086.0,0.0
200507.9,189507.3,314539.8,438278.7,196009.9,202619.9,209453.8,207660.5,0.0
199660.0,189031.5,313497.8,436993.5,195188.4,202117.3,208762.1,206584.9,0.0
198018.7,188046.0,311721.8,434716.3,193612.8,201103.9,207505.5,204609.7,0.0
198489.1,188313.0,311711.0,434648.0,193970.1,201331.3,207828.6,205033.6,0.0
200130.2,189284.0,312823.2,436192.1,195564.9,202327.0,209115.8,207056.0,0.0
200565.9,189561.7,312938.5,436503.6,196035.5,202622.7,209466.8,207664.8,0.0
199693.0,189068.2,311887.8,435219.6,195203.5,202113.5,208765.6,206581.2,0.0
198015.0,188035.8,310077.9,432898.9,193580.4,201049.7,207459.8,204555.2,0.0
198495.7,188309.4,310082.1,432837.9,193946.2,201279.1,207786.7,204982.2,0.0
200158.6,189297.9,311222.4,434415.2,195572.6,202295.0,209097.5,207033.1,0.0
200589.3,189567.7,311342.2,434735.9,196045.8,202589.9,209450.5,207647.5,0.0
199712.7,189066.5,310291.4,433446.2,195199.8,202063.4,208736.8,206552.8,0.0
198041.3,188043.5,308495.6,431144.5,193587.0,201008.1,207441.0,204539.7,0.0
198536.5,188346.2,308531.7,431132.8,193986.7,201277.9,207802.9,205004.0,0.0
200168.5,189298.3,309649.3,432686.7,195578.5,202258.6,209077.8,207022.5,0.0
200584.7,189550.5,309765.6,433000.3,196034.3,202536.4,209414.7,207622.8,0.0
199696.3,189039.2,308715.9,431715.6,195182.9,202005.6,208695.8,206525.9,0.0
198014.2,188006.3,306916.0,429400.2,193550.7,200933.7,207381.3,204494.8,0.0
198505.0,188300.1,306947.7,429370.3,193927.2,201184.8,207723.5,204937.3,0.0
200157.3,189273.6,308091.8,430951.1,195533.5,202187.9,209016.5,206974.2,0.0
200582.2,189533.0,308215.7,431274.6,195992.0,202468.9,209352.6,207575.1,0.0
199703.2,189031.3,307177.0,430002.1,195144.2,201944.4,208637.4,206482.7,0.0
198029.9,188012.3,305392.3,427707.3,193522.7,200890.8,207334.6,204458.7,0.0
198487.0,188272.7,305397.3,427644.9,193864.8,201112.3,207642.6,204857.4,0.0
200140.3,189240.3,306543.1,429219.6,195463.9,202098.8,208921.5,206881.0,0.0
200566.3,189498.4,306678.7,429557.5,195925.7,202378.0,209264.4,207485.7,0.0
199711.0,189020.2,305676.7,428329.4,195107.1,201882.4,208585.5,206423.6,0.0
198022.9,187987.8,303891.7,426040.6,193476.8,200821.1,207280.8,204393.8,0.0
198499.0,188263.0,303920.7,425999.0,193830.7,201053.5,207602.0,204799.5,0.0
200185.4,189261.3,305111.1,427625.8,195467.8,202081.2,208924.8,206861.2,0.0
200581.3,189486.3,305226.4,427947.1,195899.3,202332.0,209238.9,207439.8,0.0
199685.0,188966.1,304193.2,426685.7,195040.7,201794.6,208514.9,206336.7,0.0
198002.3,187937.3,302418.0,424400.7,193410.6,200731.5,207204.9,204304.0,0.0
198481.5,188227.5,302463.7,424381.2,193781.0,200983.9,207543.9,204727.1,0.0
200145.5,189196.0,303636.2,425984.1,195390.6,201978.7,208834.1,206761.3,0.0
200561.0,189442.3,303774.4,426325.8,195840.2,202241.4,209161.0,207354.3,0.0
199701.3,188969.2,302785.3,425117.8,195032.8,201753.1,208485.1,206303.0,0.0
198025.9,187951.3,301025.2,422849.4,193422.4,200705.0,207191.0,204287.2,0.0
198510.0,188239.5,301077.7,422831.5,193796.0,200957.2,207528.9,204709.0,0.0
200196.3,189229.7,302276.2,424461.3,195433.7,201973.6,208840.2,206768.2,0.0
200605.5,189468.5,302420.6,424810.9,195888.4,202239.4,209174.6,207368.6,0.0
199724.7,188967.7,301422.1,423586.0,195061.4,201731.5,208484.4,206295.0,0.0
198064.1,187975.1,299692.5,421357.8,193482.9,200717.2,207226.3,204308.8,0.0
198535.2,188260.7,299746.9,421344.0,193860.5,200970.4,207563.5,204725.5,0.0
200243.0,189280.3,300983.7,423025.2,195542.3,202032.0,208920.3,206825.0,0.0
200629.0,189496.5,301107.8,423354.4,195969.8,202271.1,209226.0,207396.3,0.0
199742.9,188993.8,300105.3,422123.1,195133.0,201753.4,208524.7,206310.0,0.0
198094.7,188009.9,298393.4,419915.0,193570.0,200755.0,207282.1,204337.0,0.0
198558.6,188280.3,298445.1,419896.0,193934.0,201001.3,207610.3,204737.6,0.0
200243.7,189265.5,299655.4,421547.3,195571.1,202017.6,208920.1,206792.9,0.0
200643.6,189496.2,299806.6,421914.9,196017.6,202280.5,209250.4,207387.5,0.0
199717.1,188950.1,298768.4,420648.9,195128.9,201715.2,208503.3,206253.5,0.0
198025.1,187912.2,297008.0,418375.9,193490.8,200642.7,207189.3,204205.4,0.0
198506.5,188197.8,297072.7,418360.7,193847.8,200885.7,207516.4,204600.6,0.0
200233.0,189223.1,298327.8,420059.8,195518.7,201942.3,208866.7,206696.1,0.0
200620.9,189443.7,298472.7,420414.3,195942.6,202185.7,209175.5,207273.9,0.0
199711.2,188921.2,297462.2,419173.7,195073.9,201641.4,208445.5,206164.7,0.0
198011.5,187880.4,295698.3,416891.7,193427.8,200559.4,207115.7,204107.3,0.0
198498.1,188167.5,295768.5,416881.6,193788.8,200800.7,207439.1,204501.4,0.0
200228.6,189187.0,297030.7,418585.8,195459.8,201849.7,208781.5,206596.4,0.0
200632.5,189429.4,297206.0,418981.4,195920.0,202127.5,209124.2,207209.5,0.0
199688.2,188869.8,296168.7,417716.2,195020.0,201555.3,208367.1,206069.8,0.0
197996.1,187837.1,294424.5,415452.4,193390.3,200490.5,207054.0,204028.8,0.0
198504.9,188151.9,294525.7,415468.0,193774.8,200757.3,207398.4,204446.5,0.0
200227.5,189162.0,295780.0,417160.7,195436.4,201790.9,208723.7,206526.9,0.0
200618.4,189394.3,295948.1,417546.1,195885.6,202057.5,209054.9,207129.4,0.0
199679.8,188846.0,294926.5,416297.0,195001.2,201498.1,208313.5,206005.7,0.0
198000.3,187831.8,293203.8,414062.2,193395.2,200455.7,207027.5,203987.2,0.0
198489.7,188124.7,293293.3,414067.9,193769.1,200710.2,207361.3,204389.2,0.0
200214.1,189124.9,294551.3,415758.1,195420.2,201729.2,208675.2,206460.5,0.0
200609.5,189364.1,294733.5,416161.4,195872.7,202001.8,209012.3,207072.3,0.0
199654.4,188810.2,293703.4,414913.0,194976.1,201438.5,208264.5,205941.2,0.0
197959.3,187780.9,291965.8,412658.7,193347.2,200373.5,206954.6,203900.1,0.0
198482.0,188097.5,292082.6,412685.6,193736.8,200643.3,207301.0,204314.5,0.0
200264.4,189158.4,293408.7,414460.6,195457.0,201737.6,208686.0,206459.8,0.0
200629.1,189361.4,293561.2,414836.9,195872.9,201976.0,208987.6,207033.8,0.0
199637.8,188768.1,292497.1,413538.1,194923.6,201363.1,208192.1,205849.1,0.0
197948.1,187747.2,290771.6,411292.9,193295.6,200303.3,206890.3,203814.5,0.0
198473.5,188074.0,290898.3,411335.0,193692.0,200578.7,207246.1,204236.3,0.0
200267.0,189136.6,292229.1,413111.9,195407.4,201660.8,208624.0,206377.5,0.0
200603.3,189311.8,292354.8,413456.4,195785.2,201861.4,208890.0,206921.1,0.0
199583.2,188702.0,291269.4,412137.9,194812.1,201232.2,208071.3,205716.4,0.0
197879.4,187672.0,289529.6,409878.5,193166.1,200159.8,206749.7,203663.6,0.0
198419.2,188008.8,289669.5,409928.5,193565.8,200442.2,207111.2,204094.5,0.0
200222.8,189081.4,291019.6,411725.3,195292.9,201534.9,208502.5,206255.5,0.0
200575.8,189280.7,291175.8,412107.3,195697.5,201765.0,208799.1,206831.7,0.0
199545.8,188664.4,290090.8,410789.8,194715.3,201132.3,207977.8,205623.4,0.0
197824.2,187614.2,288340.2,408516.6,193049.6,200040.7,206639.0,203555.4,0.0
198354.6,187933.8,288467.1,408544.1,193426.7,200299.3,206972.7,203959.0,0.0
200187.3,189032.2,289844.3,410367.1,195177.4,201414.0,208381.8,206137.3,0.0
200543.0,189232.0,290004.4,410756.1,195583.0,201645.3,208677.6,206713.7,0.0
199553.9,188655.7,288959.7,409483.2,194641.1,201048.9,207892.3,205543.2,0.0
197842.3,187627.4,287231.2,407237.1,192996.1,199981.2,206576.7,203490.1,0.0
198338.1,187926.2,287342.1,407250.7,193350.6,200227.7,206898.1,203867.1,0.0
200149.5,188992.9,288697.9,409042.4,195065.7,201307.2,208271.7,206003.0,0.0
200526.4,189202.5,288878.3,409446.1,195486.8,201549.3,208576.1,206586.1,0.0
199507.6,188586.0,287802.0,408133.2,194502.0,200906.7,207745.1,205369.6,0.0
197814.2,187577.7,286099.1,405913.2,192878.9,199862.2,206452.1,203339.1,0.0
198350.5,187932.5,286255.8,405984.2,193285.3,200167.6,206829.1,203766.2,0.0
200168.5,188998.4,287617.2,407784.1,195000.9,201247.1,208201.7,205905.4,0.0
200562.1,189228.7,287822.2,408217.2,195442.4,201510.2,208530.4,206515.9,0.0
199548.6,188626.2,286770.8,406940.6,194485.0,200895.0,207731.5,205332.3,0.0
197806.2,187568.9,285019.3,404665.9,192804.7,199792.4,206381.8,203245.0,0.0
198310.6,187883.9,285145.5,404687.4,193166.2,200052.3,206709.7,203624.2,0.0
200134.3,188957.5,286518.9,406497.9,194888.1,201137.4,208085.9,205767.6,0.0
200533.0,189196.3,286736.1,406949.1,195340.2,201407.4,208421.2,206386.7,0.0
199533.0,188614.7,285708.3,405707.7,194413.3,200817.8,207650.0,205232.3,0.0
197787.9,187556.9,283962.3,403444.6,192742.3,199723.9,206310.2,203156.9,0.0
198277.8,187852.3,284072.7,403443.3,193079.4,199957.7,206612.7,203511.1,0.0
200139.0,188958.2,285484.5,405294.9,194838.5,201077.6,208025.0,205692.7,0.0
200540.4,189192.3,285712.8,405767.4,195302.9,201359.6,208374.1,206328.7,0.0
199532.7,188592.0,284679.3,404518.9,194367.9,200760.1,207595.5,205167.4,0.0
197814.9,187563.4,282967.0,402293.1,192736.1,199701.8,206294.1,203128.5,0.0
198299.4,187863.1,283084.2,402306.1,193085.1,199948.5,206608.3,203492.3,0.0
200159.1,188967.6,284503.8,404170.3,194847.4,201073.5,208023.8,205681.5,0.0
200532.8,189168.1,284705.3,404606.8,195276.3,201311.1,208333.4,206281.0,0.0
199522.3,188565.6,283670.8,403352.3,194335.8,200700.3,207541.0,205110.4,0.0
197791.5,187523.0,281951.3,401116.8,192692.9,199627.6,206223.3,203051.7,0.0
198313.7,187869.9,282113.8,401181.1,193090.2,199927.1,206590.2,203455.9,0.0
200202.3,188997.7,283560.4,403074.9,194881.7,201074.0,208030.6,205665.9,0.0
200588.1,189209.0,283786.4,403543.4,195339.1,201334.0,208363.9,206292.0,0.0
199578.7,188617.8,282768.8,402316.9,194419.1,200746.4,207594.3,205142.6,0.0
197820.8,187558.1,281037.3,400071.2,192761.6,199664.8,206267.6,203073.4,0.0
198303.4,187864.8,281162.7,400088.6,193106.5,199914.6,206586.9,203429.4,0.0
200170.4,188957.3,282579.9,401944.9,194853.5,201017.3,207983.0,205601.9,0.0
200584.9,189192.0,282833.5,402439.4,195329.0,201295.0,208332.0,206251.6,0.0
199596.1,188623.6,281846.2,401246.8,194437.2,200735.5,207590.0,205135.7,0.0
197844.9,187575.0,280129.9,399024.3,192798.2,199673.2,206280.8,203088.0,0.0
198319.5,187875.6,280248.3,399039.7,193137.8,199924.6,206595.2,203440.1,0.0
200189.6,188969.3,281673.8,400910.8,194891.5,201033.7,207998.7,205623.5,0.0
200590.2,189186.0,281911.9,401390.7,195350.3,201289.4,208325.5,206256.4,0.0
199573.3,188587.8,280892.9,400162.6,194419.9,200686.7,207541.1,205102.3,0.0
197806.1,187524.0,279162.9,397923.0,192760.2,199600.2,206210.8,203034.0,0.0
198272.5,187820.2,279280.8,397932.7,193089.2,199842.8,206517.4,203375.6,0.0
200177.9,188947.5,280745.0,399843.8,194872.5,200983.8,207951.1,205593.0,0.0
200587.5,189170.3,280995.7,400336.7,195334.3,201244.5,208283.9,206233.8,0.0
199574.4,188576.0,279981.8,399112.9,194405.8,200643.9,207502.7,205079.0,0.0
197807.0,187520.7,278255.9,396877.7,192748.8,199562.0,206178.8,203012.7,0.0
198257.1,187794.7,278351.1,396855.2,193047.8,199774.3,206452.5,203316.1,0.0
200171.8,188925.5,279818.0,398766.0,194828.5,200911.0,207880.6,205528.1,0.0
200579.6,189147.4,280075.8,399274.2,195297.4,201178.1,208223.9,206179.0,0.0
199578.2,188569.0,279087.4,398080.0,194387.9,200598.5,207470.1,205048.5,0.0
197809.0,187518.5,277368.9,395851.9,192735.0,199524.4,206150.5,202981.9,0.0
198244.2,187785.7,277454.3,395819.6,193021.7,199730.1,206415.4,203273.7,0.0
200147.8,188897.4,278904.5,397709.3,194780.2,200843.2,207818.8,205465.0,0.0
200571.6,189130.3,279173.6,398224.2,195252.4,201111.4,208161.5,206122.5,0.0
199579.3,188557.0,278193.5,397039.3,194353.8,200540.5,207413.3,205004.6,0.0
197819.0,187515.6,276491.8,394830.4,192716.6,199484.5,206113.3,202961.1,0.0
198225.9,187754.0,276558.0,394770.4,192971.0,199664.1,206352.9,203223.6,0.0
200155.2,188894.3,278040.3,396695.9,194757.2,200807.7,207788.5,205445.8,0.0
200574.5,189119.1,278307.3,397211.4,195227.0,201069.2,208128.0,206101.0,0.0
199590.2,188556.7,277343.4,396041.4,194342.3,200506.9,207388.8,204990.7,0.0
197824.4,187515.1,275644.6,393834.0,192709.0,199452.3,206088.5,202941.3,0.0
198256.9,187787.2,275743.4,393812.1,193003.3,199674.3,206368.9,203237.5,0.0
200157.0,188884.6,277194.6,395699.0,194750.5,200780.5,207766.0,205420.4,0.0
200577.0,189102.8,277459.2,396206.5,195210.8,201033.0,208096.8,206063.0,0.0
199605.3,188558.0,276516.0,395065.1,194350.5,200494.4,207384.6,204978.5,0.0
197838.8,187518.0,274821.9,392858.8,192716.6,199437.7,206084.7,202927.6,0.0
198250.9,187773.5,274904.2,392813.9,192988.0,199643.2,206344.1,203199.0,0.0
200137.4,188859.1,276345.2,394689.4,194719.4,200732.4,207721.8,205367.3,0.0
200584.3,189109.6,276651.9,395249.1,195225.3,201027.9,208097.8,206063.1,0.0
199600.5,188550.2,275700.3,394097.2,194349.4,200475.3,207371.7,204967.8,0.0
197803.9,187479.3,273976.2,391856.3,192680.2,199386.3,206037.3,202883.9,0.0
198195.5,187718.2,274041.8,391788.4,192928.3,199571.8,206277.0,203131.6,0.0
200112.3,188834.2,275513.7,393699.0,194691.0,200693.1,207691.9,205331.7,0.0
200574.9,189093.2,275832.0,394267.3,195201.9,200991.3,208072.5,206033.7,0.0
199598.6,188533.2,274886.6,393116.2,194327.1,200433.6,207340.8,204938.1,0.0
197813.5,187479.1,273178.8,390897.3,192676.6,199363.3,206026.0,202870.1,0.0
198191.2,187705.8,273234.1,390811.3,192909.3,199534.3,206254.1,203096.2,0.0
200097.7,188806.4,274695.3,392699.8,194653.2,200632.7,207646.2,205273.4,0.0
200564.5,189068.8,275021.3,393277.6,195169.7,200933.9,208029.3,205981.1,0.0
199587.0,188505.1,274076.4,392135.8,194294.6,200377.5,207299.8,204887.9,0.0
197842.8,187496.1,272422.4,389977.9,192695.8,199364.0,206039.5,202873.2,0.0
198202.4,187715.9,272464.1,389878.9,192911.2,199527.1,206255.1,203079.6,0.0
200114.5,188822.5,273933.4,391774.4,194657.5,200632.0,207651.7,205260.5,0.0
200588.9,189090.3,274269.3,392365.6,195182.5,200941.1,208043.0,205978.4,0.0
199613.4,188526.1,273329.1,391222.6,194306.0,200379.0,207309.0,204881.8,0.0
197824.5,187472.4,271628.7,389009.4,192655.1,199309.9,205993.2,202811.2,0.0
198149.8,187662.5,271645.2,388885.6,192843.5,199450.7,206181.7,202989.0,0.0
200080.4,188787.7,273132.0,390802.6,194606.0,200570.7,207594.2,205187.1,0.0
200563.2,189058.1,273474.1,391400.6,195133.7,200875.0,207986.0,205911.3,0.0
199611.9,188522.5,272566.7,390302.4,194296.7,200349.3,207291.8,204859.1,0.0
197806.6,187453.6,270857.0,388085.8,192636.7,199272.3,205969.5,202783.9,0.0
198127.7,187642.1,270870.4,387951.5,192813.5,199403.6,206151.2,202952.3,0.0
200042.0,188747.0,272345.0,389852.3,194560.5,200509.3,207547.0,205134.8,0.0
200529.7,189016.7,272689.9,390452.8,195091.0,200814.3,207933.2,205858.9,0.0
199595.7,188494.0,271796.3,389363.7,194257.7,200292.9,207242.4,204814.2,0.0
197812.9,187449.5,270112.4,387170.8,192618.4,199240.1,205944.8,202761.9,0.0
198135.8,187648.5,270135.6,387050.2,192808.5,199393.1,206143.3,202940.3,0.0
200054.3,188756.9,271614.8,388954.7,194554.2,200498.6,207541.5,205125.0,0.0
200540.8,189024.2,271967.5,389563.0,195085.0,200803.4,207931.9,205859.2,0.0
199597.3,188489.0,271072.0,388477.0,194249.3,200274.8,207233.9,204816.2,0.0
197797.4,187425.6,269372.3,386264.0,192591.9,199196.8,205908.7,202741.6,0.0
198094.2,187601.2,269369.8,386106.0,192747.1,199314.8,206070.4,202883.0,0.0
200017.1,188716.6,270853.4,388015.2,194496.2,200422.9,207470.5,205071.5,0.0
200518.2,188992.1,271216.8,388636.0,195038.0,200732.9,207870.2,205815.7,0.0
199581.8,188464.5,270331.9,387567.3,194217.6,200215.8,207187.6,204787.0,0.0
197789.3,187414.8,268648.2,385375.8,192572.9,199156.4,205883.2,202727.2,0.0
198094.0,187602.8,268661.2,385233.6,192743.4,199294.3,206065.8,202877.8,0.0
200005.1,188697.2,270127.6,387120.1,194473.2,200381.4,207441.7,205038.9,0.0
200528.5,188993.0,270514.9,387766.4,195037.7,200712.5,207858.7,205803.8,0.0
199608.1,188478.7,269648.2,386717.5,194231.6,200209.2,207188.9,204789.1,0.0
197797.6,187407.6,267947.4,384509.3,192563.5,199124.6,205861.5,202708.7,0.0
198046.9,187549.3,267910.2,384315.7,192678.0,199212.9,205993.9,202804.4,0.0
199996.7,188686.5,269420.3,386247.0,194448.6,200343.9,207414.5,205007.3,0.0
200523.0,188978.3,269807.6,386895.1,195011.5,200668.4,207826.8,205771.6,0.0
199599.1,188451.1,268935.0,385836.3,194194.3,200148.3,207139.8,204747.5,0.0
197804.3,187397.6,267253.1,383647.5,192545.4,199083.3,205827.5,202684.6,0.0
198088.2,187586.4,267258.1,383503.6,192705.2,199223.9,206007.0,202828.1,0.0
200001.7,188686.6,268735.8,385404.7,194437.2,200317.8,207396.5,205001.4,0.0
200519.2,188965.8,269118.2,386046.9,194987.3,200628.2,207801.3,205760.4,0.0
199617.7,188458.8,268269.1,385013.4,194192.0,200127.4,207137.5,204766.1,0.0
197831.2,187413.9,266602.2,382842.4,192560.5,199079.7,205843.8,202723.3,0.0
198065.2,187558.6,266563.7,382647.4,192673.8,199181.7,205982.9,202818.2,0.0
199969.1,188650.3,268030.4,384528.6,194390.1,200262.3,207352.9,204975.6,0.0
200521.9,188961.8,268449.5,385209.6,194974.5,200607.4,207791.4,205773.2,0.0
199633.1,188458.8,267617.8,384196.5,194192.1,200118.9,207140.9,204791.7,0.0
197803.0,187362.7,265905.1,381968.3,192501.7,199009.9,205786.0,202684.7,0.0
198033.4,187511.2,265865.7,381767.4,192605.9,199104.0,205919.8,202766.5,0.0
199935.6,188604.8,267334.3,383657.1,194325.3,200188.0,207295.3,204925.4,0.0
200481.7,188910.5,267749.7,384340.8,194911.3,200529.5,207729.8,205722.0,0.0
199610.4,188431.6,266935.9,383354.3,194155.1,200061.4,207097.7,204761.6,0.0
197812.2,187376.1,265261.3,381176.1,192508.1,198999.6,205788.1,202698.8,0.0
198017.2,187492.5,265194.4,380935.3,192573.8,199057.0,205881.4,202738.3,0.0
199956.6,188622.3,266706.9,382871.4,194332.0,200182.8,207300.6,204940.3,0.0
200516.1,188935.2,267139.0,383572.8,194932.2,200537.5,207749.2,205752.0,0.0
199621.5,188424.2,266299.9,382557.2,194145.6,200034.4,207082.9,204756.0,0.0
197797.6,187343.2,264599.8,380351.3,192470.7,198942.0,205740.0,202658.1,0.0
197985.3,187450.2,264519.8,380096.3,192526.8,198995.9,205821.7,202682.4,0.0
199921.2,188575.0,266023.2,382018.9,194278.0,200114.1,207230.3,204874.0,0.0
200471.2,188878.9,266446.7,382718.9,194867.1,200457.2,207671.2,205682.5,0.0
199601.6,188389.5,265633.4,381728.1,194096.3,199969.2,207024.7,204712.4,0.0
197791.5,187316.9,263949.9,379533.0,192431.7,198886.2,205691.4,202627.3,0.0
197993.5,187449.6,263887.7,379302.1,192504.1,198962.0,205795.5,202665.3,0.0
199912.8,188564.6,265381.8,381220.1,194241.0,200069.4,207194.6,204843.8,0.0
200489.9,188894.9,265834.9,381950.8,194860.6,200441.0,207663.1,205683.4,0.0
199627.8,188406.9,265035.7,380979.2,194109.3,199971.5,207030.5,204732.5,0.0
197790.0,187303.5,263327.3,378759.6,192420.3,198862.9,205671.5,202621.6,0.0
197968.3,187417.2,263248.3,378502.6,192470.9,198922.0,205758.4,202634.4,0.0
199920.2,188561.1,264774.8,380447.4,194236.7,200057.8,207185.0,204837.6,0.0
200517.2,188902.8,265244.9,381190.4,194865.9,200433.0,207659.9,205685.6,0.0
199632.0,188393.9,264419.9,380190.1,194079.8,199925.0,206992.3,204701.4,0.0
197804.3,187308.2,262722.1,377985.5,192398.5,198826.7,205644.0,202599.4,0.0
197949.4,187390.0,262613.6,377697.2,192415.7,198856.6,205699.9,202577.0,0.0
199885.8,188517.0,264128.2,379630.4,194169.2,199977.0,207112.7,204768.5,0.0
200492.8,188873.6,264618.2,380399.9,194822.6,200373.5,207612.2,205641.8,0.0
199642.0,188403.1,263834.3,379446.4,194080.7,199912.2,206991.6,204704.3,0.0
197826.4,187330.3,262153.4,377259.2,192412.6,198828.4,205658.3,202615.6,0.0
197965.0,187405.8,262041.8,376963.4,192424.0,198851.2,205707.9,202582.2,0.0
199878.6,188505.8,263534.1,378871.7,194153.4,199944.5,207093.8,204749.0,0.0
200459.1,188831.4,263996.8,379610.5,194774.5,200308.7,207559.7,205592.3,0.0
199586.2,188334.6,263190.1,378629.1,194004.4,199819.1,206913.2,204627.6,0.0
197791.8,187280.6,261528.8,376463.1,192355.5,198754.9,205599.3,202560.1,0.0
197940.4,187366.3,261425.8,376176.8,192372.9,198787.2,205654.9,202534.6,0.0
199849.5,188458.1,262907.8,378075.1,194090.4,199867.2,207026.3,204688.4,0.0
200469.6,188824.3,263410.7,378861.6,194751.9,200272.4,207532.1,205572.7,0.0
199623.3,188362.3,262639.2,377931.9,194017.9,199824.7,206925.0,204647.7,0.0
197793.9,187279.1,260952.6,375741.6,192338.8,198735.4,205583.8,202550.3,0.0
197931.3,187358.2,260845.1,375444.9,192351.4,198760.6,205632.2,202513.2,0.0
199886.9,188496.2,262384.1,377399.8,194127.1,199894.3,207057.9,204721.5,0.0
200486.7,188842.1,262871.3,378169.3,194769.5,200280.4,207546.3,205589.4,0.0
199584.8,188318.9,262041.2,377166.3,193966.8,199764.3,206872.8,204595.0,0.0
197767.2,187239.9,260360.5,374977.7,192288.4,198675.1,205534.0,202498.8,0.0
197909.4,187323.7,260257.7,374688.5,192305.3,198705.9,205587.0,202466.6,0.0
199857.9,188450.8,261789.5,376640.3,194072.1,199825.6,207005.6,204668.9,0.0
200445.2,188782.1,262266.5,377406.4,194703.6,200198.1,207484.6,205528.4,0.0
199536.7,188252.5,261425.8,376392.6,193887.7,199672.9,206796.8,204521.1,0.0
197725.5,187178.3,259748.1,374201.1,192211.0,198583.5,205453.5,202420.6,0.0
197926.3,187318.4,259704.0,373970.5,192290.5,198670.5,205563.5,202441.6,0.0
199944.8,188515.2,261308.6,376000.3,194134.1,199861.5,207053.9,204720.7,0.0
200518.0,188841.9,261784.4,376769.1,194762.6,200234.8,207535.2,205584.7,0.0
199571.4,188290.8,260922.6,375737.1,193916.5,199691.2,206834.3,204560.4,0.0
197752.2,187210.1,259237.4,373534.4,192220.3,198588.5,205481.5,202448.5,0.0
197959.0,187352.4,259199.2,373304.9,192301.3,198675.8,205591.9,202471.3,0.0
199938.0,188499.3,260760.9,375291.5,194105.4,199819.8,207032.2,204704.3,0.0
200491.1,188803.6,261213.9,376039.2,194714.2,200170.4,207486.6,205545.2,0.0
199537.3,188249.6,260345.8,375004.5,193865.3,199628.4,206782.3,204517.4,0.0
197731.9,187184.2,258676.2,372818.9,192185.5,198541.7,205441.1,202420.8,0.0
197943.3,187325.8,258645.2,372595.5,192275.1,198628.6,205553.2,202447.3,0.0
199968.0,188515.9,260256.8,374632.5,194129.2,199816.4,207039.4,204729.1,0.0
200500.3,188799.5,260693.1,375360.9,194717.3,200148.3,207474.4,205552.7,0.0
199502.7,188201.0,259774.9,374266.4,193808.3,199550.8,206711.9,204465.5,0.0
197717.5,187158.1,258125.6,372102.2,192146.6,198486.3,205392.3,202386.6,0.0
197954.9,187332.9,258127.8,371917.2,192271.3,198610.0,205539.3,202446.5,0.0
199998.4,188544.2,259767.7,373993.8,194155.8,199825.1,207057.1,204764.3,0.0
200518.7,188815.6,260199.4,374724.0,194731.2,200148.3,207489.4,205587.0,0.0
199507.2,188211.0,259277.2,373628.2,193811.7,199549.4,206728.3,204495.4,0.0
197700.6,187147.0,257605.8,371440.8,192125.7,198461.9,205385.4,202392.7,0.0
197948.3,187321.2,257610.8,371247.4,192247.5,198579.1,205525.4,202444.4,0.0
199997.7,188529.7,259253.0,373318.5,194132.4,199787.4,207035.5,204757.9,0.0
200503.6,188794.8,259676.1,374041.7,194703.9,200104.3,207457.6,205571.1,0.0
199470.3,188178.5,258734.6,372927.5,193765.6,199488.9,206675.7,204458.7,0.0
197671.8,187119.3,257065.0,370736.0,192077.6,198402.9,205332.3,202352.8,0.0
197943.3,187320.9,257091.5,370566.6,192224.6,198548.4,205495.9,202424.8,0.0
199982.8,188522.3,258728.0,372637.8,194107.3,199756.6,207002.6,204732.3,0.0
200471.9,188765.4,259138.7,373345.9,194660.0,200055.1,207408.4,205528.1,0.0
199450.7,188149.7,258204.6,372233.1,193720.2,199438.5,206627.0,204418.3,0.0
197672.5,187107.9,256563.0,370071.9,192059.8,198377.6,205305.5,202336.7,0.0
197940.8,187313.1,256587.8,369894.0,192200.5,198519.4,205462.3,202397.1,0.0
199979.6,188515.0,258224.2,371962.7,194079.0,199723.9,206967.4,204700.4,0.0
200493.7,188784.1,258658.4,372701.3,194657.0,200045.1,207398.8,205520.2,0.0
199480.2,188180.9,257740.5,371617.0,193739.9,199450.6,206639.3,204431.8,0.0
197676.3,187115.9,256073.8,369431.6,192049.1,198363.8,205292.6,202323.0,0.0
197894.0,187271.6,256058.3,369211.6,192142.9,198464.4,205410.2,202336.7,0.0
199939.4,188483.4,257703.6,371286.9,194027.5,199675.5,206922.1,204643.1,0.0
200489.8,188779.8,258167.4,372050.7,194631.4,200018.9,207374.9,205490.0,0.0
199489.2,188174.2,257256.8,370970.0,193719.9,199420.0,206613.9,204406.4,0.0
197694.0,187118.0,255602.3,368801.2,192044.2,198344.4,205278.1,202311.4,0.0
197858.5,187233.2,255540.0,368527.2,192082.9,198404.8,205353.6,202273.0,0.0
199886.9,188434.3,257168.6,370577.0,193942.0,199604.1,206852.3,204557.7,0.0
200451.0,188735.0,257651.2,371360.5,194564.9,199960.6,207323.3,205426.8,0.0
199525.8,188192.6,256817.0,370361.1,193729.2,199423.1,206632.1,204422.3,0.0
197727.4,187126.7,255158.0,368188.2,192045.0,198331.9,205286.8,202318.4,0.0
197866.5,187234.7,255081.2,367902.9,192073.2,198388.6,205353.2,202265.8,0.0
199856.3,188399.6,256673.7,369917.9,193898.6,199556.9,206818.6,204515.9,0.0
200445.1,188716.2,257166.3,370715.7,194536.5,199919.9,207296.3,205397.3,0.0
199521.0,188165.4,256327.0,369717.8,193699.3,199369.9,206593.3,204389.5,0.0
197720.2,187097.0,254676.1,367558.4,192024.9,198287.3,205254.1,202299.7,0.0
197841.6,187203.0,254584.4,367255.8,192036.0,198338.4,205310.7,202229.9,0.0
199839.5,188389.4,256189.3,369284.6,193873.2,199525.0,206793.2,204492.7,0.0
200443.8,188717.6,256702.1,370108.3,194530.3,199905.2,207290.0,205399.9,0.0
199565.9,188201.3,255905.5,369161.8,193740.7,199397.2,206626.7,204442.3,0.0
197750.9,187120.9,254236.6,366982.2,192046.5,198296.7,205265.7,202326.5,0.0
197805.3,187163.6,254084.4,366612.3,191992.4,198291.5,205264.7,202186.6,0.0
199780.4,188322.5,255664.3,368604.3,193796.2,199448.0,206715.2,204413.2,0.0
200418.7,188679.2,256203.4,369448.1,194473.1,199842.9,207226.3,205338.6,0.0
199582.0,188203.8,255454.0,368555.6,193733.0,199378.8,206610.6,204431.0,0.0
197783.7,187141.2,253808.8,366405.1,192060.3,198296.9,205270.9,202338.6,0.0
197833.4,187192.8,253660.9,366034.3,192001.6,198293.4,205268.1,202193.4,0.0
199790.5,188342.9,255224.6,368014.3,193787.7,199440.0,206709.7,204407.4,0.0
200435.9,188702.2,255771.8,368874.8,194476.4,199843.6,207234.6,205350.3,0.0
199611.7,188231.1,255034.2,367994.5,193746.1,199381.4,206625.2,204456.2,0.0
197799.4,187153.0,253383.2,365840.1,192065.2,198291.6,205279.6,202360.5,0.0
197786.3,187146.5,253171.9,365402.2,191939.5,198232.7,205220.9,202149.4,0.0
199760.8,188308.6,254746.7,367384.8,193731.0,199387.1,206666.8,204366.6,0.0
200418.8,188674.6,255306.0,368255.6,194427.9,199796.4,207194.9,205321.0,0.0
199619.6,188222.3,254589.2,367398.2,193717.3,199350.4,206601.2,204449.4,0.0
197855.2,187202.2,252990.6,365308.7,192096.4,198325.6,205319.5,202416.3,0.0
197817.6,187178.7,252763.7,364853.5,191954.8,198256.7,205247.0,202186.0,0.0
199748.9,188298.6,254300.5,366792.3,193707.2,199371.2,206656.0,204362.1,0.0
200417.5,188672.8,254866.0,367671.5,194415.1,199784.0,207194.4,205325.0,0.0
199618.0,188215.1,254149.2,366814.5,193704.1,199332.8,206596.2,204453.9,0.0
197829.0,187164.8,252524.2,364693.7,192051.7,198273.5,205280.0,202387.8,0.0
197777.2,187132.5,252284.6,364220.5,191893.2,198188.2,205192.2,202137.2,0.0
199721.3,188263.6,253832.6,366170.8,193654.5,199311.9,206609.3,204320.6,0.0
200410.9,188648.4,254422.6,367073.6,194383.4,199743.0,207165.6,205305.5,0.0
199628.2,188210.2,253727.2,366240.3,193695.0,199312.5,206589.9,204454.0,0.0
197835.2,187158.5,252101.8,364114.3,192037.5,198249.6,205268.4,202379.1,0.0
197769.2,187120.5,251853.9,363628.8,191868.5,198163.9,205172.6,202117.8,0.0
199703.4,188248.7,253395.1,365569.8,193623.0,199286.3,206584.4,204298.0,0.0
200395.6,188635.1,253985.6,366474.0,194351.6,199716.7,207141.3,205285.0,0.0
199626.0,188196.7,253299.9,365650.9,193669.7,199287.5,206568.8,204443.8,0.0
197825.6,187128.0,251665.1,363511.3,191998.6,198205.5,205229.7,202356.9,0.0
197752.5,187087.3,251410.7,363011.9,191818.9,198109.6,205123.7,202077.1,0.0
199695.1,188230.7,252965.3,364973.3,193590.8,199247.7,206555.3,204270.6,0.0
200373.8,188601.3,253543.1,365866.7,194306.8,199658.8,207094.8,205244.2,0.0
199598.2,188157.4,252853.1,365043.6,193621.0,199226.7,206517.7,204401.0,0.0
197813.0,187109.5,251236.8,362932.0,191972.3,198169.6,205202.9,202338.5,0.0
197771.6,187108.6,251023.0,362477.7,191834.5,198123.3,205147.8,202105.4,0.0
199718.6,188250.3,252583.0,364433.9,193603.6,199262.0,206578.8,204299.1,0.0
200420.1,188637.3,253182.1,365347.3,194339.4,199693.3,207137.7,205297.8,0.0
199636.3,188185.5,252482.0,364515.3,193642.9,199247.7,206546.7,204445.3,0.0
197832.5,187120.5,250849.8,362387.8,191975.7,198170.7,205213.7,202365.2,0.0
197721.5,187057.1,250572.5,361866.2,191767.3,198057.5,205093.2,202061.8,0.0
199657.4,188191.3,252123.5,363815.2,193523.5,199182.6,206516.0,204245.0,0.0
200378.4,188597.9,252745.4,364755.4,194280.1,199629.2,207098.9,205266.4,0.0
199622.9,188168.4,252073.4,363951.2,193608.4,199202.2,206534.1,204440.6,0.0
197843.6,187131.8,250468.8,361851.2,191967.9,198154.0,205226.0,202385.8,0.0
197739.1,187075.1,250195.3,361330.7,191766.7,198049.0,205105.2,202080.0,0.0
199685.2,188219.0,251757.5,363288.1,193535.1,199186.2,206536.2,204271.8,0.0
200394.0,188611.0,252366.0,364211.1,194276.3,199618.7,207098.1,205278.1,0.0
199621.7,188168.1,251685.5,363403.9,193595.8,199186.1,206525.2,204447.9,0.0
197823.2,187101.9,250057.0,361282.2,191927.7,198106.8,205191.5,202366.7,0.0
197708.7,187043.7,249776.4,360752.6,191716.5,197998.3,205066.5,202048.7,0.0
199649.5,188185.1,251331.6,362702.9,193480.9,199135.1,206492.9,204232.1,0.0
200385.3,188599.4,251968.6,363658.8,194255.5,199596.9,207084.2,205271.1,0.0
199636.9,188171.1,251307.7,362871.6,193596.2,199177.8,206528.0,204461.3,0.0
197817.2,187083.3,249658.6,360723.5,191904.4,198075.0,205165.3,202353.6,0.0
197680.2,187006.2,249358.8,360169.6,191670.7,197947.4,205015.0,202009.2,0.0
199625.0,188153.1,250920.1,362124.1,193439.9,199088.9,206442.5,204194.6,0.0
200362.8,188565.9,251555.3,363080.9,194213.3,199545.9,207032.0,205231.9,0.0
199613.3,188132.2,250892.5,362291.8,193551.8,199122.8,206470.2,204419.1,0.0
197826.4,187073.7,249272.8,360169.0,191888.4,198045.5,205134.7,202338.4,0.0
197690.7,187000.3,248979.5,359613.6,191660.4,197922.6,204993.1,201995.2,0.0
199629.9,188151.0,250543.0,361574.3,193432.4,199071.3,206432.5,204188.5,0.0
200358.2,188557.9,251174.4,362528.7,194196.1,199521.0,207014.3,205224.1,0.0
199636.9,188156.5,250543.5,361775.8,193563.8,199128.6,206481.8,204444.4,0.0
197843.4,187090.6,248924.3,359658.2,191895.5,198047.7,205142.5,202359.6,0.0
197685.9,187005.6,248610.2,359086.1,191643.9,197908.0,204983.5,201990.5,0.0
199615.9,188138.9,250160.1,361027.5,193399.6,199036.9,206402.1,204159.5,0.0
200370.2,188565.3,250819.3,362012.0,194190.5,199507.2,207007.8,205220.0,0.0
199661.4,188178.5,250202.7,361278.3,193570.7,199125.3,206489.3,204455.2,0.0
197868.6,187119.6,248586.6,359167.7,191908.3,198052.0,205157.2,202378.0,0.0
197669.3,187001.3,248241.0,358561.7,191626.7,197888.0,204972.8,201975.5,0.0
199597.3,188133.6,249791.1,360501.6,193380.4,199015.3,206393.1,204142.8,0.0
200364.6,188565.9,250455.3,361497.7,194177.8,199488.2,207007.5,205213.0,0.0
199654.0,188160.6,249828.2,360751.1,193542.9,199087.0,206472.1,204431.3,0.0
197880.1,187119.9,248239.7,358672.8,191908.7,198041.1,205167.2,202381.7,0.0
197660.2,186982.9,247872.5,358045.6,191604.5,197857.4,204956.6,201955.1,0.0
199586.7,188113.3,249415.2,359971.7,193345.6,198972.8,206360.1,204107.3,0.0
200377.3,188568.4,250107.9,360996.7,194172.3,199475.3,207001.1,205206.9,0.0
199651.3,188150.8,249470.8,360244.4,193532.8,199069.4,206459.9,204424.6,0.0
197837.5,187067.8,247836.4,358110.5,191846.5,197968.8,205101.0,202322.1,0.0
197662.3,186980.8,247522.0,357532.0,191592.7,197839.1,204944.9,201943.5,0.0
199601.7,188122.8,249081.0,359481.8,193350.3,198975.1,206371.6,204117.7,0.0
200379.8,188568.6,249761.9,360504.7,194168.5,199469.8,207004.8,205212.5,0.0
199679.0,188177.4,249150.5,359784.3,193560.6,199092.9,206490.9,204456.7,0.0
197871.4,187097.6,247518.5,357656.2,191877.6,197994.8,205133.3,202353.6,0.0
197647.5,186963.7,247151.6,357019.6,191565.5,197809.2,204920.5,201913.7,0.0
199567.0,188087.2,248691.3,358941.5,193302.3,198922.7,206322.1,204057.9,0.0
200367.4,188551.3,249398.8,359986.8,194148.4,199440.2,206979.5,205177.8,0.0
199664.4,188155.2,248788.1,359268.2,193535.7,199058.5,206464.1,204423.5,0.0
197870.1,187092.3,247175.3,357164.9,191871.3,197980.5,205127.2,202344.6,0.0
197644.3,186956.4,246801.6,356517.9,191549.0,197787.9,204907.7,201896.3,0.0
199574.3,188094.9,248354.9,358457.9,193300.3,198919.5,206328.8,204060.9,0.0
200353.3,188533.8,249037.0,359474.8,194115.2,199404.1,206954.7,205153.6,0.0
199648.7,188127.4,248420.2,358742.2,193492.8,199003.7,206422.8,204389.3,0.0
197857.9,187067.2,246814.0,356646.8,191838.2,197932.6,205093.7,202318.5,0.0
197617.2,186927.9,246439.6,356004.4,191518.1,197746.3,204879.0,201869.2,0.0
199540.9,188057.9,247984.2,357931.7,193258.5,198865.2,206287.7,204019.9,0.0
200338.3,188511.9,248682.4,358966.2,194085.8,199358.9,206927.4,205126.6,0.0
199661.3,188133.7,248092.7,358266.4,193488.4,198986.0,206423.6,204389.5,0.0
197897.3,187101.1,246512.3,356196.4,191856.3,197936.6,205115.0,202341.7,0.0
197651.9,186960.8,246135.2,355545.8,191531.2,197747.5,204895.1,201883.7,0.0
199571.7,188094.0,247681.3,357476.6,193275.1,198873.0,206309.3,204037.3,0.0
200372.6,188552.0,248387.7,358524.9,194116.1,199380.6,206959.6,205160.1,0.0
199678.2,188150.8,247783.3,357812.9,193505.4,198992.9,206438.6,204414.1,0.0
197901.3,187100.6,246190.5,355731.8,191861.7,197932.0,205117.8,202354.8,0.0
197628.9,186934.2,245786.0,355049.7,191506.7,197718.3,204870.3,201862.9,0.0
199547.7,188056.0,247329.0,356969.4,193238.7,198835.1,206274.3,204004.7,0.0
200365.4,188517.2,248047.7,358025.4,194084.6,199342.6,206925.6,205134.4,0.0
199700.9,188157.2,247478.9,357358.2,193513.9,198990.2,206441.9,204427.8,0.0
197906.0,187098.0,245876.3,355272.0,191859.4,197918.3,205111.8,202361.1,0.0
197615.7,186922.6,245457.1,354576.1,191489.1,197692.1,204854.9,201855.1,0.0
199544.1,188059.0,247008.8,356506.7,193233.6,198818.5,206269.9,204007.6,0.0
200359.1,188519.6,247726.1,357565.4,194081.9,199324.7,206922.4,205138.5,0.0
199674.5,188128.5,247138.1,356879.0,193489.9,198948.3,206417.1,204410.3,0.0
197880.1,187064.7,245532.7,354787.8,191828.9,197869.5,205079.9,202335.6,0.0
197605.0,186910.5,245134.2,354109.7,191478.4,197667.9,204842.0,201844.7,0.0
199524.9,188040.9,246679.8,356032.3,193213.5,198786.7,206248.3,203987.5,0.0
200332.6,188487.2,247384.9,357075.2,194044.3,199275.7,206884.6,205102.5,0.0
199679.8,188128.2,246828.0,356420.1,193482.9,198931.3,206409.1,204406.7,0.0
197900.7,187077.1,245244.8,354353.9,191845.8,197876.8,205095.4,202357.1,0.0
197596.8,186894.4,244814.2,353638.9,191458.4,197640.3,204823.4,201825.4,0.0
199494.4,188004.3,246332.7,355536.5,193171.2,198739.5,206207.6,203938.8,0.0
200318.1,188468.4,247054.2,356609.1,194027.4,199251.0,206867.0,205080.6,0.0
199665.5,188102.7,246495.6,355953.1,193460.4,198897.1,206385.2,204380.6,0.0
197892.3,187059.2,244915.0,353886.2,191822.6,197841.6,205068.5,202323.3,0.0
197592.9,186891.1,244499.8,353185.7,191451.0,197628.0,204811.6,201801.0,0.0
199506.7,188018.3,246038.9,355098.8,193181.1,198744.5,206213.5,203929.8,0.0
200343.2,188494.6,246776.8,356189.8,194054.7,199272.8,206890.8,205087.5,0.0
199692.1,188123.6,246213.7,355531.0,193483.6,198914.4,206406.4,204384.8,0.0
197904.0,187061.0,244617.4,353449.6,191827.6,197841.4,205073.2,202313.2,0.0
197565.8,186863.1,244168.2,352715.5,191423.1,197597.6,204791.3,201759.5,0.0
199462.4,187978.9,245694.1,354617.8,193141.7,198703.5,206184.8,203881.4,0.0
200323.9,188475.2,246457.1,355730.3,194037.1,199247.1,206879.4,205063.7,0.0
199687.5,188119.1,245914.6,355094.0,193484.0,198903.2,206410.8,204382.9,0.0
197902.6,187053.7,244317.9,353014.2,191825.2,197823.9,205072.2,202311.3,0.0
197570.8,186861.2,243871.1,352276.8,191420.5,197583.2,204786.9,201753.8,0.0
199496.5,188008.3,245426.6,354210.2,193170.0,198723.5,206210.4,203906.8,0.0
200314.8,188458.8,246142.9,355274.5,194013.4,199216.2,206854.3,205042.2,0.0
199684.1,188108.8,245601.1,354638.9,193462.3,198871.3,206384.8,204362.7,0.0
197908.2,187058.6,244020.3,352583.0,191826.5,197817.2,205068.9,202313.3,0.0
197558.7,186850.6,243558.3,351832.5,191405.2,197563.0,204768.5,201738.7,0.0
199458.7,187971.9,245089.4,353735.3,193124.8,198673.6,206160.7,203858.5,0.0
200281.0,188420.4,245807.4,354794.1,193964.4,199159.5,206795.8,204989.3,0.0
199683.6,188105.3,245307.0,354210.5,193456.9,198858.9,206372.7,204358.3,0.0
197929.1,187074.5,243750.0,352179.8,191841.8,197823.0,205081.2,202336.1,0.0
197575.1,186865.8,243289.3,351422.1,191419.4,197566.5,204780.3,201757.7,0.0
199482.8,187991.9,244824.3,353325.8,193144.4,198678.9,206175.0,203878.7,0.0
200331.5,188472.0,245573.3,354432.0,194026.3,199206.9,206854.8,205056.3,0.0
199661.6,188070.7,244992.2,353761.4,193434.7,198817.7,206343.6,204341.9,0.0
197893.5,187021.6,243415.8,351705.1,191797.6,197758.0,205024.4,202291.4,0.0
197520.8,186802.1,242937.4,350924.5,191351.2,197487.3,204703.3,201687.0,0.0
199438.3,187947.4,244489.7,352850.1,193094.0,198624.0,206122.1,203827.3,0.0
200299.0,188436.3,245251.2,353971.1,193987.0,199159.1,206814.8,205015.5,0.0
199672.1,188079.0,244717.1,353349.5,193442.3,198813.3,206347.5,204347.0,0.0
197934.8,187067.0,243180.3,351339.6,191846.5,197797.0,205069.3,202341.3,0.0
197556.8,186848.3,242698.2,350558.2,191400.1,197527.9,204748.2,201734.3,0.0
199439.2,187950.1,244207.5,352431.0,193091.5,198612.9,206114.7,203818.5,0.0
200330.6,188462.4,244998.0,353577.5,194009.3,199170.2,206829.3,205030.5,0.0
199720.1,188121.3,244478.6,352973.1,193476.7,198839.7,206376.7,204377.9,0.0
197957.5,187080.5,242913.5,350931.2,191848.5,197791.0,205068.2,202336.8,0.0
197556.9,186840.8,242409.2,350123.3,191373.3,197496.5,204724.9,201698.2,0.0
199451.2,187961.3,243935.0,352019.2,193086.8,198605.9,206116.4,203804.6,0.0
200335.2,188463.2,244716.9,353161.1,194000.4,199158.3,206823.5,205013.9,0.0
199714.0,188102.8,244183.4,352542.1,193453.4,198808.9,206350.2,204347.9,0.0
197934.8,187039.9,242593.9,350472.1,191798.3,197729.0,205007.6,202278.6,0.0
197537.8,186817.9,242104.2,349683.1,191345.2,197461.7,204686.0,201658.2,0.0
199426.1,187932.8,243626.7,351566.4,193050.6,198562.5,206066.4,203755.2,0.0
200315.1,188438.9,244414.7,352713.6,193970.5,199114.4,206775.7,204971.3,0.0
199707.0,188094.3,243899.7,352116.6,193443.7,198781.0,206325.0,204328.6,0.0
197933.0,187041.5,242323.9,350063.6,191800.2,197716.7,205000.9,202275.5,0.0
197519.8,186803.5,241818.1,349255.3,191325.0,197434.3,204665.8,201636.3,0.0
199404.9,187911.7,243334.2,351133.5,193021.3,198531.7,206043.6,203727.8,0.0
200310.2,188429.1,244140.4,352299.8,193956.7,199099.1,206769.3,204962.9,0.0
199708.7,188088.2,243633.7,351714.6,193439.3,198772.7,206324.8,204330.4,0.0
197943.0,187040.0,242066.5,349670.2,191804.4,197714.4,205005.4,202284.3,0.0
197529.6,186802.7,241561.7,348858.3,191330.0,197432.2,204664.7,201639.5,0.0
199385.8,187879.2,243042.1,350691.8,192985.2,198485.1,205996.9,203685.2,0.0
200279.1,188381.8,243829.0,351835.6,193893.6,199024.2,206696.8,204895.3,0.0
199708.5,188079.3,243358.6,351296.9,193417.5,198743.0,206297.0,204306.5,0.0
197926.4,187015.7,241780.1,349248.3,191774.2,197675.3,204967.4,202252.8,0.0
197506.6,186775.7,241274.5,348433.1,191298.4,197394.2,204626.0,201604.5,0.0
199396.7,187892.1,242802.3,350320.3,193008.7,198504.0,206015.2,203705.3,0.0
200296.0,188397.5,243593.9,351471.7,193930.4,199050.0,206720.9,204926.1,0.0
199721.9,188081.3,243107.6,350908.0,193428.5,198735.2,206289.5,204310.3,0.0
197972.2,187053.6,241563.2,348893.2,191813.4,197696.8,204991.7,202289.6,0.0
197504.2,186771.0,241011.5,348030.1,191287.1,197369.0,204606.4,201591.6,0.0
199390.4,187890.1,242535.4,349911.8,192989.3,198475.8,205994.7,203685.6,0.0
200300.4,188406.0,243339.7,351079.5,193918.9,199033.1,206716.8,204920.3,0.0
199725.5,188086.6,242859.8,350526.9,193424.2,198725.6,206295.9,204314.1,0.0
197984.0,187064.4,241321.3,348517.7,191817.4,197693.2,205006.0,202296.5,0.0
197521.3,186788.4,240773.8,347657.8,191300.4,197376.3,204630.0,201600.9,0.0
199386.3,187885.0,242270.4,349509.9,192973.6,198454.7,205986.9,203661.6,0.0
200299.2,188404.0,243081.6,350690.8,193915.5,199024.5,206716.4,204909.5,0.0
199715.0,188072.3,242587.8,350125.0,193407.6,198701.8,206276.6,204291.7,0.0
197978.4,187054.0,241052.9,348125.5,191803.5,197671.1,204987.2,202280.9,0.0
197511.6,186782.5,240505.6,347264.0,191279.2,197355.0,204611.4,201578.2,0.0
199380.5,187883.9,242013.2,349126.8,192962.3,198447.0,205982.6,203650.2,0.0
200294.3,188396.0,242821.1,350306.7,193896.4,199004.4,206705.6,204896.0,0.0
199719.6,188070.8,242338.0,349763.8,193402.3,198695.1,206283.9,204298.8,0.0
197986.7,187052.2,240803.7,347766.8,191798.9,197667.5,204995.2,202291.8,0.0
197488.8,186753.6,240225.3,346868.3,191241.0,197319.3,204580.2,201554.5,0.0
199350.4,187848.2,241725.0,348718.8,192912.5,198395.8,205935.3,203614.9,0.0
200292.5,188387.0,242561.2,349932.2,193879.8,198982.9,206687.6,204894.8,0.0
199721.7,188061.0,242080.5,349383.5,193381.6,198669.1,206259.0,204294.7,0.0
198002.8,187052.5,240562.1,347396.9,191787.6,197648.8,204981.7,202294.6,0.0
197536.5,186792.1,240017.6,346539.4,191270.7,197344.5,204613.7,201593.4,0.0
199384.1,187879.9,241503.3,348381.8,192938.0,198419.0,205968.0,203646.7,0.0
200301.1,188394.3,242315.3,349568.4,193879.8,198979.6,206697.9,204902.5,0.0
199723.8,188063.8,241833.5,349018.9,193383.0,198664.6,206270.9,204302.5,0.0
197987.7,187039.2,240299.9,347014.5,191770.9,197625.5,204976.8,202285.4,0.0
197509.5,186769.9,239749.8,346143.3,191237.2,197309.5,204596.2,201571.3,0.0
199374.9,187874.8,241259.5,348007.2,192924.3,198407.0,205973.1,203645.8,0.0
200314.8,188408.9,242096.0,349215.6,193890.3,198990.2,206724.2,204924.6,0.0
199739.6,188074.4,241611.4,348665.3,193392.9,198668.6,206292.1,204322.8,0.0
197994.5,187037.9,240063.0,346646.6,191769.3,197616.6,204978.9,202295.5,0.0
197486.5,186747.8,239486.8,345749.7,191213.3,197283.4,204576.1,201559.1,0.0
199336.8,187833.0,240977.2,347585.4,192876.1,198357.5,205926.7,203608.7,0.0
200302.8,188387.8,241842.4,348823.7,193869.0,198963.1,206704.6,204918.5,0.0
199769.0,188098.3,241403.7,348327.5,193419.4,198690.0,206323.0,204371.6,0.0
198018.8,187057.7,239855.0,346315.8,191799.3,197642.3,205016.9,202349.1,0.0
197480.7,186733.9,239247.8,345379.3,191208.1,197277.0,204579.6,201571.1,0.0
199344.0,187837.8,240750.3,347226.7,192882.1,198365.8,205944.2,203629.2,0.0
200291.2,188373.5,241592.2,348445.0,193849.8,198948.3,206697.9,204918.2,0.0
199717.5,188038.4,241109.5,347899.4,193351.8,198624.3,206262.3,204321.2,0.0
197971.3,187004.0,239561.0,345882.8,191731.4,197573.2,204946.2,202293.0,0.0
197454.3,186716.3,238981.1,344975.1,191170.1,197242.0,204541.3,201541.5,0.0
199322.5,187825.1,240493.4,346830.2,192852.3,198337.7,205915.8,203606.2,0.0
200283.4,188367.9,241348.6,348063.3,193837.3,198928.8,206679.3,204907.4,0.0
199729.3,188049.6,240886.9,347542.0,193360.8,198623.1,206264.9,204331.7,0.0
197992.3,187023.1,239355.7,345542.7,191749.0,197583.7,204964.9,202317.6,0.0
197455.3,186711.8,238755.4,344608.6,191162.7,197226.7,204533.6,201538.4,0.0
199307.9,187806.6,240248.5,346438.1,192825.0,198305.8,205885.1,203578.6,0.0
200279.4,188358.9,241113.7,347678.6,193816.9,198904.6,206654.8,204886.5,0.0
199754.9,188069.3,240682.3,347187.9,193370.7,198627.3,206269.9,204342.2,0.0
198016.8,187038.4,239146.5,345187.9,191760.2,197583.7,204968.1,202326.0,0.0
197461.9,186714.2,238528.4,344234.6,191158.8,197215.6,204522.0,201525.7,0.0
199291.9,187788.9,239998.6,346046.4,192801.9,198277.3,205854.9,203546.8,0.0
200272.8,188348.5,240873.6,347301.5,193805.4,198884.0,206636.9,204871.4,0.0
199747.4,188050.7,240443.3,346814.3,193357.6,198603.3,206251.3,204328.3,0.0
198027.2,187038.2,238926.7,344836.1,191766.2,197583.3,204970.2,202330.0,0.0
197473.4,186724.6,238311.7,343887.5,191169.5,197223.6,204532.9,201531.8,0.0
199314.0,187809.9,239796.0,345708.2,192822.0,198294.2,205878.4,203559.8,0.0
200287.6,188354.5,240657.3,346942.2,193804.7,198879.4,206638.2,204862.6,0.0
199782.8,188085.8,240248.9,346483.3,193384.7,198626.6,206278.4,204349.8,0.0
198041.5,187056.9,238716.4,344491.7,191773.7,197586.2,204980.3,202340.4,0.0
197454.3,186710.7,238072.6,343508.3,191138.8,197189.7,204507.7,201508.9,0.0
199293.0,187791.2,239554.2,345318.5,192788.6,198257.0,205844.2,203531.6,0.0
200292.3,188368.0,240451.5,346596.3,193814.9,198886.2,206648.5,204881.5,0.0
199753.6,188059.0,240006.9,346099.6,193354.8,198591.5,206248.8,204329.7,0.0
198022.3,187034.6,238482.7,344118.3,191752.9,197557.3,204957.5,202328.4,0.0
197420.5,186673.8,237824.5,343120.1,191105.9,197153.0,204474.5,201480.6,0.0
199252.3,187749.9,239296.2,344923.2,192748.8,198214.8,205807.2,203492.6,0.0
200259.7,188330.1,240194.3,346196.9,193772.8,198835.6,206604.4,204837.6,0.0
199718.9,188015.4,239744.8,345695.0,193304.5,198530.7,206195.8,204282.2,0.0
197984.3,186989.5,238218.9,343711.1,191702.5,197495.0,204900.8,202280.5,0.0
197387.9,186637.8,237569.6,342720.7,191061.6,197101.2,204425.1,201439.2,0.0
199223.9,187722.6,239052.5,344535.5,192713.1,198177.6,205768.7,203463.2,0.0
200293.0,188359.6,240013.4,345879.0,193798.8,198860.4,206627.0,204874.4,0.0
199796.6,188087.9,239607.7,345429.9,193377.3,198599.2,206262.3,204364.5,0.0
198054.9,187052.2,238068.1,343430.6,191756.4,197546.6,204949.1,202341.1,0.0
197447.4,186698.2,237412.5,342429.3,191110.0,197149.1,204468.6,201484.7,0.0
199289.1,187791.3,238903.1,344250.8,192769.1,198232.1,205820.8,203513.8,0.0
200277.3,188344.7,239781.3,345514.9,193774.5,198832.7,206597.9,204847.0,0.0
199753.8,188043.5,239351.3,345040.2,193328.6,198547.1,206207.6,204314.7,0.0
198029.8,187026.3,237834.2,343064.3,191732.1,197514.0,204916.7,202318.4,0.0
197423.8,186678.0,237183.0,342071.4,191089.2,197123.8,204445.0,201471.0,0.0
199246.3,187750.4,238653.5,343874.4,192723.2,198187.0,205779.9,203479.8,0.0
200261.6,188324.3,239556.7,345163.6,193749.0,198806.6,206578.4,204834.3,0.0
199769.1,188051.5,239156.6,344720.3,193332.6,198545.5,206215.5,204331.8,0.0
198034.0,187017.2,237621.9,342728.8,191721.7,197495.6,204904.9,202319.0,0.0
197382.3,186622.4,236921.5,341676.0,191027.9,197056.9,204376.8,201409.4,0.0
199222.8,187722.5,238406.6,343491.9,192679.1,198138.2,205725.1,203428.9,0.0
200235.3,188299.3,239314.4,344794.8,193718.5,198768.2,206536.7,204797.8,0.0
199727.4,188006.7,238896.6,344335.6,193284.5,198488.8,206155.3,204278.1,0.0
198058.7,187041.7,237432.6,342422.4,191746.6,197511.0,204918.4,202337.3,0.0
197428.0,186674.9,236758.1,341398.7,191078.5,197101.4,204420.0,201457.3,0.0
199225.0,187726.4,238199.8,343164.7,192683.2,198135.6,205721.7,203428.3,0.0
200244.1,188303.1,239113.7,344472.1,193724.0,198763.7,206534.9,204800.8,0.0
199746.1,188016.1,238706.8,344025.7,193303.3,198493.4,206166.0,204293.5,0.0
198057.0,187033.0,237223.6,342088.9,191741.6,197497.7,204907.7,202330.6,0.0
197402.6,186647.7,236529.2,341039.4,191046.7,197068.7,204390.1,201424.2,0.0
199224.5,187727.2,238000.2,342836.5,192681.8,198137.6,205725.1,203428.1,0.0
200245.7,188302.1,238910.9,344137.6,193719.9,198760.6,206529.3,204797.3,0.0
199752.3,188022.1,238508.4,343696.5,193303.3,198494.6,206163.3,204295.7,0.0
198049.5,187020.9,237017.5,341753.9,191732.6,197483.8,204895.7,202325.9,0.0
197382.8,186631.1,236315.5,340694.1,191029.3,197043.3,204369.3,201408.8,0.0
199194.5,187698.8,237772.3,342467.3,192644.7,198090.4,205684.4,203385.8,0.0
200213.5,188265.1,238675.3,343752.9,193670.4,198698.9,206475.0,204738.5,0.0
199740.0,188000.4,238291.9,343326.8,193268.6,198444.4,206119.9,204254.2,0.0
198061.6,187026.4,236828.4,341418.8,191729.9,197466.5,204884.6,202316.9,0.0
197390.1,186636.7,236128.0,340367.4,191033.7,197039.6,204370.5,201403.3,0.0
199216.0,187724.5,237600.3,342164.4,192666.7,198110.1,205707.9,203400.3,0.0
200262.6,188320.3,238532.4,343489.7,193725.1,198752.9,206531.8,204790.4,0.0
199741.3,188004.9,238101.3,343023.8,193278.0,198453.6,206134.6,204261.9,0.0
198035.8,186997.5,236606.5,341081.5,191701.4,197439.9,204860.0,202287.3,0.0
197352.1,186587.7,235881.2,339992.0,190975.7,196982.9,204308.9,201337.5,0.0
199148.7,187645.1,237324.0,341748.4,192578.5,198022.2,205610.6,203298.9,0.0
200204.8,188248.0,238266.1,343083.7,193647.8,198672.6,206441.6,204699.9,0.0
199754.5,188007.3,237913.4,342700.8,193282.3,198451.1,206123.1,204253.8,0.0
198056.4,187004.1,236426.1,340762.5,191709.8,197438.3,204852.0,202283.1,0.0
197397.0,186633.8,235741.9,339724.5,191027.3,197035.0,204355.6,201380.4,0.0
199186.1,187685.6,237179.5,341477.3,192621.6,198071.9,205654.9,203333.9,0.0
200253.2,188296.0,238132.7,342824.6,193699.7,198730.0,206497.0,204746.5,0.0
199777.5,188023.1,237751.2,342414.2,193301.1,198474.9,206146.0,204272.3,0.0
198069.7,187010.3,236253.0,340470.4,191718.2,197447.7,204863.7,202293.0,0.0
197350.7,186583.0,235506.0,339364.2,190969.0,196974.8,204298.2,201319.3,0.0
199160.3,187663.3,236963.9,341138.5,192587.9,198033.6,205620.2,203293.6,0.0
200230.6,188276.3,237919.0,342493.2,193673.0,198693.3,206466.4,204713.6,0.0
199756.3,188002.2,237540.6,342089.7,193278.6,198439.3,206117.8,204245.0,0.0
198066.2,187006.6,236063.9,340165.8,191718.8,197433.9,204854.9,202287.6,0.0
197348.4,186582.5,235320.4,339062.1,190973.9,196969.9,204295.3,201314.5,0.0
199138.7,187641.8,236757.7,340817.9,192571.2,198013.0,205600.7,203269.1,0.0
200212.1,188251.7,237713.8,342175.6,193653.4,198673.0,206446.5,204691.5,0.0
199760.8,187991.4,237350.1,341782.6,193271.4,198427.6,206106.8,204234.9,0.0
198072.6,186994.3,235870.5,339859.4,191707.3,197419.9,204842.9,202275.3,0.0
197347.7,186569.8,235125.1,338752.4,190957.9,196955.6,204284.9,201302.1,0.0
199131.5,187619.8,236557.3,340494.3,192544.9,197982.5,205578.8,203246.4,0.0
200226.8,188250.7,237535.8,341877.9,193652.8,198659.5,206447.5,204696.2,0.0
199760.9,187983.2,237163.7,341485.6,193264.9,198409.8,206106.4,204241.7,0.0
198068.1,186981.8,235681.3,339562.9,191696.1,197402.7,204840.3,202282.5,0.0
197349.2,186562.2,234939.1,338453.3,190945.1,196941.9,204280.6,201303.8,0.0
199116.0,187606.0,236359.1,340183.4,192522.1,197965.8,205565.1,203235.6,0.0
200212.9,188238.2,237333.8,341555.5,193623.2,198637.2,206425.3,204678.3,0.0
199789.1,188012.4,237002.9,341207.5,193279.4,198430.1,206124.5,204266.4,0.0
198101.8,187015.1,235529.4,339292.7,191721.0,197426.4,204863.9,202316.3,0.0
197354.6,186576.5,234763.4,338154.2,190948.4,196943.2,204280.1,201308.7,0.0
199147.6,187643.5,236209.7,339904.7,192546.3,197989.0,205585.5,203258.2,0.0
200227.0,188255.3,237173.8,341272.0,193637.8,198648.5,206434.7,204692.4,0.0
199772.6,187991.7,236811.2,340886.9,193258.6,198402.4,206098.6,204246.5,0.0
198103.0,187016.6,235357.1,338994.8,191722.9,197422.5,204861.7,202315.8,0.0
197353.5,186575.3,234587.6,337855.9,190948.1,196941.2,204276.5,201304.5,0.0
199104.1,187603.7,235987.9,339562.0,192504.6,197948.9,205541.4,203211.6,0.0
200195.5,188220.5,236958.5,340934.6,193603.4,198612.5,206394.1,204651.8,0.0
199777.5,187994.7,236633.7,340592.2,193266.1,198404.8,206096.8,204245.8,0.0
198099.1,187007.0,235169.5,338691.9,191716.8,197408.8,204844.6,202304.5,0.0
197336.7,186558.0,234387.2,337538.7,190926.6,196915.4,204249.5,201276.9,0.0
199093.3,187594.6,235796.7,339254.7,192490.2,197931.0,205526.7,203190.4,0.0
200200.3,188230.4,236790.2,340657.8,193611.5,198620.6,206409.0,204657.8,0.0
199774.5,187989.1,236454.4,340305.9,193260.8,198398.5,206097.9,204240.1,0.0
198103.6,187001.9,234989.8,338400.1,191708.3,197396.7,204835.2,202292.1,0.0
197315.5,186533.0,234188.8,337224.4,190896.8,196885.8,204216.5,201238.9,0.0
199092.3,187594.0,235620.8,338963.3,192484.5,197928.8,205518.6,203172.4,0.0
200202.7,188230.2,236612.8,340365.2,193603.8,198614.3,206395.7,204636.8,0.0
199786.9,188001.3,236287.3,340027.2,193264.4,198402.9,206094.2,204231.8,0.0
198098.3,186999.1,234812.1,338117.3,191703.7,197393.3,204826.8,202278.7,0.0
197308.1,186530.3,234007.7,336941.2,190891.0,196881.3,204210.1,201224.2,0.0
199067.7,187569.8,235419.0,338650.0,192452.0,197898.2,205485.9,203131.2,0.0
200195.9,188216.7,236424.3,340057.5,193578.5,198585.3,206369.6,204606.3,0.0
199808.7,188013.6,236126.5,339745.9,193262.6,198395.8,206092.0,204230.8,0.0
198145.9,187041.5,234681.7,337874.7,191740.0,197421.3,204861.3,202319.3,0.0
197323.4,186539.2,233846.0,336660.2,190895.7,196880.3,204214.4,201230.6,0.0
199084.0,187582.0,235260.0,338373.5,192463.8,197907.4,205497.1,203142.6,0.0
200203.2,188215.9,236252.4,339774.5,193583.4,198590.0,206369.5,204608.7,0.0
199790.0,187979.2,235923.0,339429.4,193235.7,198365.8,206058.0,204197.8,0.0
198124.4,186999.2,234472.6,337545.4,191700.7,197375.9,204813.8,202270.7,0.0
197307.7,186517.6,233654.7,336353.0,190874.4,196856.8,204187.2,201200.0,0.0
199055.6,187552.5,235059.5,338056.2,192429.5,197869.6,205458.2,203097.4,0.0
200193.0,188205.1,236073.6,339479.1,193568.7,198564.8,206351.1,204586.2,0.0
199791.8,187983.2,235761.2,339156.5,193242.8,198359.0,206058.7,204199.4,0.0
198113.6,186991.0,234298.4,337265.1,191696.3,197360.2,204804.2,202263.1,0.0
197302.3,186511.6,233478.4,336065.3,190864.1,196836.0,204174.2,201184.8,0.0
199025.8,187524.3,234857.7,337740.1,192395.3,197825.8,205423.1,203056.0,0.0
200154.9,188161.7,235862.2,339154.6,193525.5,198510.6,206303.4,204535.1,0.0
199782.1,187964.1,235576.0,338861.8,193222.6,198330.4,206035.6,204176.4,0.0
198137.1,186998.1,234143.1,337000.4,191703.2,197356.5,204809.3,202271.6,0.0
197310.7,186511.3,233312.3,335788.8,190859.9,196826.0,204171.5,201180.1,0.0
199052.8,187546.4,234711.4,337478.5,192410.2,197838.8,205437.8,203067.5,0.0
200197.8,188203.9,235731.9,338911.6,193559.9,198539.5,206335.3,204568.7,0.0
199809.6,187992.0,235432.7,338607.5,193245.0,198341.9,206053.0,204197.8,0.0
198144.6,187007.4,233983.5,336729.1,191705.5,197347.0,204805.0,202270.6,0.0
197269.6,186470.4,233108.3,335465.5,190812.7,196769.7,204117.3,201125.1,0.0
199003.9,187501.9,234500.7,337147.8,192354.0,197778.1,205380.6,203003.4,0.0
200164.3,188176.5,235537.4,338601.8,193519.2,198496.4,206299.7,204524.4,0.0
199793.0,187975.6,235250.0,338311.0,193216.4,198310.0,206027.0,204167.0,0.0
198164.1,187023.6,233832.1,336466.3,191710.4,197349.2,204806.9,202274.0,0.0
197317.9,186519.5,232991.9,335238.7,190853.2,196811.0,204158.0,201166.9,0.0
199033.2,187522.9,234358.2,336883.9,192362.3,197783.1,205385.5,203012.3,0.0
200194.1,188189.5,235390.3,338327.1,193519.6,198487.3,206288.2,204522.1,0.0
199788.8,187960.1,235079.8,338020.4,193200.4,198281.0,205999.2,204150.5,0.0
198162.1,187016.9,233671.3,336193.8,191711.2,197336.9,204800.5,202277.3,0.0
197309.7,186514.0,232820.4,334960.9,190846.4,196797.4,204145.2,201161.6,0.0
199028.6,187528.0,234194.3,336620.5,192367.3,197787.0,205387.0,203016.8,0.0
200184.4,188187.7,235229.5,338073.8,193529.3,198494.7,206299.2,204536.4,0.0
199785.6,187954.2,234919.2,337762.4,193199.6,198275.9,206002.1,204157.4,0.0
198144.5,186989.2,233489.6,335906.9,191679.2,197298.6,204770.0,202250.9,0.0
197290.5,186487.4,232638.7,334670.7,190811.0,196754.0,204109.7,201126.0,0.0
199012.1,187507.1,234017.4,336333.3,192331.8,197748.7,205354.6,202981.4,0.0
200223.6,188222.1,235103.6,337843.9,193549.1,198513.9,206323.2,204558.4,0.0
199821.8,187981.4,234786.4,337532.6,193216.6,198293.0,206022.5,204179.1,0.0
198152.5,186988.1,233329.8,335655.5,191669.5,197290.6,204766.7,202248.2,0.0
197286.3,186481.0,232470.9,334409.4,190794.2,196746.0,204102.4,201113.0,0.0
198994.9,187493.4,233840.7,336061.5,192308.0,197734.8,205342.5,202960.6,0.0
200169.3,188164.7,234883.8,337523.7,193479.0,198447.8,206260.0,204490.2,0.0
199809.4,187968.3,234610.0,337258.4,193192.3,198271.4,206004.5,204158.2,0.0
198161.5,186993.2,233174.4,335400.8,191665.0,197289.4,204767.9,202250.9,0.0
197279.7,186471.2,232299.3,334137.1,190773.5,196729.9,204089.2,201099.9,0.0
199003.7,187501.5,233684.2,335807.5,192306.2,197739.8,205348.9,202962.4,0.0
200187.0,188178.1,234740.9,337283.7,193490.7,198463.1,206275.7,204503.8,0.0
199844.0,187997.1,234483.9,337038.2,193221.6,198297.9,206033.7,204188.7,0.0
198201.3,187030.4,233055.2,335194.5,191707.2,197324.3,204807.3,202293.7,0.0
197295.0,186483.0,232155.9,333897.9,190785.6,196735.5,204097.9,201110.6,0.0
198985.4,187479.4,233505.9,335527.3,192281.8,197709.2,205319.5,202936.8,0.0
200187.9,188175.7,234579.0,337019.0,193481.5,198445.8,206263.5,204499.1,0.0
199846.4,188000.5,234333.3,336788.4,193225.5,198293.8,206036.8,204202.6,0.0
198210.5,187043.4,232916.3,334956.7,191721.1,197333.0,204821.8,202319.7,0.0
197299.0,186499.5,232017.0,333660.7,190796.8,196747.0,204116.9,201137.4,0.0
199003.5,187510.0,233381.5,335301.3,192302.5,197731.9,205351.8,202974.3,0.0
200195.0,188189.4,234440.0,336780.5,193487.3,198451.8,206278.1,204523.8,0.0
199843.7,187996.6,234178.7,336529.8,193213.0,198279.1,206028.6,204206.7,0.0
198199.3,187021.8,232750.0,334685.8,191696.1,197296.7,204797.3,202312.4,0.0
197284.2,186479.1,231848.5,333388.7,190773.2,196713.0,204094.2,201128.3,0.0
198968.5,187474.5,233195.1,335006.3,192262.5,197682.5,205313.6,202942.0,0.0
200176.2,188171.2,234273.7,336507.2,193470.4,198424.5,206262.4,204513.5,0.0
199829.0,187978.9,234016.9,336262.2,193197.7,198252.3,206015.2,204205.4,0.0
198196.0,187015.7,232599.5,334425.2,191689.6,197283.0,204790.5,202320.0,0.0
197257.8,186451.9,231675.3,333101.1,190742.6,196678.5,204060.7,201110.1,0.0
198943.8,187453.9,233026.1,334724.4,192233.6,197654.8,205287.3,202931.0,0.0
200132.1,188125.9,234081.9,336202.6,193417.4,198369.9,206212.5,204479.8,0.0
199825.4,187966.6,233858.7,335988.2,193177.1,198228.1,205995.6,204201.1,0.0
198242.0,187055.9,232494.8,334209.6,191722.8,197313.8,204826.1,202371.4,0.0
197296.3,186492.5,231571.9,332884.4,190773.3,196711.7,204097.3,201156.4,0.0
198969.4,187482.6,232909.6,334489.5,192253.7,197678.3,205308.9,202958.8,0.0
200165.3,188157.5,233968.8,335968.7,193439.9,198397.0,206233.6,204509.4,0.0
199809.8,187948.9,233696.1,335709.9,193152.4,198205.0,205968.3,204184.7,0.0
198206.0,187018.2,232309.6,333912.1,191677.9,197268.3,204777.4,202333.0,0.0
197276.1,186471.8,231402.0,332601.6,190747.0,196685.1,204066.5,201131.8,0.0
198953.8,187464.5,232746.1,334211.1,192229.0,197656.0,205281.2,202934.5,0.0
200164.4,188156.6,233822.9,335707.2,193427.2,198386.3,206220.7,204497.1,0.0
199858.2,188002.4,233602.5,335504.5,193194.4,198249.5,206009.5,204224.0,0.0
198211.5,187028.8,232172.6,333668.1,191681.3,197271.2,204778.3,202330.9,0.0
197248.4,186453.3,231235.0,332328.7,190719.8,196660.8,204042.5,201098.8,0.0
198914.5,187435.0,232569.0,333923.6,192187.4,197617.7,205246.5,202884.7,0.0
200138.7,188137.9,233662.7,335442.0,193406.2,198365.1,206206.6,204472.0,0.0
199803.9,187950.3,233414.9,335213.3,193143.6,198198.6,205966.2,204175.7,0.0
198199.1,187010.6,232024.9,333412.6,191666.0,197254.1,204768.0,202322.1,0.0
197245.0,186440.0,231085.0,332061.5,190699.8,196637.5,204020.8,201080.4,0.0
198932.1,187449.9,232433.0,333673.7,192191.6,197619.9,205244.9,202888.1,0.0
200129.9,188126.1,233495.4,335160.2,193383.0,198337.2,206172.9,204444.9,0.0
199794.1,187933.6,233246.5,334926.5,193120.5,198165.3,205928.3,204147.1,0.0
198215.2,187016.8,231886.0,333157.3,191673.1,197250.8,204760.8,202325.0,0.0
197294.2,186486.6,230986.6,331851.0,190746.5,196681.8,204060.9,201125.8,0.0
198928.4,187445.2,232283.8,333408.8,192183.3,197614.6,205236.3,202878.6,0.0
200125.8,188116.2,233345.5,334894.0,193372.4,198331.4,206163.2,204436.8,0.0
199790.7,187918.8,233092.9,334659.2,193105.1,198154.0,205915.8,204137.9,0.0
198207.4,187000.5,231726.7,332886.0,191652.6,197232.5,204742.3,202309.1,0.0
197229.5,186422.0,230775.9,331526.8,190675.2,196616.2,203993.1,201056.5,0.0
198897.3,187415.8,232109.1,333118.0,192146.7,197585.8,205201.5,202840.8,0.0
200128.7,188114.3,233200.6,334632.8,193368.0,198325.1,206152.0,204428.3,0.0
199814.1,187939.6,232972.3,334426.3,193127.4,198167.7,205928.8,204156.6,0.0
198231.6,187020.0,231606.5,332657.3,191674.4,197244.7,204755.2,202330.6,0.0
197257.5,186447.5,230661.3,331302.7,190702.6,196634.8,204009.7,201080.6,0.0
198897.7,187416.1,231969.4,332864.8,192147.3,197578.3,205190.3,202835.0,0.0
200130.9,188119.1,233067.3,334392.2,193373.3,198323.1,206147.2,204430.5,0.0
199817.1,187941.2,232839.8,334189.3,193131.0,198163.4,205921.5,204158.3,0.0
198225.4,187008.0,231465.9,332410.6,191666.8,197225.1,204735.4,202320.9,0.0
197231.5,186421.3,230504.7,331036.6,190676.4,196599.6,203972.5,201049.4,0.0
198888.3,187411.9,231831.0,332618.7,192142.0,197568.4,205176.9,202822.9,0.0
200148.7,188137.2,232952.0,334172.0,193391.1,198337.9,206160.6,204446.6,0.0
199828.3,187952.8,232714.4,333961.4,193141.4,198171.7,205928.0,204170.1,0.0
198218.2,187001.1,231321.0,332161.6,191660.1,197216.4,204722.6,202314.0,0.0
197212.5,186401.8,230345.6,330770.0,190656.2,196577.6,203947.3,201027.4,0.0
198854.8,187377.7,231652.7,332325.8,192095.0,197517.7,205125.7,202777.1,0.0
200123.5,188111.0,232784.8,333887.0,193352.0,198292.4,206114.3,204410.1,0.0
199808.0,187928.4,232555.7,333687.5,193111.1,198134.0,205887.2,204144.2,0.0
198210.1,186984.9,231171.3,331901.0,191633.9,197184.8,204689.6,202296.2,0.0
197208.2,186397.8,230202.1,330516.5,190629.1,196551.8,203924.0,201011.6,0.0
198831.2,187352.8,231494.3,332059.2,192056.4,197483.9,205094.7,202747.9,0.0
200116.0,188095.8,232637.7,333638.1,193331.0,198271.4,206097.8,204397.4,0.0
199836.6,187948.1,232444.4,333476.3,193124.5,198145.7,205905.7,204167.2,0.0
198252.9,187015.4,231074.5,331701.1,191660.3,197205.3,204718.5,202333.5,0.0
197267.9,186450.8,230129.8,330343.1,190688.0,196604.9,203980.2,201077.3,0.0
198881.5,187406.1,231413.0,331872.6,192104.7,197528.9,205140.4,202796.2,0.0
200133.0,188117.9,232527.4,333422.0,193346.6,198284.8,206114.3,204413.8,0.0
199846.8,187955.9,232322.5,333248.3,193129.2,198145.4,205908.6,204172.8,0.0
198258.5,187015.5,230945.5,331469.1,191659.0,197198.3,204711.3,202331.8,0.0
197219.4,186399.2,229946.2,330051.3,190622.5,196539.6,203916.0,201012.5,0.0
198842.9,187369.4,231241.0,331595.7,192052.3,197481.6,205095.2,202748.6,0.0
200124.1,188108.0,232381.9,333175.3,193327.9,198265.3,206097.1,204399.6,0.0
199842.1,187952.3,232181.7,333010.0,193118.9,198131.1,205896.5,204167.4,0.0
198255.6,187020.8,230812.9,331241.6,191659.0,197193.8,204710.3,202338.2,0.0
197199.9,186388.9,229800.4,329808.4,190612.8,196524.5,203903.0,201003.1,0.0
198810.3,187340.3,231081.5,331326.5,192024.7,197447.4,205060.4,202713.3,0.0
200110.1,188093.3,232231.8,332910.8,193306.0,198232.6,206066.5,204369.7,0.0
199836.1,187947.2,232041.3,332759.2,193105.6,198107.4,205880.0,204150.5,0.0
198265.3,187025.9,230686.5,331010.0,191661.1,197187.2,204708.8,202337.2,0.0
197211.8,186399.5,229678.8,329579.7,190620.6,196523.5,203904.6,201002.3,0.0
198812.3,187345.9,230950.1,331084.6,192018.9,197433.9,205050.9,202697.5,0.0
200108.5,188092.4,232104.0,332674.3,193300.1,198223.1,206062.9,204357.8,0.0
199823.1,187927.4,231901.4,332514.9,193088.4,198083.2,205860.9,204127.4,0.0
198236.2,186989.3,230530.6,330748.7,191622.9,197140.5,204667.1,202294.3,0.0
197182.9,186364.7,229522.0,329316.5,190575.3,196477.3,203862.3,200956.3,0.0
198787.7,187318.9,230796.8,330829.1,191981.4,197401.2,205017.2,202658.3,0.0
200106.5,188081.3,231966.8,332438.5,193282.5,198206.2,206041.3,204337.5,0.0
199861.8,187957.3,231808.6,332323.4,193113.2,198110.3,205883.6,204153.0,0.0
198296.5,187042.5,230465.0,330589.1,191679.3,197198.6,204722.9,202354.1,0.0
197231.4,186411.4,229445.6,329145.0,190622.7,196528.4,203908.2,201003.4,0.0
198823.9,187351.9,230708.7,330640.0,192013.2,197437.3,205046.5,202687.6,0.0
200089.2,188062.6,231825.7,332192.8,193259.8,198186.0,206017.5,204313.1,0.0
199823.6,187915.2,231642.9,332051.6,193066.2,198058.9,205833.1,204103.3,0.0
198269.6,187008.5,230304.2,330322.7,191639.6,197148.1,204674.8,202308.2,0.0
197188.5,186363.6,229272.4,328864.7,190571.3,196467.7,203847.8,200944.0,0.0
198801.4,187334.8,230560.0,330388.1,191990.2,197411.4,205020.9,202657.3,0.0
200093.1,188071.1,231712.0,331984.2,193273.1,198197.8,206030.4,204324.8,0.0
199812.8,187904.4,231512.3,331827.6,193060.3,198050.4,205824.5,204098.9,0.0
198265.5,187008.7,230181.0,330104.5,191638.1,197148.9,204673.6,202311.4,0.0
197203.5,186385.7,229169.2,328666.6,190589.0,196490.5,203868.9,200969.1,0.0
198776.0,187316.6,230417.7,330146.6,191964.2,197391.2,204997.8,202637.3,0.0
200066.7,188050.5,231557.7,331730.2,193235.9,198165.3,205991.6,204291.4,0.0
199816.6,187912.4,231387.9,331608.9,193059.1,198050.9,205820.5,204102.1,0.0
198270.7,187007.5,230058.4,329888.2,191635.2,197139.9,204666.1,202315.5,0.0
197176.7,186356.9,229018.5,328419.9,190554.0,196451.3,203832.6,200938.3,0.0
198750.5,187285.0,230262.9,329891.6,191924.4,197346.4,204959.2,202597.3,0.0
200068.0,188041.5,231429.4,331501.4,193224.0,198143.0,205981.5,204278.0,0.0
199824.3,187912.5,231269.3,331389.0,193056.0,198036.3,205817.5,204094.8,0.0
198290.4,187024.8,229954.2,329690.6,191652.7,197146.9,204682.0,202328.1,0.0
197178.5,186364.0,228902.5,328215.1,190563.5,196454.1,203844.8,200940.8,0.0
198731.5,187278.8,230131.7,329668.8,191914.7,197337.2,204957.7,202582.5,0.0
200065.2,188047.7,231319.2,331300.5,193230.1,198149.1,205996.4,204284.5,0.0
199830.1,187920.7,231165.2,331199.3,193067.5,198045.4,205837.4,204113.0,0.0
198278.4,187009.2,229825.2,329471.4,191635.5,197129.3,204670.3,202316.4,0.0
197152.5,186335.2,228754.6,327971.2,190526.7,196419.7,203808.3,200904.5,0.0
198739.7,187286.3,230018.3,329458.5,191914.6,197338.8,204957.1,202579.5,0.0
200091.0,188069.7,231220.0,331105.6,193246.5,198165.6,206014.3,204296.7,0.0
199857.7,187942.3,231064.2,330998.9,193080.5,198058.0,205849.6,204119.9,0.0
198299.4,187021.9,229719.6,329265.3,191642.9,197131.5,204674.6,202319.5,0.0
197186.5,186360.3,228666.3,327778.8,190546.1,196434.8,203826.0,200922.8,0.0
198744.2,187283.6,229900.8,329235.3,191904.0,197328.7,204946.4,202566.6,0.0
200071.2,188045.1,231079.7,330868.1,193219.2,198138.2,205985.6,204269.1,0.0
199837.8,187913.3,230924.5,330773.7,193057.8,198032.3,205828.2,204102.6,0.0
198295.9,187007.9,229597.5,329066.3,191641.7,197128.5,204677.7,202324.8,0.0
197176.8,186342.1,228532.8,327566.1,190534.1,196423.5,203819.9,200913.0,0.0
198725.9,187263.3,229759.3,329011.9,191884.3,197309.9,204929.7,202544.2,0.0
200058.8,188028.1,230943.6,330641.9,193199.0,198116.0,205964.9,204248.0,0.0
199841.4,187913.7,230805.4,330556.5,193048.7,198019.8,205817.1,204094.4,0.0
198299.6,187014.3,229481.3,328848.8,191630.4,197109.8,204663.3,202317.1,0.0
197167.7,186349.1,228413.1,327352.4,190522.6,196406.5,203808.7,200906.0,0.0
198701.3,187253.2,229622.5,328781.8,191856.3,197277.2,204905.6,202521.0,0.0
200041.2,188020.5,230810.9,330421.0,193178.1,198090.1,205947.5,204232.9,0.0
199806.0,187883.9,230655.2,330324.5,193013.6,197978.2,205782.5,204065.0,0.0
198273.9,186979.0,229334.1,328617.0,191596.8,197066.8,204625.4,202284.9,0.0
197153.8,186320.8,228275.1,327122.2,190500.2,196376.5,203777.9,200875.9,0.0
198747.2,187289.8,229546.9,328613.5,191895.4,197314.2,204940.5,202551.5,0.0
200107.9,188077.3,230755.6,330274.8,193233.4,198141.2,206000.5,204282.3,0.0
199873.9,187943.8,230603.0,330183.2,193071.3,198029.8,205839.4,204121.0,0.0
198342.4,187048.7,229288.3,328487.8,191661.8,197127.9,204692.3,202353.2,0.0
197201.6,186371.5,228215.4,326983.6,190549.8,196425.9,203832.2,200930.5,0.0
198745.1,187292.1,229436.3,328420.7,191896.8,197319.3,204943.8,202553.6,0.0
200083.6,188052.6,230618.3,330046.0,193210.3,198120.6,205974.3,204253.6,0.0
199854.6,187916.6,230463.0,329947.3,193047.0,198006.1,205807.5,204087.2,0.0
198325.2,187019.5,229146.4,328252.4,191638.3,197102.2,204658.8,202318.9,0.0
197181.8,186348.4,228072.4,326737.2,190518.2,196393.7,203793.6,200885.5,0.0
198712.7,187265.7,229288.4,328161.5,191854.2,197278.8,204896.8,202495.0,0.0
200067.4,188037.3,230487.4,329805.4,193184.3,198092.1,205940.8,204212.6,0.0
199836.4,187894.7,230328.9,329703.4,193015.9,197967.6,205766.9,204043.1,0.0
198317.1,187006.4,229026.4,328026.9,191623.2,197081.5,204636.0,202293.0,0.0
197172.0,186335.7,227952.8,326520.9,190510.3,196384.6,203779.6,200868.2,0.0
198691.7,187241.1,229150.3,327925.9,191829.8,197251.2,204866.6,202457.6,0.0
200052.6,188020.8,230358.1,329587.8,193172.8,198078.1,205925.7,204193.1,0.0
199843.8,187901.3,230230.2,329526.5,193035.6,197986.7,205784.0,204061.3,0.0
198334.6,187020.5,228933.6,327852.8,191643.5,197097.9,204649.3,202312.2,0.0
197155.7,186321.6,227825.4,326304.6,190489.5,196362.8,203753.1,200844.2,0.0
198665.4,187216.7,229016.3,327699.2,191802.1,197226.8,204835.2,202423.6,0.0
200068.2,188034.9,230261.8,329398.0,193182.5,198086.9,205930.9,204195.7,0.0
199857.9,187907.6,230126.1,329322.4,193034.8,197978.2,205774.9,204049.6,0.0
198347.5,187028.7,228834.1,327660.1,191650.2,197096.0,204648.9,202310.0,0.0
197151.0,186313.8,227711.8,326101.3,190482.4,196349.3,203744.0,200830.1,0.0
198662.8,187216.2,228905.6,327500.7,191794.3,197216.5,204831.2,202413.2,0.0
200058.8,188025.8,230143.9,329188.1,193159.4,198062.7,205912.0,204173.9,0.0
199837.4,187888.2,229999.2,329110.4,193004.3,197948.8,205750.8,204026.5,0.0
198337.6,187011.3,228712.2,327453.3,191623.1,197068.9,204627.4,202292.5,0.0
197155.2,186314.5,227605.1,325905.3,190472.0,196337.7,203735.0,200822.3,0.0
198655.1,187205.6,228789.9,327291.3,191779.0,197201.8,204813.4,202395.6,0.0
200037.7,187994.8,230012.5,328963.9,193134.0,198032.1,205881.1,204147.8,0.0
199850.4,187892.9,229902.5,328921.7,193016.4,197951.1,205757.9,204038.9,0.0
198370.7,187039.9,228640.1,327296.3,191663.5,197101.4,204665.3,202335.1,0.0
197169.5,186322.6,227513.6,325725.6,190487.8,196352.4,203752.9,200843.3,0.0
198652.5,187202.4,228681.7,327090.8,191774.7,197201.3,204815.6,202396.3,0.0
200027.3,187979.2,229897.2,328755.7,193120.0,198020.6,205872.6,204138.1,0.0
199833.5,187867.0,229781.6,328714.9,193000.0,197934.4,205745.8,204027.0,0.0
198364.5,187026.7,228524.8,327095.8,191653.2,197084.6,204655.5,202327.6,0.0
197156.3,186304.8,227391.4,325516.3,190466.8,196328.3,203733.4,200821.2,0.0
198642.6,187191.0,228563.2,326884.5,191754.5,197183.0,204798.4,202370.7,0.0
200065.2,188024.8,229827.7,328611.6,193159.9,198064.2,205913.0,204169.7,0.0
199885.5,187926.4,229722.6,328584.2,193052.6,197991.2,205795.1,204070.6,0.0
198378.8,187037.4,228425.5,326918.5,191659.4,197095.9,204658.2,202324.6,0.0
197159.1,186309.9,227278.8,325325.9,190461.1,196328.0,203725.7,200803.3,0.0
198621.9,187177.8,228427.1,326670.6,191726.0,197158.7,204771.3,202329.3,0.0
200045.0,188003.7,229685.7,328386.5,193119.3,198022.7,205874.2,204121.0,0.0
199897.7,187936.9,229615.2,328402.0,193047.9,197984.1,205794.7,204064.1,0.0
198381.2,187034.1,228305.1,326724.2,191639.2,197072.0,204642.4,202306.0,0.0
197173.1,186320.7,227177.9,325152.5,190463.5,196330.1,203734.2,200806.4,0.0
198647.0,187203.3,228342.0,326512.2,191744.5,197181.4,204798.9,202349.4,0.0
200044.6,188002.6,229578.1,328206.4,193113.5,198019.3,205879.0,204120.6,0.0
199865.3,187892.7,229471.5,328177.4,192998.9,197932.2,205752.9,204020.1,0.0
198394.4,187039.2,228213.0,326555.1,191643.6,197072.8,204652.4,202319.6,0.0
197199.9,186345.3,227102.0,325002.4,190485.2,196350.2,203761.7,200841.7,0.0
198663.8,187217.7,228252.9,326345.8,191753.5,197190.3,204812.1,202368.5,0.0
200064.8,188016.0,229488.4,328041.4,193125.4,198031.5,205892.4,204139.5,0.0
199886.8,187909.1,229386.1,328021.4,193019.8,197953.4,205774.9,204051.7,0.0
198397.1,187037.1,228111.5,326387.6,191650.5,197079.0,204664.2,202339.9,0.0
197164.3,186304.4,226962.5,324787.3,190450.6,196315.6,203732.7,200814.6,0.0
198621.1,187173.2,228106.4,326115.9,191710.0,197148.6,204772.5,202329.6,0.0
200019.2,187965.1,229335.4,327800.8,193069.8,197975.0,205840.4,204094.4,0.0
199888.6,187912.9,229283.1,327839.7,193019.6,197951.8,205778.1,204065.8,0.0
198421.5,187063.3,228030.9,326230.7,191673.0,197099.5,204688.3,202378.0,0.0
197182.3,186327.1,226876.5,324626.4,190464.5,196327.5,203750.5,200846.2,0.0
198628.3,187187.5,228011.8,325941.9,191712.0,197152.1,204783.2,202347.3,0.0
200045.8,187999.1,229265.5,327652.6,193099.2,198003.9,205878.3,204136.9,0.0
199879.6,187900.8,229179.5,327651.0,193009.2,197935.1,205773.6,204067.9,0.0
198397.1,187032.3,227907.8,326014.3,191640.7,197057.7,204655.4,202353.4,0.0
197145.9,186289.7,226745.2,324396.7,190424.0,196280.4,203709.8,200810.1,0.0
198620.5,187183.4,227910.6,325744.3,191703.4,197138.7,204775.8,202341.6,0.0
200051.4,188004.7,229172.2,327465.7,193101.2,198002.6,205878.2,204143.3,0.0
199892.2,187910.3,229088.7,327465.1,193014.8,197938.5,205776.5,204079.8,0.0
198433.3,187061.7,227838.0,325854.3,191669.4,197084.2,204683.3,202392.4,0.0
197177.2,186317.4,226667.8,324234.5,190449.5,196309.0,203737.6,200845.5,0.0
198606.1,187172.0,227793.7,325544.1,191692.0,197132.7,204769.3,202338.1,0.0
200039.0,187996.4,229063.2,327272.9,193097.2,197996.7,205879.7,204146.0,0.0
199889.3,187910.3,228983.2,327276.8,193010.5,197928.4,205776.5,204082.3,0.0
198445.3,187077.4,227749.4,325685.4,191681.7,197086.1,204697.1,202412.2,0.0
197183.8,186333.9,226581.8,324066.3,190464.0,196312.3,203750.4,200862.7,0.0
198571.4,187148.4,227667.5,325330.2,191664.8,197100.2,204739.8,202310.0,0.0
200008.0,187973.8,228934.5,327054.8,193066.9,197963.4,205844.7,204117.5,0.0
199880.1,187910.1,228877.8,327086.4,193006.9,197920.2,205766.5,204083.4,0.0
198413.0,187054.1,227622.2,325475.8,191655.1,197058.6,204667.0,202391.4,0.0
197154.4,186314.6,226455.7,323855.0,190434.7,196287.6,203721.9,200840.1,0.0
198571.2,187158.7,227564.5,325133.2,191651.2,197096.0,204731.9,202302.6,0.0
200019.9,187993.0,228844.4,326874.3,193066.8,197973.4,205851.1,204122.7,0.0
199885.9,187917.7,228784.1,326908.9,193008.3,197931.8,205773.6,204087.0,0.0
198424.8,187054.5,227527.5,325290.1,191650.7,197058.5,204660.9,202384.8,0.0
197183.9,186333.6,226384.6,323691.9,190455.9,196312.3,203740.3,200857.3,0.0
198572.5,187156.1,227467.1,324949.1,191650.9,197098.9,204732.0,202297.5,0.0
200027.7,187995.7,228752.8,326697.8,193073.3,197979.7,205860.1,204129.0,0.0
199877.6,187902.9,228677.2,326712.3,192992.8,197913.9,205761.3,204080.0,0.0
198432.9,187060.6,227436.7,325117.3,191656.3,197059.1,204671.4,202403.6,0.0
197168.1,186318.1,226267.6,323490.5,190435.4,196286.2,203722.7,200844.8,0.0
198555.4,187143.8,227354.7,324743.3,191634.8,197081.1,204713.4,202280.1,0.0
200013.5,187977.8,228637.2,326482.3,193052.3,197954.0,205828.5,204102.5,0.0
199903.2,187920.8,228599.3,326536.8,193015.7,197927.3,205768.7,204093.3,0.0
198456.2,187081.3,227364.9,324955.4,191692.4,197089.2,204693.2,202429.1,0.0
197156.2,186303.7,226159.8,323291.4,190431.8,196280.3,203711.0,200831.7,0.0
198544.2,187128.4,227248.2,324547.0,191632.1,197075.0,204707.8,202272.2,0.0
200014.5,187977.5,228551.8,326312.0,193073.0,197970.1,205849.6,204123.5,0.0
199897.6,187912.2,228505.3,326356.0,193019.5,197926.9,205775.6,204102.7,0.0
198424.8,187038.4,227237.3,324733.1,191651.5,197042.1,204653.9,202396.0,0.0
197116.7,186255.0,226022.5,323050.4,190376.3,196221.0,203655.1,200779.4,0.0
198525.9,187107.3,227133.4,324326.3,191597.7,197041.3,204672.5,202237.3,0.0
200007.8,187969.7,228446.5,326107.7,193048.5,197945.4,205824.8,204097.9,0.0
199894.2,187910.2,228407.2,326169.0,193004.7,197912.4,205762.9,204089.5,0.0
198450.1,187067.2,227173.1,324586.2,191673.9,197065.8,204679.3,202421.5,0.0
197158.7,186301.7,225974.5,322925.3,190416.0,196265.5,203699.0,200825.4,0.0
198545.5,187132.5,227059.8,324172.1,191607.2,197058.4,204689.1,202254.5,0.0
200015.8,187979.6,228360.2,325939.0,193044.1,197950.6,205827.7,204101.4,0.0
199889.3,187902.8,228302.8,325980.6,192986.8,197897.9,205745.7,204076.0,0.0
198456.0,187066.9,227079.0,324408.8,191669.0,197059.6,204669.8,202421.9,0.0
197146.5,186284.3,225863.6,322731.8,190395.8,196245.8,203675.0,200807.5,0.0
198538.2,187122.3,226954.8,323983.3,191595.0,197052.8,204675.6,202237.9,0.0
200006.0,187964.0,228251.8,325747.5,193029.5,197937.7,205809.8,204083.6,0.0
199897.0,187902.5,228217.9,325815.5,192994.4,197908.9,205752.5,204085.3,0.0
198451.0,187058.0,226980.0,324233.3,191662.9,197057.3,204664.5,202416.1,0.0
197131.7,186278.4,225761.4,322553.7,190389.8,196240.1,203666.4,200799.3,0.0
198503.8,187099.8,226834.2,323784.1,191571.8,197029.2,204648.9,202210.8,0.0
199998.9,187963.3,228152.1,325569.9,193026.7,197932.1,205804.0,204078.0,0.0
199905.3,187912.4,228127.3,325650.0,193004.8,197908.7,205754.8,204091.4,0.0
198456.6,187059.2,226887.3,324061.7,191667.4,197050.0,204662.3,202419.2,0.0
197141.4,186276.7,225669.4,322374.7,190387.8,196230.5,203662.5,200796.3,0.0
198509.7,187093.1,226732.3,323587.9,191555.4,197004.1,204629.7,202191.3,0.0
199988.8,187945.3,228037.7,325361.3,193001.6,197896.9,205770.3,204045.9,0.0
199892.2,187895.3,228018.7,325452.9,192984.8,197883.7,205729.4,204071.3,0.0
198471.7,187067.2,226808.0,323901.3,191679.7,197056.4,204666.3,202435.0,0.0
197149.4,186286.0,225587.9,322217.8,190403.0,196244.3,203672.1,200812.8,0.0
198490.1,187084.2,226630.0,323412.6,191552.5,197008.5,204627.3,202188.9,0.0
199980.3,187935.1,227937.1,325181.3,192993.1,197891.9,205763.5,204041.8,0.0
199888.4,187883.7,227917.3,325268.9,192975.7,197869.0,205717.8,204063.5,0.0
198483.8,187073.7,226723.7,323734.5,191686.8,197056.5,204668.9,202441.5,0.0
197143.3,186278.5,225490.5,322035.9,190392.7,196231.2,203659.5,200801.2,0.0
198486.0,187081.3,226537.4,323234.7,191545.9,197002.4,204623.0,202180.1,0.0
199983.3,187945.3,227858.5,325024.1,193004.5,197909.9,205778.9,204051.0,0.0
199889.9,187886.0,227831.0,325101.3,192975.8,197877.0,205722.7,204064.5,0.0
198485.6,187072.0,226637.8,323568.0,191686.3,197060.9,204675.7,202447.2,0.0
197135.8,186271.5,225395.4,321856.5,190385.2,196227.4,203656.0,200795.5,0.0
198475.3,187076.8,226438.9,323042.9,191535.6,196995.0,204609.7,202161.7,0.0
199979.2,187938.4,227763.7,324833.9,192997.7,197895.5,205765.2,204035.9,0.0
199883.0,187875.9,227736.6,324918.8,192974.1,197864.5,205711.4,204052.9,0.0
198477.9,187062.7,226542.3,323385.2,191683.1,197050.0,204660.7,202430.9,0.0
197144.7,186278.9,225317.9,321698.9,190401.8,196238.4,203662.9,200800.4,0.0
198449.2,187048.9,226324.3,322849.0,191513.5,196969.3,204581.1,202129.1,0.0
199953.6,187918.9,227654.0,324644.0,192978.1,197874.3,205738.6,204006.7,0.0
199889.0,187890.2,227661.6,324765.1,192988.0,197878.0,205717.5,204059.4,0.0
198486.5,187069.7,226464.4,323226.6,191694.7,197054.9,204658.7,202430.6,0.0
197131.9,186264.9,225216.3,321513.1,190388.2,196218.6,203636.8,200769.3,0.0
198442.6,187045.7,226232.4,322672.2,191507.2,196958.9,204570.0,202104.6,0.0
199959.6,187918.4,227567.9,324473.6,192978.3,197867.0,205734.5,203990.0,0.0
199889.5,187874.6,227564.6,324581.6,192978.2,197854.3,205700.8,204033.9,0.0
198492.8,187067.8,226376.1,323061.6,191696.4,197044.1,204657.1,202424.0,0.0
197123.4,186255.2,225120.8,321341.2,190379.3,196202.7,203628.5,200757.8,0.0
198428.8,187029.6,226128.3,322484.2,191486.3,196936.4,204547.7,202076.9,0.0
199961.0,187918.4,227479.3,324307.1,192973.5,197863.4,205730.2,203981.5,0.0
199879.2,187862.1,227463.7,324409.3,192956.3,197834.9,205684.9,204015.9,0.0
198469.5,187037.0,226264.2,322877.5,191660.3,197006.8,204628.4,202396.6,0.0
197106.5,186234.2,225020.7,321168.9,190354.3,196175.7,203614.2,200741.6,0.0
198424.0,187027.4,226043.3,322329.6,191481.1,196927.6,204552.4,202078.2,0.0
199965.1,187921.5,227400.9,324154.6,192975.0,197857.5,205737.4,203987.3,0.0
199884.9,187875.5,227395.0,324271.0,192975.0,197843.0,205708.3,204039.3,0.0
198475.8,187049.5,226195.9,322739.6,191678.9,197014.6,204651.1,202419.5,0.0
197095.5,186223.9,224925.7,320996.3,190345.8,196156.1,203605.7,200732.3,0.0
198393.1,186996.1,225931.7,322135.9,191449.5,196889.0,204526.4,202047.1,0.0
199924.0,187877.9,227279.3,323950.6,192930.8,197803.2,205699.9,203943.3,0.0
199869.6,187844.6,227290.4,324078.7,192944.3,197800.3,205676.6,204003.0,0.0
198480.3,187039.8,226110.4,322572.4,191673.7,196993.9,204638.1,202405.8,0.0
197115.5,186237.9,224860.3,320851.8,190358.8,196159.0,203615.0,200738.2,0.0
198428.5,187031.9,225879.3,322000.5,191477.7,196913.6,204550.4,202063.5,0.0
199956.7,187909.3,227222.0,323814.9,192961.6,197831.4,205722.7,203963.1,0.0
199899.2,187876.8,227231.1,323946.2,192978.4,197830.5,205703.7,204029.1,0.0
198499.1,187059.3,226034.5,322418.7,191685.6,197004.8,204646.4,202410.8,0.0
197115.2,186231.3,224760.6,320671.5,190346.1,196143.2,203593.9,200717.2,0.0
198405.8,187007.3,225761.0,321804.4,191447.1,196881.6,204514.8,202025.8,0.0
199935.8,187884.4,227102.6,323614.6,192922.9,197791.4,205683.2,203916.5,0.0
199906.3,187876.3,227141.2,323775.4,192964.9,197816.0,205691.4,204009.7,0.0
198537.5,187086.4,225981.3,322290.9,191714.2,197027.4,204673.8,202439.1,0.0
197118.9,186231.3,224684.0,320520.2,190351.4,196146.6,203602.6,200722.5,0.0
198383.0,186986.6,225660.9,321626.3,191427.1,196867.0,204501.6,202003.3,0.0
199934.9,187887.5,227028.3,323468.3,192936.3,197809.9,205699.6,203931.2,0.0
199888.2,187856.5,227042.8,323604.9,192952.7,197803.7,205679.2,204003.8,0.0
198520.2,187063.8,225879.9,322115.4,191693.3,197006.0,204651.6,202423.0,0.0
197108.7,186220.5,224587.1,320346.4,190331.2,196132.9,203583.6,200703.1,0.0
198366.3,186968.2,225556.3,321436.1,191396.5,196843.2,204469.2,201966.8,0.0
199925.1,187871.2,226928.2,323279.9,192910.5,197782.7,205668.1,203895.7,0.0
199903.8,187865.5,226973.1,323451.5,192957.3,197805.0,205678.6,203999.8,0.0
198529.1,187066.6,225807.2,321961.1,191694.7,197001.2,204647.3,202416.5,0.0
197124.1,186235.9,224526.3,320206.8,190351.0,196145.0,203597.7,200714.6,0.0
198379.0,186987.0,225493.7,321295.1,191414.5,196855.7,204488.3,201977.4,0.0
199951.4,187899.6,226877.8,323155.1,192938.4,197807.9,205700.3,203919.5,0.0
199912.0,187869.6,226900.0,323302.8,192962.5,197806.3,205686.9,204000.0,0.0
198535.5,187065.3,225727.6,321808.6,191693.3,196996.3,204647.9,202412.6,0.0
197122.5,186223.7,224437.5,320045.3,190337.5,196129.3,203585.9,200698.4,0.0
198365.8,186971.7,225397.1,321126.4,191393.6,196838.2,204469.7,201953.2,0.0
199931.8,187885.0,226778.0,322986.8,192917.4,197791.6,205682.0,203898.1,0.0
199906.0,187868.3,226818.2,323160.7,192965.6,197812.4,205691.8,204008.0,0.0
198532.9,187063.0,225644.9,321662.6,191693.4,196997.2,204648.5,202419.5,0.0
197093.6,186202.1,224328.0,319867.1,190305.2,196102.2,203556.9,200673.0,0.0
198319.5,186933.9,225269.7,320921.7,191336.4,196788.3,204418.9,201901.8,0.0
199918.3,187867.9,226674.8,322800.7,192882.9,197758.7,205649.4,203866.9,0.0
199927.3,187883.9,226750.0,323007.8,192963.9,197810.6,205690.4,204010.8,0.0
198553.6,187071.8,225580.2,321515.6,191699.2,197000.1,204650.6,202429.4,0.0
197114.7,186209.5,224263.0,319717.8,190313.8,196104.0,203559.0,200682.1,0.0
198338.1,186940.3,225202.0,320767.6,191347.0,196790.1,204421.0,201905.8,0.0
199902.5,187844.1,226575.7,322616.5,192861.5,197730.6,205620.5,203841.0,0.0
199915.0,187869.8,226654.1,322832.3,192950.9,197787.6,205668.8,203994.1,0.0
198570.0,187089.7,225511.9,321370.9,191715.0,197001.8,204659.9,202439.5,0.0
197116.6,186217.8,224190.2,319570.6,190325.5,196105.6,203569.8,200687.4,0.0
198319.6,186934.2,225110.6,320601.0,191337.6,196777.5,204415.8,201891.0,0.0
199910.8,187858.3,226506.1,322467.2,192870.2,197734.2,205633.3,203843.4,0.0
199909.2,187866.2,226575.0,322673.2,192946.2,197780.0,205668.5,203985.7,0.0
198561.1,187080.4,225430.9,321210.1,191707.3,196992.4,204652.4,202428.2,0.0
197130.0,186234.4,224123.7,319427.1,190337.5,196116.8,203576.7,200689.6,0.0
198323.1,186943.6,225034.9,320447.9,191345.2,196786.7,204416.0,201884.6,0.0
199884.6,187838.4,226400.8,322287.5,192849.2,197711.5,205602.4,203812.1,0.0
199890.6,187850.2,226468.5,322494.2,192922.7,197750.8,205632.8,203952.3,0.0
198549.7,187071.4,225333.7,321043.8,191693.8,196971.7,204627.9,202407.9,0.0
197120.1,186229.9,224036.3,319271.9,190333.4,196109.3,203566.6,200681.8,0.0
198323.6,186949.2,224957.3,320300.3,191350.5,196789.4,204419.5,201881.5,0.0
199895.5,187848.3,226332.3,322147.7,192865.3,197722.5,205615.7,203815.8,0.0
199901.7,187852.7,226401.6,322355.7,192945.2,197762.8,205648.4,203960.0,0.0
198564.5,187077.7,225263.4,320901.4,191711.2,196977.3,204634.3,202411.2,0.0
197091.3,186192.8,223920.9,319076.4,190294.6,196061.9,203519.5,200631.4,0.0
198286.6,186912.5,224841.5,320103.2,191308.9,196744.4,204372.2,201831.3,0.0
199876.5,187827.4,226233.0,321969.1,192837.7,197691.3,205583.2,203785.7,0.0
199899.1,187848.9,226317.3,322196.5,192931.0,197744.2,205630.1,203948.0,0.0
198569.4,187078.6,225190.4,320759.2,191711.3,196971.8,204632.3,202411.7,0.0
197135.2,186231.2,223879.6,318964.7,190327.0,196087.4,203548.6,200658.8,0.0
198297.9,186920.8,224767.6,319956.9,191306.1,196739.0,204371.3,201824.0,0.0
199859.7,187806.6,226132.0,321794.2,192805.4,197656.0,205556.1,203751.5,0.0
199883.0,187827.8,226218.6,322026.4,192897.4,197709.1,205606.0,203919.5,0.0
198569.8,187078.4,225112.4,320621.8,191703.6,196960.8,204633.9,202417.1,0.0
197110.7,186214.7,223785.9,318818.8,190311.4,196070.4,203541.5,200656.2,0.0
198278.6,186912.5,224676.3,319809.0,191290.4,196727.8,204365.2,201819.5,0.0
199900.2,187856.5,226099.3,321713.8,192852.7,197705.3,205612.0,203812.1,0.0
199926.2,187877.2,226189.5,321953.2,192950.7,197759.5,205666.3,203986.2,0.0
198572.2,187072.9,225035.1,320490.7,191700.0,196952.0,204637.7,202428.0,0.0
197100.8,186190.1,223693.2,318662.7,190282.6,196038.3,203520.3,200641.4,0.0
198271.9,186895.8,224587.9,319657.0,191268.7,196703.7,204349.6,201805.3,0.0
199890.6,187838.1,226004.8,321557.8,192828.6,197681.8,205593.7,203795.4,0.0
199934.8,187876.3,226108.8,321817.1,192947.4,197758.8,205666.8,203992.8,0.0
198609.2,187104.5,224981.9,320384.9,191726.2,196982.5,204668.5,202466.0,0.0
197124.4,186214.9,223632.8,318551.6,190301.8,196062.8,203547.2,200674.2,0.0
198269.6,186893.1,224505.8,319519.3,191262.1,196704.6,204355.9,201816.1,0.0
199881.5,187824.0,225917.0,321409.0,192811.3,197669.3,205587.5,203797.1,0.0
199913.4,187845.8,226006.7,321644.9,192910.8,197719.6,205635.6,203970.6,0.0
198606.0,187095.2,224903.8,320244.3,191719.3,196971.2,204664.0,202473.6,0.0
197128.8,186221.4,223566.0,318429.9,190311.4,196072.2,203561.5,200699.4,0.0
198265.2,186897.3,224426.6,319380.3,191259.7,196705.3,204357.3,201823.7,0.0
199874.0,187822.3,225831.8,321257.3,192804.7,197663.5,205580.1,203794.4,0.0
199916.8,187854.3,225935.0,321511.4,192920.3,197727.9,205640.3,203987.0,0.0
198608.8,187094.2,224826.0,320098.5,191717.3,196963.0,204653.9,202478.9,0.0
197121.7,186211.4,223476.8,318269.3,190299.4,196057.4,203542.4,200692.8,0.0
198251.4,186887.9,224332.1,319211.5,191243.8,196691.9,204338.2,201810.3,0.0
199869.6,187822.1,225749.4,321104.8,192801.2,197661.6,205577.4,203799.5,0.0
199925.0,187860.0,225867.2,321372.3,192926.8,197736.9,205652.8,204007.9,0.0
198625.9,187109.5,224766.3,319973.1,191733.5,196985.1,204676.0,202510.3,0.0
197120.8,186207.1,223394.1,318113.5,190285.5,196046.4,203532.7,200687.1,0.0
198264.3,186900.4,224269.0,319074.0,191249.2,196702.2,204347.8,201819.5,0.0
199875.4,187829.0,225678.2,320964.3,192801.3,197666.0,205577.8,203803.1,0.0
199916.2,187851.7,225776.0,321215.9,192910.4,197720.2,205631.9,203993.1,0.0
198616.1,187098.8,224673.1,319811.8,191715.1,196960.1,204650.0,202491.4,0.0
197110.8,186197.1,223307.3,317958.6,190276.8,196033.1,203516.1,200679.2,0.0
198238.9,186881.9,224167.7,318905.2,191226.4,196678.3,204318.6,201798.2,0.0
199878.1,187842.8,225608.1,320823.5,192809.4,197672.0,205579.5,203810.7,0.0
199927.8,187872.4,225719.0,321086.9,192931.9,197737.6,205647.8,204015.2,0.0
198622.8,187105.5,224611.8,319678.3,191730.4,196967.4,204660.8,202508.9,0.0
197096.0,186180.0,223220.7,317793.4,190259.3,196006.3,203493.2,200660.2,0.0
198214.0,186857.1,224072.1,318722.1,191196.0,196640.3,204284.9,201761.4,0.0
199874.8,187835.8,225537.2,320668.8,192807.9,197661.0,205574.2,203803.8,0.0
199915.8,187851.9,225635.4,320923.9,192918.6,197711.8,205630.8,203998.8,0.0
198616.5,187092.1,224534.9,319522.9,191720.7,196944.6,204647.3,202498.0,0.0
197110.6,186200.0,223171.2,317676.5,190282.2,196023.4,203519.3,200685.7,0.0
198220.7,186871.1,224010.4,318594.8,191208.1,196653.1,204302.1,201774.5,0.0
199870.0,187829.9,225453.1,320516.5,192797.7,197647.4,205565.2,203790.9,0.0
199927.3,187857.6,225564.8,320785.4,192923.2,197709.5,205631.9,204001.2,0.0
198640.0,187107.6,224477.1,319400.0,191738.5,196954.9,204657.3,202517.4,0.0
197121.4,186201.9,223102.8,317537.8,190283.9,196019.2,203513.2,200690.4,0.0
198183.1,186828.9,223899.3,318409.2,191164.1,196603.8,204252.6,201733.7,0.0
199835.2,187787.2,225347.5,320334.4,192757.1,197599.9,205519.7,203757.4,0.0
199926.3,187847.5,225495.4,320639.3,192916.9,197696.5,205624.0,204006.6,0.0
198653.9,187121.8,224424.3,319279.5,191758.8,196972.7,204679.8,202550.1,0.0
197122.2,186209.4,223038.1,317405.2,190300.4,196033.2,203530.2,200711.9,0.0
198202.1,186859.2,223856.0,318293.4,191205.0,196643.5,204295.2,201774.5,0.0
199845.5,187809.6,225295.3,320207.9,192786.8,197629.8,205551.4,203785.3,0.0
199925.0,187856.5,225428.4,320494.8,192927.0,197705.6,205631.0,204013.3,0.0
198631.6,187094.5,224333.0,319101.4,191733.2,196941.8,204647.8,202521.8,0.0
197128.2,186213.3,222975.0,317255.9,190301.2,196032.0,203526.1,200712.3,0.0
198195.3,186860.1,223780.4,318134.0,191195.1,196638.2,204282.5,201762.7,0.0
199825.3,187791.3,225203.7,320032.3,192759.5,197606.1,205522.1,203757.7,0.0
199899.3,187826.9,225329.6,320312.8,192894.0,197673.5,205595.1,203983.2,0.0
198674.3,187139.5,224299.1,318991.2,191771.8,196980.0,204682.3,202565.0,0.0
197149.4,186239.0,222926.8,317134.5,190324.6,196058.7,203547.6,200741.7,0.0
198164.2,186826.0,223680.3,317951.2,191157.5,196605.4,204244.6,201728.2,0.0
199820.7,187784.5,225126.9,319874.0,192745.4,197593.5,205505.3,203744.9,0.0
199915.9,187845.0,225281.4,320193.4,192911.9,197690.3,205612.7,204003.8,0.0
198653.9,187115.8,224218.2,318839.4,191756.5,196960.0,204665.5,202550.5,0.0
197119.2,186199.4,222829.6,316957.0,190290.2,196017.4,203505.8,200699.0,0.0
198172.7,186837.6,223620.5,317811.9,191165.4,196610.7,204244.8,201723.7,0.0
199824.5,187793.8,225065.9,319732.9,192752.8,197600.7,205505.4,203745.2,0.0
199906.0,187835.9,225202.0,320033.5,192903.0,197677.9,205591.9,203989.1,0.0
198656.1,187114.3,224150.3,318694.2,191758.6,196959.8,204655.7,202550.0,0.0
197124.6,186204.8,222770.2,316820.2,190300.2,196029.7,203509.0,200707.6,0.0
198181.8,186850.8,223572.5,317687.7,191189.3,196641.6,204266.7,201743.7,0.0
199831.9,187801.3,225008.0,319604.1,192767.2,197619.7,205518.0,203754.8,0.0
199916.1,187841.6,225143.6,319908.1,192915.2,197695.7,205605.3,203999.9,0.0
198650.0,187099.8,224071.6,318546.4,191747.9,196950.9,204645.3,202538.4,0.0
197101.1,186181.7,222677.3,316662.4,190277.8,196007.1,203487.3,200684.8,0.0
198149.0,186824.5,223474.1,317520.4,191157.4,196614.8,204239.0,201712.0,0.0
199817.2,187790.2,224935.1,319462.8,192760.0,197620.6,205519.0,203751.9,0.0
199917.7,187846.7,225087.4,319785.5,192924.7,197710.1,205623.9,204017.6,0.0
198664.5,187119.6,224027.3,318439.3,191771.1,196977.7,204673.9,202570.1,0.0
197113.3,186198.7,222627.8,316552.8,190297.7,196034.0,203512.5,200711.3,0.0
198133.7,186815.7,223391.6,317368.7,191141.5,196607.8,204229.1,201697.9,0.0
199811.3,187790.5,224854.9,319310.3,192750.5,197611.6,205507.4,203739.5,0.0
199905.0,187837.8,225001.1,319633.8,192916.0,197696.5,205610.0,204004.3,0.0
198647.7,187100.7,223937.6,318283.9,191754.8,196954.5,204657.8,202551.0,0.0
197113.2,186194.5,222553.6,316404.6,190289.4,196015.2,203505.8,200699.9,0.0
198116.0,186790.4,223301.6,317204.5,191115.9,196570.7,204205.4,201667.6,0.0
199809.2,187781.1,224786.4,319172.2,192747.5,197600.6,205511.2,203736.2,0.0
199908.7,187837.6,224937.7,319501.9,192919.8,197695.4,205620.7,204011.1,0.0
198654.4,187103.0,223876.4,318155.1,191764.2,196957.4,204666.3,202564.1,0.0
197089.3,186167.1,222466.0,316248.8,190272.4,195993.8,203487.1,200685.7,0.0
198094.5,186771.5,223218.4,317046.9,191100.6,196553.6,204190.3,201651.4,0.0
199790.4,187761.5,224699.3,319005.8,192726.3,197573.0,205485.5,203710.1,0.0
199911.4,187837.0,224874.6,319359.3,192921.2,197686.1,205615.0,204008.7,0.0
198662.8,187107.9,223824.2,318027.8,191775.6,196955.5,204673.1,202573.3,0.0
197084.4,186160.1,222399.1,316103.2,190267.1,195976.0,203475.5,200674.8,0.0
198078.4,186763.3,223138.7,316890.4,191088.6,196533.6,204172.1,201631.2,0.0
199785.3,187763.3,224632.4,318866.5,192730.7,197567.2,205483.1,203706.5,0.0
199937.3,187863.5,224837.2,319248.3,192952.9,197706.0,205637.5,204030.6,0.0
198688.9,187133.0,223783.3,317912.8,191803.8,196974.1,204689.2,202592.7,0.0
197107.3,186179.2,222352.4,315978.0,190286.6,195989.4,203483.7,200687.5,0.0
198139.5,186822.9,223131.9,316801.4,191146.9,196590.9,204221.1,201680.0,0.0
199822.9,187798.2,224601.6,318755.8,192765.3,197603.9,205507.8,203731.3,0.0
199926.3,187841.8,224753.1,319089.8,192936.7,197688.8,205608.7,204006.5,0.0
198672.7,187100.9,223693.2,317752.6,191780.0,196946.9,204658.7,202565.5,0.0
197105.9,186169.2,222281.9,315842.6,190283.8,195985.6,203480.0,200681.2,0.0
198077.5,186751.4,223005.7,316603.4,191081.0,196528.0,204159.0,201609.4,0.0
199782.7,187744.1,224492.1,318572.2,192713.7,197552.4,205462.4,203676.9,0.0
199910.7,187815.1,224667.0,318929.3,192908.4,197657.2,205587.7,203978.8,0.0
198690.8,187113.4,223641.5,317630.9,191792.2,196953.5,204674.1,202579.2,0.0
197106.5,186166.1,222216.0,315709.7,190283.6,195980.4,203484.0,200684.1,0.0
198082.0,186759.9,222941.5,316473.1,191085.6,196529.7,204168.4,201613.3,0.0
199778.1,187746.1,224422.8,318433.9,192710.8,197545.8,205464.1,203674.9,0.0
199930.5,187840.0,224623.2,318818.9,192928.7,197673.1,205611.7,204005.2,0.0
198714.1,187138.5,223601.6,317527.5,191815.1,196974.2,204700.1,202612.1,0.0
197124.3,186187.5,222173.6,315604.5,190306.8,196004.0,203509.3,200715.2,0.0
198076.3,186757.4,222878.0,316340.1,191083.2,196530.0,204171.0,201619.9,0.0
199795.9,187763.6,224373.5,318312.2,192719.7,197558.0,205477.3,203693.2,0.0
199906.0,187810.7,224532.2,318654.0,192897.8,197642.0,205585.2,203981.2,0.0
198688.5,187103.3,223509.9,317361.1,191786.1,196937.2,204671.0,202584.2,0.0
197105.7,186162.0,222087.2,315444.2,190280.3,195970.5,203484.1,200688.1,0.0
198065.1,186744.3,222793.7,316183.5,191061.3,196503.4,204152.0,201593.3,0.0
199788.9,187752.3,224296.9,318167.2,192710.3,197540.5,205468.8,203678.0,0.0
199930.9,187831.5,224489.8,318544.2,192922.4,197657.0,205608.6,204001.0,0.0
198721.0,187130.2,223477.5,317263.7,191821.0,196963.2,204704.3,202618.8,0.0
197142.8,186200.2,222061.5,315358.4,190327.7,196010.1,203527.9,200734.1,0.0
198058.5,186744.2,222727.0,316058.9,191071.1,196509.5,204158.5,201599.7,0.0
199744.3,187708.5,224187.9,317996.1,192675.7,197503.2,205430.3,203640.4,0.0
199909.6,187808.5,224399.8,318395.3,192903.9,197639.5,205589.0,203987.7,0.0
198716.8,187123.7,223400.0,317128.0,191810.5,196956.4,204695.8,202619.7,0.0
197119.3,186168.9,221966.1,315195.5,190292.5,195978.7,203496.5,200709.3,0.0
198043.7,186729.0,222642.0,315895.3,191042.9,196487.1,204133.3,201572.3,0.0
199753.2,187718.5,224125.5,317856.5,192672.3,197501.1,205425.9,203635.0,0.0
199902.2,187796.7,224321.5,318238.8,192884.5,197613.7,205565.6,203963.3,0.0
198715.7,187113.7,223326.8,316978.3,191799.1,196931.8,204677.7,202599.2,0.0
197153.0,186198.8,221932.3,315089.6,190320.6,195997.1,203524.9,200731.2,0.0
198059.9,186744.5,222595.7,315779.3,191058.2,196496.5,204155.4,201583.4,0.0
199759.7,187726.8,224073.2,317737.8,192685.9,197508.4,205446.3,203644.9,0.0
199921.0,187815.4,224279.5,318134.7,192912.4,197633.2,205596.0,203987.2,0.0
198742.6,187138.1,223287.2,316875.3,191824.1,196950.0,204705.5,202624.7,0.0
197128.6,186171.4,221838.2,314930.2,190289.7,195962.4,203493.2,200702.0,0.0
198022.4,186703.6,222493.1,315604.5,191014.8,196454.2,204109.7,201541.1,0.0
199770.0,187737.0,224014.9,317609.3,192686.3,197512.4,205445.9,203647.2,0.0
199953.0,187848.9,224246.2,318039.8,192942.0,197666.3,205624.7,204021.9,0.0
198745.3,187140.4,223227.7,316758.9,191829.8,196956.3,204704.2,202632.5,0.0
197131.3,186178.5,221781.3,314811.6,190294.5,195966.1,203488.7,200703.4,0.0
198007.3,186700.4,222422.8,315471.2,191007.8,196449.1,204097.6,201527.2,0.0
199757.8,187725.9,223946.4,317474.4,192678.8,197501.8,205432.0,203632.5,0.0
199960.1,187849.5,224192.2,317913.0,192944.2,197660.3,205619.3,204016.5,0.0
198791.2,187183.3,223218.0,316680.3,191878.5,196997.3,204749.0,202678.3,0.0
197142.5,186188.3,221733.7,314698.2,190306.9,195975.0,203499.6,200713.6,0.0
197993.6,186690.9,222345.2,315329.2,190989.7,196429.1,204080.4,201505.1,0.0
199731.4,187701.7,223861.1,317325.7,192651.2,197474.2,205408.3,203602.9,0.0
199932.2,187828.6,224111.2,317776.4,192928.3,197644.5,205606.9,203998.7,0.0
198743.0,187138.5,223111.8,316514.9,191835.9,196952.2,204709.0,202631.2,0.0
197130.4,186180.7,221667.9,314573.9,190308.0,195971.3,203502.1,200706.5,0.0
198008.7,186709.9,222306.1,315224.7,191013.3,196452.5,204108.2,201517.0,0.0
199752.7,187730.5,223823.9,317226.1,192680.2,197502.0,205441.3,203620.2,0.0
199936.9,187833.7,224052.2,317658.4,192935.4,197647.4,205618.1,203998.1,0.0
198739.6,187126.9,223039.7,316382.7,191830.3,196937.6,204701.6,202617.8,0.0
197108.2,186150.9,221577.1,314419.6,190280.5,195934.3,203469.5,200671.6,0.0
197964.6,186659.0,222195.1,315046.3,190964.5,196395.9,204052.0,201459.7,0.0
199732.8,187707.7,223741.9,317081.7,192663.3,197477.8,205415.5,203596.7,0.0
199923.8,187815.0,223977.4,317516.8,192921.7,197623.5,205592.5,203980.4,0.0
198773.3,187160.4,223017.3,316302.0,191872.4,196972.5,204735.7,202661.5,0.0
197134.8,186175.6,221546.7,314334.0,190316.5,195966.3,203503.3,200710.3,0.0
197971.9,186675.3,222149.7,314945.6,190985.5,196420.5,204078.0,201485.1,0.0
199723.7,187700.1,223674.2,316948.8,192655.3,197473.0,205412.7,203594.1,0.0
199920.0,187809.8,223912.3,317388.6,192916.5,197620.4,205592.1,203980.0,0.0
198761.1,187144.3,222941.8,316165.1,191854.3,196951.0,204718.4,202647.1,0.0
197128.1,186168.1,221477.3,314200.4,190302.0,195947.2,203487.3,200698.6,0.0
197980.7,186688.5,222099.4,314832.0,190995.8,196428.4,204085.7,201494.6,0.0
199713.7,187694.6,223603.1,316821.5,192650.4,197463.6,205404.7,203587.8,0.0
199904.1,187799.5,223838.5,317259.3,192905.5,197602.6,205578.5,203972.7,0.0
198750.4,187135.2,222874.0,316039.3,191844.0,196934.3,204708.2,202646.4,0.0
197139.5,186181.3,221435.1,314100.8,190315.5,195956.9,203503.8,200720.6,0.0
197958.1,186666.8,222020.6,314690.5,190966.9,196396.1,204062.8,201470.5,0.0
199708.0,187689.2,223544.8,316699.6,192640.9,197447.1,205400.0,203580.9,0.0
199912.0,187805.3,223792.7,317152.9,192915.8,197601.9,205590.9,203982.8,0.0
198767.0,187151.7,222830.7,315939.2,191863.3,196942.2,204723.9,202661.1,0.0
197131.3,186172.4,221366.4,313976.1,190309.2,195942.7,203494.8,200709.8,0.0
197937.5,186646.7,221936.0,314545.0,190944.6,196372.6,204036.5,201436.4,0.0
199706.9,187690.1,223475.3,316568.9,192635.2,197446.6,205388.3,203561.9,0.0
199919.6,187811.3,223734.0,317035.5,192915.8,197610.4,205587.3,203974.3,0.0
198765.5,187142.3,222766.8,315819.6,191851.6,196939.4,204713.3,202648.0,0.0
197134.3,186173.1,221309.2,313865.0,190303.4,195946.0,203489.0,200702.7,0.0
197956.8,186670.5,221899.5,314460.5,190964.9,196404.3,204058.7,201457.0,0.0
199711.6,187692.2,223424.1,316468.2,192637.5,197456.7,205393.9,203567.5,0.0
199936.8,187819.8,223687.4,316941.0,192923.6,197621.3,205594.6,203985.1,0.0
198795.0,187160.0,222727.5,315734.8,191869.7,196957.2,204728.8,202666.9,0.0
197138.1,186166.8,221241.5,313753.2,190293.4,195936.1,203477.9,200694.1,0.0
197959.0,186670.4,221836.5,314350.6,190953.6,196396.4,204052.6,201449.2,0.0
199719.8,187694.4,223361.8,316359.7,192625.9,197448.7,205388.7,203561.8,0.0
199917.2,187792.8,223600.0,316807.9,192887.7,197586.7,205566.0,203959.3,0.0
198792.8,187153.8,222664.1,315627.0,191861.8,196946.5,204724.6,202670.4,0.0
197162.4,186185.5,221206.3,313671.8,190313.6,195954.9,203500.7,200725.3,0.0
197960.2,186671.8,221776.1,314237.1,190946.3,196390.4,204049.8,201449.2,0.0
199713.8,187696.8,223301.9,316253.3,192624.8,197446.4,205392.7,203569.8,0.0
199932.4,187815.1,223559.8,316729.1,192911.6,197609.0,205592.2,203994.4,0.0
198798.9,187163.1,222611.7,315535.6,191868.9,196955.2,204734.3,202694.1,0.0
197143.4,186170.2,221130.6,313550.5,190292.9,195935.5,203482.4,200721.0,0.0
197932.6,186649.2,221692.9,314103.4,190917.8,196367.1,204024.9,201433.8,0.0
199710.1,187696.9,223242.2,316139.2,192618.1,197447.5,205388.8,203575.4,0.0
199925.5,187808.4,223498.5,316604.3,192894.9,197597.4,205578.6,203991.4,0.0
198798.9,187155.7,222554.7,315413.3,191856.8,196940.4,204722.1,202693.8,0.0
197154.9,186178.3,221088.0,313448.4,190300.0,195940.6,203490.3,200740.4,0.0
197942.3,186660.4,221652.3,314006.1,190932.0,196381.4,204038.5,201456.1,0.0
199670.7,187653.5,223142.8,315978.4,192572.0,197395.3,205339.9,203534.6,0.0
199909.4,187790.2,223419.5,316470.2,192876.2,197568.4,205555.5,203978.6,0.0
198808.9,187167.6,222502.3,315313.9,191873.5,196947.0,204731.0,202715.8,0.0
197138.8,186162.5,221007.9,313312.5,190284.3,195914.5,203464.5,200724.7,0.0
197908.6,186632.5,221556.2,313848.4,190895.5,196340.8,203997.5,201420.3,0.0
199683.4,187667.6,223093.8,315867.6,192582.8,197403.6,205345.4,203547.6,0.0
199938.0,187811.8,223381.6,316368.1,192897.0,197583.5,205567.2,204000.1,0.0
198824.2,187173.2,222452.9,315199.8,191878.9,196944.5,204729.1,202723.3,0.0
197156.3,186180.4,220967.4,313217.9,190304.8,195930.5,203480.8,200746.9,0.0
197900.7,186626.8,221488.3,313722.8,190888.2,196333.8,203987.7,201412.7,0.0
199680.7,187659.8,223027.9,315740.6,192574.2,197393.9,205334.4,203541.3,0.0
199945.3,187817.3,223328.9,316257.0,192901.6,197586.3,205568.0,204010.5,0.0
198839.0,187182.8,222405.3,315091.0,191887.4,196946.4,204730.2,202735.5,0.0
197152.5,186174.0,220899.6,313090.7,190293.4,195914.8,203466.5,200740.7,0.0
197877.1,186608.4,221403.8,313573.4,190857.5,196301.8,203956.5,201383.1,0.0
199668.8,187658.2,222958.4,315604.7,192558.1,197377.0,205319.4,203524.2,0.0
199935.3,187813.6,223260.0,316124.9,192885.6,197567.0,205555.5,203995.7,0.0
198839.3,187188.2,222347.2,314974.1,191884.7,196942.1,204730.8,202738.7,0.0
197160.1,186186.4,220852.7,312977.4,190297.9,195920.9,203471.7,200747.1,0.0
197879.5,186617.0,221353.6,313452.0,190856.5,196305.4,203957.3,201379.0,0.0
199658.9,187652.1,222890.1,315468.8,192542.6,197362.4,205300.9,203503.8,0.0
199928.6,187809.3,223199.1,316000.6,192882.5,197562.3,205547.2,203987.0,0.0
198840.4,187185.9,222295.2,314858.0,191886.1,196940.9,204728.0,202734.6,0.0
197186.9,186209.8,220821.8,312880.1,190319.3,195936.6,203484.5,200761.0,0.0
197890.3,186630.7,221308.8,313342.7,190869.6,196315.0,203963.1,201384.0,0.0
199662.4,187653.3,222841.6,315351.0,192549.4,197366.2,205303.1,203506.1,0.0
199929.7,187801.9,223144.5,315873.3,192879.0,197555.3,205539.0,203984.6,0.0
198851.7,187185.4,222247.0,314740.3,191889.8,196938.4,204725.7,202740.7,0.0
197181.4,186194.2,220764.9,312760.7,190317.9,195928.3,203481.9,200764.1,0.0
197872.5,186607.8,221241.5,313209.8,190855.4,196296.1,203948.7,201371.6,0.0
199660.9,187653.3,222788.0,315235.3,192554.0,197366.9,205302.0,203507.4,0.0
199930.9,187802.0,223091.5,315759.1,192888.5,197555.4,205536.3,203984.8,0.0
198847.2,187179.2,222186.0,314618.2,191895.8,196930.0,204715.3,202736.0,0.0
197182.5,186192.0,220707.7,312639.6,190322.7,195919.8,203472.2,200761.1,0.0
197878.1,186615.7,221188.3,313096.6,190861.2,196295.1,203946.5,201372.2,0.0
199652.0,187645.0,222721.5,315111.4,192544.3,197354.1,205289.7,203497.2,0.0
199921.6,187790.5,223024.7,315637.0,192875.8,197543.3,205523.3,203975.4,0.0
198839.0,187165.7,222125.4,314501.5,191882.7,196919.4,204704.7,202731.8,0.0
197174.2,186183.4,220644.1,312516.9,190304.5,195906.3,203456.0,200751.0,0.0
197862.7,186608.0,221123.0,312966.4,190844.9,196285.2,203931.0,201358.8,0.0
199650.8,187648.4,222668.8,314987.8,192541.4,197353.9,205285.5,203496.0,0.0
199933.8,187807.5,222983.1,315526.7,192886.8,197553.0,205530.8,203992.7,0.0
198839.9,187170.0,222067.5,314375.4,191878.0,196912.5,204694.0,202733.4,0.0
197151.3,186157.2,220561.2,312360.6,190273.9,195871.7,203414.8,200721.9,0.0
197846.6,186589.6,221047.5,312817.1,190819.8,196259.4,203900.5,201334.2,0.0
199663.7,187665.1,222622.8,314874.8,192544.5,197358.4,205289.1,203502.2,0.0
199962.2,187839.1,222955.6,315439.7,192909.8,197575.0,205558.0,204021.7,0.0
198862.9,187198.1,222040.1,314295.4,191907.7,196935.8,204727.3,202769.8,0.0
197176.5,186195.0,220541.2,312294.7,190315.7,195909.3,203464.3,200770.4,0.0
197842.0,186599.8,220997.8,312712.2,190829.1,196268.5,203917.2,201341.3,0.0
199633.3,187638.3,222545.0,314735.7,192526.2,197334.1,205269.9,203476.2,0.0
199917.4,187791.2,222857.3,315274.5,192867.7,197522.5,205507.7,203969.5,0.0
198845.4,187170.3,221963.2,314147.3,191878.5,196896.3,204688.4,202732.8,0.0
197182.2,186192.2,220490.6,312172.4,190312.0,195896.7,203452.2,200761.7,0.0
197832.9,186585.1,220935.4,312574.5,190809.6,196243.5,203893.4,201319.6,0.0
199639.1,187638.1,222494.1,314612.1,192519.3,197319.9,205259.9,203469.6,0.0
199913.8,187775.8,222798.6,315149.4,192857.9,197502.4,205494.4,203964.1,0.0
198862.3,187178.9,221924.2,314052.3,191898.8,196905.1,204701.6,202756.2,0.0
197170.2,186172.7,220421.1,312049.1,190302.8,195876.0,203433.4,200749.6,0.0
197819.4,186565.8,220861.7,312444.4,190798.9,196223.7,203873.1,201300.8,0.0
