EEG 1,EEG 2,EEG 3,EEG 4,EEG 5,EEG 6,EEG 7,EEG 8,TRIG
191562.7,209408.1,235190.6,271559.6,176204.7,367779.5,175502.4,202236.9,0.0
191054.9,209427.5,234731.0,271025.4,176033.7,367680.8,175184.8,201865.0,0.0
189864.3,208366.4,233396.1,269308.1,174570.7,366737.3,174486.8,199737.4,0.0
189645.1,207571.4,232621.4,268454.4,173694.2,366161.8,174359.4,198568.0,0.0
191008.7,208513.7,233487.3,269899.9,175074.5,367045.4,175155.7,200584.0,0.0
191569.0,209483.5,234062.8,270890.6,176316.4,367835.4,175515.3,202278.5,0.0
191047.3,209484.5,233599.1,270347.8,176135.6,367724.0,175179.1,201899.7,0.0
189856.1,208422.4,232275.2,268635.4,174676.9,366780.6,174478.2,199774.2,0.0
189642.9,207636.5,231524.7,267795.6,173810.6,366215.2,174363.1,198613.0,0.0
191004.5,208573.4,232403.6,269243.5,175182.3,367091.8,175161.2,200623.8,0.0
191563.8,209536.0,232995.3,270240.8,176419.7,367876.8,175521.5,202314.9,0.0
191041.9,209539.5,232548.6,269708.1,176247.8,367770.9,175184.0,201941.2,0.0
189873.3,208503.1,231258.8,268030.9,174830.3,366856.3,174490.6,199858.9,0.0
189670.3,207747.3,230533.4,267217.3,174003.6,366318.1,174369.5,198739.0,0.0
191060.0,208733.8,231456.3,268704.6,175430.6,367246.7,175192.2,200793.3,0.0
191638.6,209726.2,232074.9,269720.5,176694.5,368059.2,175569.8,202493.7,0.0
191106.0,209722.2,231628.3,269177.7,176512.2,367947.7,175227.2,202089.8,0.0
189894.7,208634.6,230307.0,267448.3,175033.3,366989.4,174511.5,199924.7,0.0
189662.4,207818.8,229551.8,266584.1,174137.0,366403.8,174370.5,198715.3,0.0
191028.8,208750.3,230447.3,268034.3,175496.3,367279.2,175167.1,200702.6,0.0
191589.6,209709.3,231054.5,269038.5,176731.0,368065.8,175536.3,202378.3,0.0
191066.4,209718.9,230622.1,268517.1,176569.0,367968.8,175213.1,201996.4,0.0
189865.9,208651.7,229311.4,266811.5,175116.8,367032.5,174516.1,199856.5,0.0
189637.7,207835.0,228554.7,265958.4,174228.5,366451.9,174390.5,198652.8,0.0
191017.9,208776.6,229455.8,267422.2,175600.9,367333.4,175188.6,200647.6,0.0
191591.8,209749.0,230078.0,268445.6,176847.7,368128.6,175551.6,202341.4,0.0
191072.0,209755.4,229655.4,267931.2,176680.2,368032.8,175218.7,201964.5,0.0
189866.5,208672.6,228350.2,266222.8,175215.7,367088.4,174498.4,199821.8,0.0
189641.7,207863.3,227609.3,265376.7,174334.3,366516.9,174359.1,198632.2,0.0
191015.0,208802.4,228515.2,266839.3,175704.1,367396.5,175154.4,200633.7,0.0
191585.6,209770.3,229141.4,267864.0,176948.0,368188.1,175518.7,202332.3,0.0
191081.4,209796.1,228746.0,267373.8,176800.9,368109.4,175206.0,201981.1,0.0
189880.2,208727.4,227458.3,265677.8,175347.6,367173.7,174497.8,199851.4,0.0
189638.3,207908.0,226713.7,264817.9,174444.3,366581.4,174346.6,198641.4,0.0
191005.9,208840.6,227633.1,266281.8,175794.8,367449.1,175135.3,200635.5,0.0
191587.5,209815.9,228290.5,267324.7,177033.1,368238.5,175512.7,202346.0,0.0
191091.1,209853.8,227926.4,266851.2,176879.2,368157.3,175208.3,202009.5,0.0
189882.5,208783.6,226659.5,265159.7,175401.4,367207.1,174498.6,199882.1,0.0
189652.0,207968.7,225947.0,264315.0,174493.7,366617.0,174356.8,198683.6,0.0
191031.3,208897.5,226880.4,265785.8,175841.9,367483.6,175152.9,200682.3,0.0
191608.4,209864.5,227531.7,266818.4,177076.4,368262.4,175519.4,202386.2,0.0
191093.8,209830.4,227122.1,266321.4,177026.1,368162.2,175196.8,202025.5,0.0
189875.8,208683.7,225775.5,264613.6,175771.8,367214.7,174492.3,199872.3,0.0
189632.9,207871.5,225041.8,263760.3,174863.7,366617.9,174347.3,198650.3,0.0
191020.3,208817.2,226006.5,265243.6,176192.5,367475.4,175140.2,200650.0,0.0
191600.6,209798.8,226699.5,266293.0,177397.6,368257.8,175517.6,202365.5,0.0
191103.9,209842.8,226366.5,265823.7,177208.0,368171.3,175206.4,202033.8,0.0
189902.1,208778.6,225120.8,264142.6,175706.5,367231.9,174498.2,199912.1,0.0
189650.5,207933.5,224397.9,263280.6,174719.6,366640.9,174329.6,198683.2,0.0
191018.1,208842.1,225329.2,264742.8,176030.5,367493.2,175106.3,200658.6,0.0
191600.5,209807.2,225995.2,265791.0,177250.3,368268.2,175487.5,202363.5,0.0
191103.4,209849.6,225647.4,265333.9,177108.6,368194.0,175185.7,202034.6,0.0
189887.8,208777.6,224384.8,263645.5,175639.5,367238.7,174474.4,199900.5,0.0
189633.1,207946.9,223653.0,262786.3,174715.0,366633.8,174324.4,198674.7,0.0
190986.6,208839.7,224564.5,264237.7,176039.0,367469.3,175105.9,200637.5,0.0
191580.6,209816.4,225244.4,265306.4,177290.6,368269.0,175499.9,202359.4,0.0
191110.6,209883.3,224922.8,264878.4,177182.2,368219.8,175223.0,202051.8,0.0
189913.7,208828.2,223684.6,263214.4,175736.5,367290.9,174524.7,199936.2,0.0
189662.0,207994.1,222971.4,262364.3,174817.1,366693.9,174373.1,198712.7,0.0
191020.2,208893.3,223899.0,263824.4,176137.9,367538.3,175146.8,200679.1,0.0
191609.4,209858.7,224580.1,264887.5,177381.3,368328.0,175525.0,202399.5,0.0
191108.2,209886.7,224233.1,264423.8,177234.7,368241.8,175215.0,202061.8,0.0
189892.5,208813.2,222979.0,262741.4,175771.7,367291.5,174495.4,199927.3,0.0
189627.7,207963.6,222255.8,261883.4,174844.8,366684.2,174340.6,198688.1,0.0
191001.3,208868.9,223199.4,263365.0,176188.0,367544.4,175146.1,200671.3,0.0
191590.0,209837.8,223878.9,264432.9,177439.4,368335.4,175527.9,202392.0,0.0
191091.3,209870.0,223527.6,263974.5,177298.5,368252.5,175212.2,202052.8,0.0
189904.8,208833.3,222302.3,262328.8,175877.3,367334.9,174511.0,199959.0,0.0
189632.5,207987.8,221578.6,261464.5,174949.3,366723.6,174346.1,198717.2,0.0
190997.8,208887.3,222520.5,262934.0,176277.4,367567.4,175138.3,200687.1,0.0
191589.2,209860.1,223218.8,264010.3,177535.3,368360.6,175523.9,202420.1,0.0
191110.9,209927.4,222906.5,263583.1,177424.8,368308.5,175231.1,202121.3,0.0
189913.4,208884.5,221679.8,261925.0,175993.1,367383.5,174528.7,200013.3,0.0
189633.3,208024.6,220946.1,261051.9,175053.4,366756.9,174356.0,198753.2,0.0
190989.8,208914.9,221878.7,262519.3,176379.8,367594.5,175139.0,200717.6,0.0
191591.9,209901.4,222581.6,263604.8,177650.1,368396.1,175527.0,202459.1,0.0
191097.2,209952.7,222252.9,263161.9,177530.4,368324.5,175213.2,202142.4,0.0
189888.9,208904.2,221021.6,261502.3,176096.2,367393.5,174499.7,200027.5,0.0
189615.7,208062.0,220305.7,260640.8,175169.4,366782.8,174337.6,198776.2,0.0
190987.9,208961.6,221260.8,262119.0,176504.4,367630.9,175136.9,200748.0,0.0
191614.5,209967.2,221997.5,263235.0,177797.5,368455.9,175550.4,202516.0,0.0
191146.8,210051.7,221709.0,262827.5,177710.0,368420.3,175261.5,202234.0,0.0
189933.6,209000.2,220483.7,261161.8,176267.1,367486.1,174536.9,200112.4,0.0
189655.4,208149.9,219769.2,260294.2,175329.9,366870.4,174367.6,198852.8,0.0
191014.3,209036.6,220713.2,261760.0,176645.8,367706.0,175147.3,200809.8,0.0
191610.4,210014.3,221423.6,262847.2,177909.4,368501.2,175531.4,202547.1,0.0
191120.7,210065.6,221108.6,262414.1,177793.7,368432.6,175222.1,202233.9,0.0
189935.8,209038.5,219907.1,260780.1,176383.3,367525.1,174526.4,200138.9,0.0
189673.9,208220.0,219214.4,259938.5,175479.4,366943.4,174385.5,198902.9,0.0
191036.9,209119.5,220166.8,261410.2,176801.5,367787.5,175177.1,200857.7,0.0
191641.7,210101.4,220888.1,262507.7,178068.9,368591.0,175568.7,202599.2,0.0
191151.1,210164.5,220582.6,262083.3,177959.6,368534.4,175260.0,202294.4,0.0
189952.1,209135.5,219379.5,260442.4,176544.5,367626.1,174554.1,200197.8,0.0
189661.9,208282.0,218661.7,259569.0,175606.8,367013.4,174381.7,198931.3,0.0
191027.0,209172.5,219618.8,261045.0,176931.3,367860.2,175174.8,200890.3,0.0
191634.8,210158.0,220343.8,262150.4,178207.9,368666.9,175565.6,202641.4,0.0
191138.8,210208.4,220037.9,261725.9,178100.9,368605.1,175259.7,202340.3,0.0
189941.8,209178.6,218836.9,260086.2,176684.1,367694.9,174553.8,200244.7,0.0
189643.9,208318.7,218117.6,259209.8,175740.4,367077.6,174378.1,198970.6,0.0
191000.6,209196.7,219067.0,260676.0,177049.6,367910.5,175163.9,200915.6,0.0
191618.2,210184.7,219804.0,261787.3,178321.9,368717.1,175559.6,202670.6,0.0
191135.0,210253.0,219519.4,261377.5,178216.1,368661.0,175250.3,202380.2,0.0
189932.4,209216.8,218328.5,259736.2,176782.0,367736.6,174536.4,200277.0,0.0
189662.3,208387.5,217650.3,258890.4,175858.9,367144.1,174387.3,199029.4,0.0
191027.3,209278.6,218624.3,260368.9,177175.9,367988.2,175183.0,200988.1,0.0
191650.7,210266.5,219376.8,261485.7,178446.0,368795.4,175582.8,202747.4,0.0
191173.9,210338.5,219100.2,261081.4,178343.1,368744.5,175277.1,202461.3,0.0
189984.2,209318.9,217922.0,259457.1,176932.2,367841.7,174570.2,200376.1,0.0
189686.1,208445.8,217206.5,258575.2,175965.5,367208.3,174381.1,199082.3,0.0
191033.0,209308.2,218154.6,260032.2,177260.1,368026.0,175157.6,201010.2,0.0
191650.9,210301.1,218899.9,261152.0,178546.5,368841.6,175562.3,202774.5,0.0
191165.6,210364.9,218608.8,260741.0,178446.6,368785.2,175252.5,202483.9,0.0
189961.1,209329.7,217415.7,259104.8,177030.8,367869.0,174537.5,200386.8,0.0
189652.0,208457.1,216697.0,258218.4,176073.5,367237.8,174353.7,199089.3,0.0
191003.2,209324.1,217654.5,259679.0,177369.9,368064.5,175140.0,201016.8,0.0
191645.8,210327.4,218428.3,260821.7,178668.8,368897.3,175563.8,202797.0,0.0
191188.0,210419.7,218169.5,260442.0,178596.0,368869.2,175276.9,202535.8,0.0
189986.1,209387.7,216977.4,258808.0,177178.1,367952.9,174560.9,200436.9,0.0
189665.6,208499.4,216248.6,257914.6,176204.7,367310.0,174365.8,199119.7,0.0
190996.8,209364.7,217198.0,259371.1,177504.1,368140.9,175146.9,201042.5,0.0
191617.8,210349.9,217949.3,260489.2,178784.2,368953.8,175547.8,202796.7,0.0
191186.6,210469.6,217723.2,260135.7,178734.8,368954.3,175287.1,202556.6,0.0
190029.3,209489.6,216590.2,258553.0,177365.7,368093.4,174616.2,200505.7,0.0
189703.5,208603.3,215865.6,257654.5,176387.1,367452.1,174418.8,199183.2,0.0
191046.9,209446.0,216813.5,259107.6,177662.8,368263.6,175194.7,201084.7,0.0
191646.3,210410.8,217548.7,260216.9,178919.5,369056.9,175581.2,202819.8,0.0
191176.8,210488.5,217280.3,259827.1,178834.1,369015.1,175286.6,202543.4,0.0
189992.3,209477.3,216116.4,258221.7,177438.8,368126.2,174587.5,200471.4,0.0
189663.5,208584.9,215385.8,257317.4,176450.4,367477.3,174384.2,199143.4,0.0
191003.1,209435.7,216335.3,258772.1,177730.7,368296.8,175160.8,201052.3,0.0
191633.9,210419.2,217095.4,259904.3,179008.5,369108.8,175564.8,202813.4,0.0
191168.1,210495.7,216834.4,259518.6,178920.8,369065.3,175269.3,202543.2,0.0
189975.5,209480.2,215666.0,257905.0,177515.2,368164.6,174559.4,200465.6,0.0
189660.9,208605.0,214957.0,257019.4,176547.3,367535.0,174373.2,199156.2,0.0
191002.7,209452.5,215908.9,258472.3,177823.9,368345.8,175156.7,201060.6,0.0
191613.0,210414.7,216650.5,259585.0,179076.4,369131.6,175551.0,202799.9,0.0
191171.3,210507.0,216407.3,259218.7,179002.0,369100.3,175271.7,202540.4,0.0
190006.6,209519.4,215266.2,257637.3,177627.0,368220.8,174589.6,200492.8,0.0
189664.8,208627.8,214536.6,256732.1,176639.0,367568.0,174383.6,199160.1,0.0
190986.1,209456.7,215475.1,258171.8,177900.9,368365.6,175141.0,201044.6,0.0
191602.7,210415.8,216222.0,259287.9,179158.5,369155.4,175528.3,202786.0,0.0
191157.2,210512.9,215984.4,258924.2,179082.9,369124.6,175243.8,202530.4,0.0
189993.5,209526.8,214853.7,257343.8,177705.1,368249.2,174560.3,200485.1,0.0
189670.2,208647.4,214149.5,256456.7,176727.0,367613.1,174374.5,199164.9,0.0
190996.1,209483.6,215099.6,257901.9,177991.3,368418.8,175147.7,201053.6,0.0
191633.7,210469.2,215874.0,259047.8,179276.5,369236.7,175560.8,202822.7,0.0
191212.8,210577.4,215659.5,258708.2,179229.3,369229.4,175298.7,202594.3,0.0
190051.2,209599.9,214527.8,257128.9,177858.1,368361.1,174613.9,200544.5,0.0
189700.9,208696.3,213793.0,256215.2,176857.6,367702.8,174398.8,199191.9,0.0
191016.3,209514.0,214723.7,257646.9,178106.0,368490.6,175153.5,201062.1,0.0
191643.5,210485.1,215484.3,258780.4,179376.4,369291.2,175552.5,202820.0,0.0
191207.0,210591.1,215260.4,258432.9,179321.0,369273.1,175278.6,202585.8,0.0
190018.4,209581.0,214112.8,256835.6,177926.3,368380.6,174578.4,200523.3,0.0
189672.3,208678.3,213385.3,255925.5,176925.1,367726.5,174369.6,199172.4,0.0
191002.6,209515.1,214337.5,257372.9,178184.5,368529.5,175145.0,201053.7,0.0
191634.6,210493.1,215109.9,258518.2,179459.4,369333.2,175552.9,202824.6,0.0
191200.3,210604.3,214891.6,258177.1,179408.0,369318.4,175275.5,202597.7,0.0
190019.0,209619.0,213756.7,256593.7,178030.5,368439.4,174576.0,200543.3,0.0
189664.3,208703.9,213021.2,255670.5,177016.1,367770.3,174355.5,199176.8,0.0
190993.3,209528.7,213970.0,257112.8,178271.5,368567.7,175129.8,201053.7,0.0
191643.0,210524.9,214761.5,258279.7,179569.5,369393.7,175553.7,202843.3,0.0
191233.8,210657.9,214566.6,257965.9,179542.5,369401.2,175299.5,202640.8,0.0
190049.6,209664.6,213426.2,256376.7,178156.5,368513.9,174600.3,200585.0,0.0
189684.1,208752.2,212688.3,255450.0,177141.0,367847.0,174383.5,199220.0,0.0
191005.4,209568.9,213630.2,256886.0,178387.0,368637.3,175147.3,201087.8,0.0
191653.2,210560.7,214420.3,258046.3,179676.6,369455.0,175566.7,202869.0,0.0
191230.2,210688.2,214219.8,257721.3,179641.3,369453.3,175301.9,202660.0,0.0
190035.7,209683.5,213071.0,256125.2,178246.5,368555.5,174590.2,200592.2,0.0
189672.8,208761.1,212330.3,255198.7,177222.0,367880.8,174368.6,199215.2,0.0
190983.7,209572.7,213262.9,256625.6,178455.2,368662.7,175119.3,201070.5,0.0
191608.8,210539.3,214030.8,257763.8,179719.2,369459.7,175508.6,202831.9,0.0
191188.1,210667.8,213837.5,257446.0,179684.6,369462.7,175244.5,202626.6,0.0
190049.4,209713.7,212750.3,255903.4,178340.5,368619.0,174584.0,200612.5,0.0
189723.0,208834.1,212056.4,255014.0,177357.0,367987.6,174405.9,199274.7,0.0
191070.8,209686.7,213034.8,256485.0,178634.2,368811.6,175203.2,201170.9,0.0
191704.8,210668.8,213817.9,257637.8,179912.1,369617.8,175606.3,202942.7,0.0
191256.7,210773.3,213599.6,257289.5,179850.3,369590.0,175310.0,202709.0,0.0
190064.1,209775.3,212465.2,255698.5,178453.5,368697.2,174593.3,200643.7,0.0
189710.8,208868.0,211747.9,254779.0,177435.0,368037.7,174383.8,199273.9,0.0
191031.5,209678.6,212702.3,256217.7,178677.4,368829.2,175157.9,201137.4,0.0
191661.8,210658.3,213487.1,257369.3,179957.4,369637.9,175565.9,202911.0,0.0
191228.9,210761.3,213275.3,257034.7,179903.5,369614.6,175285.9,202685.1,0.0
190054.0,209775.9,212152.8,255464.8,178529.0,368736.5,174593.9,200637.8,0.0
189686.1,208857.8,211419.6,254536.2,177500.2,368064.3,174372.9,199251.1,0.0
191009.6,209675.8,212369.8,255973.9,178740.8,368856.2,175143.5,201108.0,0.0
191665.1,210680.3,213173.9,257151.4,180040.5,369683.6,175567.0,202901.2,0.0
191255.0,210824.9,212995.1,256852.3,180023.7,369700.3,175311.3,202716.1,0.0
190059.2,209821.2,211856.5,255261.4,178625.3,368804.7,174596.2,200648.5,0.0
189691.6,208896.8,211119.7,254331.3,177593.0,368130.0,174371.4,199258.3,0.0
191008.2,209698.4,212059.1,255755.5,178817.0,368906.4,175125.3,201101.0,0.0
191667.6,210684.3,212863.5,256934.4,180106.4,369723.6,175542.7,202888.8,0.0
191249.4,210823.5,212678.0,256628.6,180082.5,369733.0,175276.0,202693.8,0.0
190065.8,209835.8,211546.5,255042.8,178695.4,368849.2,174569.5,200636.2,0.0
189723.5,208941.5,210836.3,254139.6,177690.4,368203.4,174371.6,199270.6,0.0
191036.3,209746.0,211784.8,255570.1,178923.6,368987.3,175137.5,201119.8,0.0
191688.9,210716.8,212576.8,256729.9,180191.8,369782.7,175551.8,202887.3,0.0
191258.2,210852.3,212385.3,256423.6,180164.6,369787.8,175288.7,202688.7,0.0
190052.9,209846.2,211238.6,254827.0,178759.3,368887.1,174567.0,200612.6,0.0
189669.4,208897.0,210485.3,253873.9,177696.5,368185.7,174330.2,199192.6,0.0
191042.1,209774.6,211495.5,255375.3,178992.3,369035.6,175148.6,201109.5,0.0
191697.8,210766.8,212308.4,256555.0,180279.9,369856.6,175559.7,202901.3,0.0
191251.9,210869.5,212102.2,256221.0,180217.0,369826.7,175268.8,202672.3,0.0
190055.5,209874.8,210969.5,254629.1,178823.0,368933.9,174558.0,200608.5,0.0
189694.7,208959.0,210245.1,253704.3,177797.7,368271.7,174341.1,199225.1,0.0
191008.8,209770.8,211194.8,255138.8,179028.4,369054.2,175106.4,201075.8,0.0
191674.8,210789.1,212023.9,256339.5,180346.0,369900.1,175548.0,202895.8,0.0
191248.2,210914.9,211832.0,256022.8,180301.5,369890.9,175265.5,202687.5,0.0
190056.7,209911.8,210700.2,254436.0,178897.1,368994.3,174547.1,200621.0,0.0
189681.6,208994.5,209975.1,253504.1,177864.7,368329.7,174332.3,199237.3,0.0
191007.6,209797.9,210939.0,254946.2,179096.3,369117.4,175101.9,201093.4,0.0
191653.9,210775.9,211740.1,256113.4,180368.7,369921.0,175512.3,202868.6,0.0
191244.0,210915.7,211570.1,255812.1,180338.5,369929.5,175262.5,202673.2,0.0
190104.4,209976.8,210496.1,254281.2,178998.5,369092.5,174592.0,200673.0,0.0
189725.3,209050.8,209767.5,253351.5,177962.8,368421.8,174364.3,199280.3,0.0
191039.0,209839.4,210717.4,254784.6,179177.7,369194.8,175125.8,201116.7,0.0
191696.3,210835.8,211535.0,255968.9,180472.1,370019.5,175553.8,202914.0,0.0
191264.7,210959.9,211349.4,255651.5,180432.0,370015.3,175281.6,202708.1,0.0
190099.2,209991.0,210249.9,254095.6,179060.8,369149.2,174590.3,200668.9,0.0
189713.3,209062.8,209513.2,253154.0,178010.7,368467.4,174354.7,199260.6,0.0
191022.4,209865.1,210463.2,254584.5,179225.6,369242.6,175113.1,201098.9,0.0
191672.6,210843.9,211272.5,255759.0,180501.9,370049.3,175527.8,202884.6,0.0
191241.2,210958.0,211085.5,255445.3,180454.5,370036.3,175252.8,202674.6,0.0
190063.0,209979.7,209977.0,253881.1,179079.1,369164.5,174555.2,200631.8,0.0
189684.5,209058.6,209250.2,252946.2,178042.3,368495.0,174333.3,199239.1,0.0
190997.6,209847.8,210199.0,254375.2,179252.7,369262.9,175094.1,201077.3,0.0
191673.5,210853.5,211030.7,255575.6,180554.1,370094.3,175529.4,202891.6,0.0
191257.4,210991.3,210859.3,255278.3,180525.0,370099.3,175263.9,202703.0,0.0
190066.8,209997.4,209742.3,253700.6,179132.6,369210.8,174557.8,200647.9,0.0
189688.5,209066.4,209013.2,252762.5,178084.5,368528.3,174335.4,199248.1,0.0
191003.2,209865.7,209965.7,254197.7,179298.0,369299.9,175097.1,201094.4,0.0
191657.6,210850.5,210779.7,255380.0,180581.0,370112.0,175517.4,202893.9,0.0
191255.7,210998.3,210626.0,255098.1,180566.2,370131.1,175274.4,202723.4,0.0
190080.5,210028.4,209527.6,253537.4,179190.1,369259.8,174579.4,200686.8,0.0
189680.6,209079.2,208783.3,252580.1,178121.8,368560.8,174335.0,199267.5,0.0
190990.7,209860.9,209729.2,254000.9,179319.9,369318.3,175087.3,201097.5,0.0
191664.7,210863.2,210564.9,255206.2,180621.9,370146.7,175521.2,202916.7,0.0
191251.7,211002.8,210404.8,254919.7,180600.4,370156.9,175267.6,202742.0,0.0
190064.8,210015.1,209298.8,253354.4,179216.3,369277.0,174562.1,200700.2,0.0
189675.7,209076.2,208563.8,252405.9,178154.0,368585.5,174317.6,199286.5,0.0
190988.4,209859.6,209516.7,253830.7,179352.6,369344.3,175069.4,201122.3,0.0
191658.7,210852.3,210349.4,255026.1,180643.6,370161.4,175498.0,202937.0,0.0
191250.1,210998.5,210195.6,254742.2,180627.0,370174.0,175247.3,202771.1,0.0
190072.5,210023.6,209098.9,253181.4,179250.5,369300.3,174552.9,200740.2,0.0
189686.8,209076.2,208368.1,252237.9,178188.3,368609.2,174324.0,199330.3,0.0
191018.8,209874.5,209339.7,253685.0,179408.9,369391.0,175100.0,201188.9,0.0
191688.4,210869.2,210173.1,254881.4,180705.8,370214.3,175525.0,203011.6,0.0
191274.6,211004.9,210008.9,254589.0,180678.5,370217.8,175258.5,202833.9,0.0
190085.1,210009.2,208893.4,253014.7,179282.4,369326.3,174547.7,200780.9,0.0
189705.9,209090.2,208176.5,252087.7,178241.8,368659.0,174333.6,199387.1,0.0
191028.4,209896.8,209145.9,253535.4,179466.4,369445.1,175115.9,201246.7,0.0
191700.3,210903.8,209987.9,254748.8,180782.1,370283.8,175556.2,203083.3,0.0
191290.4,211047.8,209832.2,254467.7,180770.5,370297.9,175294.8,202919.7,0.0
190097.2,210052.2,208718.2,252888.9,179377.2,369405.3,174575.5,200867.9,0.0
189693.4,209096.6,207975.2,251929.1,178305.9,368704.8,174330.9,199438.8,0.0
191011.8,209876.4,208932.4,253363.1,179513.8,369474.3,175098.1,201279.3,0.0
191707.3,210901.6,209793.4,254593.9,180846.3,370332.4,175552.6,203133.4,0.0
191296.4,211057.5,209647.6,254319.2,180844.8,370356.9,175299.8,202976.5,0.0
190104.8,210067.6,208544.3,252750.0,179459.8,369471.6,174590.2,200927.3,0.0
189709.8,209111.1,207807.2,251794.0,178390.3,368773.9,174349.9,199491.2,0.0
191011.4,209872.0,208747.8,253206.8,179576.6,369521.0,175094.5,201301.6,0.0
191700.5,210890.4,209608.2,254436.1,180904.8,370371.0,175547.1,203146.0,0.0
191310.6,211057.0,209479.1,254181.0,180918.9,370410.2,175310.3,203002.9,0.0
190119.9,210078.3,208374.6,252615.9,179542.3,369534.9,174593.2,200960.8,0.0
189706.5,209122.4,207627.5,251651.0,178464.7,368831.4,174342.5,199520.0,0.0
191018.6,209897.5,208582.4,253077.4,179662.9,369593.8,175110.1,201346.6,0.0
191712.8,210921.4,209444.3,254310.3,180993.1,370446.0,175571.2,203197.7,0.0
191313.5,211079.5,209302.8,254042.2,180989.5,370469.7,175323.8,203046.7,0.0
190123.0,210089.6,208194.0,252469.7,179598.0,369581.6,174598.3,200997.1,0.0
189715.2,209131.2,207447.5,251506.2,178518.8,368875.9,174341.6,199553.3,0.0
191022.7,209912.5,208403.4,252935.2,179721.4,369642.8,175104.4,201382.0,0.0
191706.2,210926.5,209260.3,254160.5,181043.1,370489.3,175550.7,203223.6,0.0
191322.7,211089.8,209134.2,253903.6,181046.8,370524.3,175305.4,203077.5,0.0
190137.7,210095.9,208030.0,252334.1,179650.2,369630.4,174585.1,201023.6,0.0
189721.2,209133.8,207281.7,251364.9,178563.0,368917.6,174331.9,199566.5,0.0
191032.3,209929.5,208245.5,252794.5,179773.9,369695.7,175110.0,201392.7,0.0
191710.6,210936.6,209095.8,254012.9,181080.6,370532.1,175548.1,203225.2,0.0
191307.9,211087.3,208954.5,253744.2,181066.0,370544.7,175283.5,203066.1,0.0
190128.7,210115.3,207863.8,252186.5,179681.1,369664.9,174577.1,201031.4,0.0
189713.0,209157.6,207118.0,251217.4,178595.1,368952.6,174327.4,199582.4,0.0
191014.0,209932.8,208072.4,252645.0,179788.8,369714.4,175096.7,201403.4,0.0
191679.2,210906.0,208899.8,253841.7,181065.9,370520.1,175523.2,203208.2,0.0
191300.4,211063.8,208769.9,253584.0,181060.7,370544.2,175282.9,203057.9,0.0
190153.1,210125.0,207708.7,252064.8,179719.0,369692.0,174593.8,201066.3,0.0
189736.3,209176.7,206972.1,251107.7,178646.8,368991.2,174349.2,199632.0,0.0
191014.3,209922.1,207901.3,252503.6,179811.6,369724.0,175089.5,201421.8,0.0
191697.2,210919.0,208752.3,253721.5,181114.2,370550.6,175524.0,203253.5,0.0
191323.5,211092.4,208635.6,253476.9,181129.0,370588.5,175277.2,203124.3,0.0
190153.3,210127.8,207551.7,251927.9,179754.1,369713.3,174562.8,201095.8,0.0
189714.4,209153.9,206792.9,250943.0,178649.0,368988.9,174300.5,199626.5,0.0
191013.2,209917.1,207746.6,252359.2,179831.1,369744.2,175065.0,201432.2,0.0
191705.5,210923.3,208605.2,253585.6,181138.0,370581.2,175512.4,203269.8,0.0
191299.7,211070.8,208458.3,253313.5,181098.0,370587.4,175252.3,203111.5,0.0
190144.3,210113.5,207388.3,251781.0,179724.5,369724.6,174561.6,201098.1,0.0
189748.7,209182.8,206671.2,250838.3,178662.8,369038.1,174328.2,199664.4,0.0
191019.3,209920.9,207601.3,252225.0,179814.3,369763.3,175060.9,201439.4,0.0
191682.8,210890.4,208433.1,253422.2,181086.6,370565.7,175481.3,203244.8,0.0
191305.1,211061.4,208310.6,253176.3,181095.9,370592.4,175238.0,203108.8,0.0
190148.4,210116.8,207246.9,251648.0,179746.7,369741.2,174556.0,201104.6,0.0
189738.7,209169.1,206515.3,250692.2,178674.8,369046.1,174329.7,199664.8,0.0
191050.2,209952.0,207480.3,252124.5,179874.0,369817.0,175104.4,201486.3,0.0
191714.9,210928.3,208308.6,253317.7,181149.5,370619.5,175503.7,203290.1,0.0
191308.4,211064.6,208161.0,253045.3,181126.4,370618.6,175227.3,203127.5,0.0
190144.2,210111.0,207090.2,251514.2,179771.0,369757.9,174532.8,201120.5,0.0
189734.2,209164.9,206358.3,250559.5,178694.6,369065.0,174294.1,199679.7,0.0
191037.3,209940.6,207313.1,251977.9,179883.8,369825.5,175063.2,201489.0,0.0
191711.3,210927.0,208158.0,253187.8,181179.0,370642.6,175500.2,203311.5,0.0
191330.0,211091.1,208035.7,252940.7,181186.6,370666.9,175257.4,203174.8,0.0
190156.0,210119.3,206952.0,251394.5,179817.5,369791.3,174555.0,201151.7,0.0
189736.0,209164.4,206204.2,250423.9,178727.0,369080.4,174305.4,199691.2,0.0
191030.6,209929.9,207149.6,251837.2,179908.4,369832.7,175063.6,201488.7,0.0
191727.8,210943.4,208012.8,253074.1,181233.0,370677.1,175516.0,203337.3,0.0
191315.7,211075.9,207858.2,252795.2,181214.4,370675.7,175236.0,203172.8,0.0
190137.1,210106.2,206767.7,251245.4,179839.8,369796.4,174519.2,201139.6,0.0
189728.8,209164.7,206034.9,250289.9,178767.1,369104.9,174283.8,199692.2,0.0
191043.6,209942.9,206999.7,251722.0,179967.4,369876.2,175060.6,201505.5,0.0
191733.1,210951.2,207859.0,252951.2,181282.6,370710.0,175507.3,203342.2,0.0
191335.2,211105.9,207725.0,252691.0,181282.1,370726.5,175254.2,203196.9,0.0
190173.1,210156.4,206654.8,251159.8,179929.4,369867.6,174556.0,201187.2,0.0
189746.7,209189.6,205903.4,250181.8,178831.0,369152.1,174293.2,199715.4,0.0
191021.1,209925.6,206830.3,251574.3,179986.2,369881.0,175034.4,201485.3,0.0
191705.3,210922.8,207682.5,252801.5,181298.1,370712.9,175480.3,203323.3,0.0
191327.1,211100.4,207564.1,252562.4,181316.6,370751.8,175238.7,203202.9,0.0
190159.3,210138.4,206487.5,251023.0,179951.3,369882.9,174534.7,201185.0,0.0
189721.3,209160.1,205726.9,250035.9,178842.7,369155.0,174269.8,199701.3,0.0
191011.2,209921.3,206672.1,251447.1,180019.5,369903.9,175030.2,201491.5,0.0
191696.2,210920.2,207526.9,252675.1,181329.3,370731.9,175471.2,203326.2,0.0
191330.3,211100.9,207423.0,252451.2,181356.6,370778.3,175241.0,203213.9,0.0
190171.7,210165.2,206363.2,250928.8,180013.4,369931.6,174550.3,201216.6,0.0
189729.0,209182.7,205597.3,249933.0,178897.5,369197.3,174279.2,199724.5,0.0
191013.6,209930.2,206531.5,251331.6,180062.2,369934.6,175031.4,201502.2,0.0
191697.0,210925.9,207385.8,252557.6,181371.4,370761.3,175470.2,203337.3,0.0
191316.5,211086.8,207265.3,252311.6,181375.4,370784.4,175223.7,203203.2,0.0
190154.8,210131.9,206197.8,250777.9,180014.5,369919.8,174525.4,201191.4,0.0
189719.1,209161.3,205442.6,249795.8,178912.4,369199.4,174263.0,199712.0,0.0
190992.5,209897.5,206365.9,251183.4,180061.5,369922.6,175000.7,201475.3,0.0
191678.6,210891.0,207218.9,252408.6,181368.0,370747.8,175442.3,203311.7,0.0
191313.3,211072.9,207114.8,252185.4,181395.7,370791.7,175208.4,203201.2,0.0
190151.0,210121.8,206046.8,250657.9,180037.6,369928.2,174501.0,201192.9,0.0
189717.2,209160.8,205295.5,249680.6,178942.1,369216.4,174243.3,199720.3,0.0
191009.1,209909.6,206240.4,251086.4,180111.9,369960.3,175001.7,201502.3,0.0
191695.5,210896.1,207090.7,252304.3,181410.4,370774.1,175439.2,203332.2,0.0
191301.1,211050.4,206961.6,252055.1,181414.2,370791.0,175187.1,203198.5,0.0
190147.0,210102.9,205901.5,250532.6,180066.0,369933.6,174496.1,201196.1,0.0
189729.2,209153.2,205165.7,249564.2,178979.9,369229.2,174251.0,199731.6,0.0
191011.6,209890.0,206099.2,250958.1,180136.4,369959.0,174998.6,201503.0,0.0
191710.9,210896.4,206966.8,252199.6,181459.0,370797.0,175449.0,203357.2,0.0
191328.2,211063.7,206847.6,251958.9,181473.9,370824.1,175201.8,203231.7,0.0
190162.7,210109.9,205779.6,250430.3,180118.3,369955.4,174503.9,201219.9,0.0
189711.5,209125.0,205016.1,249435.7,179004.5,369221.6,174232.6,199723.4,0.0
190982.5,209859.0,205941.7,250819.9,180154.7,369946.7,174973.1,201487.3,0.0
191665.0,210850.3,206793.9,252044.2,181459.6,370772.8,175413.8,203322.0,0.0
191293.3,211017.1,206679.2,251809.3,181469.0,370801.5,175174.0,203193.4,0.0
190165.8,210103.8,205646.2,250320.7,180156.1,369973.6,174499.4,201229.7,0.0
189726.1,209146.1,204899.3,249344.0,179065.9,369266.6,174241.3,199755.7,0.0
190995.3,209878.0,205824.9,250729.6,180214.3,369991.7,174978.9,201511.8,0.0
191685.8,210872.6,206680.8,251957.6,181524.1,370816.7,175420.2,203349.6,0.0
191316.4,211047.2,206571.8,251726.6,181546.0,370849.9,175178.5,203231.2,0.0
190162.8,210110.5,205516.5,250210.7,180206.6,369996.8,174483.4,201232.1,0.0
189720.1,209138.0,204761.1,249226.8,179104.5,369276.9,174221.8,199743.5,0.0
191000.9,209874.8,205693.1,250620.6,180262.3,370008.0,174971.0,201508.0,0.0
191697.8,210872.8,206556.1,251858.8,181579.6,370839.0,175418.0,203352.1,0.0
191319.6,211040.9,206444.3,251627.1,181601.7,370870.8,175174.6,203232.6,0.0
190163.5,210107.7,205394.0,250113.6,180265.1,370021.9,174482.8,201241.3,0.0
189709.6,209126.0,204629.0,249111.9,179147.5,369287.4,174207.7,199739.9,0.0
190982.4,209857.0,205555.9,250497.4,180297.0,370011.2,174947.5,201495.9,0.0
191675.1,210846.3,206416.6,251734.1,181608.5,370835.7,175390.4,203336.9,0.0
191325.0,211045.5,206334.2,251535.3,181657.8,370895.9,175176.4,203250.5,0.0
190175.9,210122.8,205290.8,250026.4,180330.4,370057.4,174493.6,201270.0,0.0
189726.4,209147.9,204527.5,249028.0,179216.6,369329.1,174219.4,199769.9,0.0
190989.9,209868.4,205441.5,250401.2,180354.5,370045.1,174951.1,201515.5,0.0
191691.3,210875.3,206314.5,251647.8,181679.5,370886.3,175400.7,203373.0,0.0
191329.6,211063.2,206221.3,251433.1,181715.0,370933.8,175167.2,203271.4,0.0
190181.4,210131.1,205173.6,249921.9,180378.8,370086.6,174474.8,201279.8,0.0
189724.6,209151.5,204409.0,248924.1,179267.9,369363.0,174202.9,199782.3,0.0
191005.6,209895.4,205344.2,250321.0,180428.9,370103.6,174956.9,201549.5,0.0
191697.0,210899.5,206207.7,251560.6,181744.5,370937.3,175406.0,203398.7,0.0
191323.6,211073.9,206102.4,251335.4,181766.7,370974.4,175170.0,203289.0,0.0
190175.3,210144.6,205057.2,249829.5,180432.0,370131.3,174486.0,201304.7,0.0
189724.9,209164.4,204295.5,248830.9,179310.8,369400.4,174211.2,199802.1,0.0
191006.0,209910.3,205231.6,250222.3,180463.3,370134.5,174961.2,201564.5,0.0
191706.5,210925.5,206109.1,251474.0,181792.9,370980.9,175411.8,203426.2,0.0
191336.2,211106.3,206008.1,251254.3,181821.3,371024.4,175171.6,203324.4,0.0
190169.8,210152.8,204948.9,249732.1,180468.2,370166.4,174469.6,201323.5,0.0
189712.8,209168.7,204181.9,248726.6,179343.3,369431.5,174189.3,199814.0,0.0
190992.2,209912.8,205119.0,250119.0,180494.5,370164.8,174938.4,201574.7,0.0
191697.8,210929.5,206000.8,251372.6,181827.0,371016.7,175398.1,203441.9,0.0
191333.1,211117.0,205905.7,251154.4,181861.5,371065.6,175168.0,203342.0,0.0
190178.8,210178.0,204851.8,249634.0,180513.3,370208.7,174470.6,201341.2,0.0
189724.6,209189.6,204087.6,248626.2,179382.8,369470.0,174194.2,199826.2,0.0
191004.1,209927.3,205024.0,250015.9,180526.6,370197.3,174942.5,201580.7,0.0
191708.7,210940.0,205901.6,251269.8,181853.9,371041.1,175399.2,203443.7,0.0
191341.9,211128.9,205802.4,251055.7,181885.5,371083.2,175165.3,203342.2,0.0
190181.3,210184.3,204748.8,249540.8,180538.7,370226.5,174469.3,201346.6,0.0
189727.3,209201.8,203989.0,248542.3,179415.5,369492.8,174197.5,199839.5,0.0
191000.1,209931.7,204916.3,249924.5,180552.2,370209.4,174938.1,201586.5,0.0
191701.2,210939.4,205787.9,251173.5,181874.0,371043.7,175390.9,203445.5,0.0
191333.0,211128.7,205694.5,250963.4,181913.5,371093.3,175162.3,203352.3,0.0
190174.7,210185.9,204643.2,249450.9,180571.1,370239.8,174471.3,201360.9,0.0
189716.5,209195.3,203875.9,248444.6,179445.4,369505.0,174197.5,199849.0,0.0
190989.8,209925.7,204801.7,249824.9,180584.8,370224.7,174938.7,201594.8,0.0
191692.5,210929.7,205676.6,251078.0,181911.3,371063.2,175395.0,203457.0,0.0
191321.9,211104.1,205571.2,250857.8,181941.3,371101.9,175161.0,203355.3,0.0
190176.5,210177.3,204532.3,249356.4,180615.3,370263.2,174478.0,201378.3,0.0
189727.8,209205.9,203783.9,248365.3,179504.2,369544.8,174212.5,199874.9,0.0
191005.6,209944.8,204719.2,249751.2,180649.8,370273.1,174957.2,201620.5,0.0
191709.4,210955.2,205594.4,251000.8,181976.9,371113.4,175407.6,203478.4,0.0
191337.7,211136.0,205492.0,250781.9,182010.9,371156.9,175168.1,203375.3,0.0
190180.6,210194.8,204436.8,249263.2,180668.3,370302.8,174465.3,201377.0,0.0
189721.6,209205.9,203671.5,248257.5,179543.2,369568.6,174188.7,199858.2,0.0
190993.7,209941.1,204601.7,249642.7,180687.0,370295.3,174934.1,201604.6,0.0
191699.8,210965.1,205484.0,250901.2,182025.2,371147.9,175391.0,203476.8,0.0
191328.5,211151.7,205385.5,250683.4,182060.2,371195.1,175151.9,203376.8,0.0
190179.2,210224.3,204339.9,249176.3,180729.1,370352.7,174461.1,201388.5,0.0
189729.5,209252.0,203584.8,248179.6,179616.0,369630.8,174197.2,199879.4,0.0
190993.5,209968.9,204504.4,249553.6,180747.8,370344.7,174930.2,201611.0,0.0
191701.8,210976.1,205381.3,250806.8,182070.8,371182.0,175379.2,203471.3,0.0
191339.2,211165.7,205292.8,250599.5,182110.6,371232.2,175152.3,203380.1,0.0
190185.4,210233.8,204249.5,249093.4,180777.7,370386.8,174466.9,201396.2,0.0
189716.9,209242.2,203478.2,248079.5,179641.1,369643.4,174184.4,199869.7,0.0
190992.0,209971.9,204409.6,249461.8,180779.5,370365.7,174929.0,201610.0,0.0
191684.9,210967.5,205277.8,250703.8,182092.3,371190.9,175373.9,203454.9,0.0
191313.3,211134.9,205172.0,250480.3,182110.3,371218.6,175131.6,203341.3,0.0
190183.5,210233.5,204146.2,248997.5,180802.3,370389.1,174453.0,201387.0,0.0
189718.3,209254.0,203381.4,247989.4,179679.5,369658.7,174176.5,199870.8,0.0
190992.5,209979.4,204308.4,249365.3,180814.2,370376.5,174920.6,201605.0,0.0
191706.5,210988.8,205191.6,250622.7,182143.2,371216.7,175375.1,203470.5,0.0
191343.9,211176.7,205103.4,250417.4,182183.7,371266.7,175142.5,203381.0,0.0
190194.7,210239.8,204061.1,248914.0,180851.4,370421.1,174454.6,201397.6,0.0
189735.1,209259.0,203294.9,247903.5,179724.0,369685.3,174177.3,199872.5,0.0
191002.5,209980.4,204219.0,249278.6,180854.8,370400.3,174919.8,201605.0,0.0
191702.6,210987.3,205093.7,250532.9,182178.3,371237.0,175373.3,203471.4,0.0
191330.5,211170.3,204995.6,250322.9,182214.2,371280.5,175135.2,203378.6,0.0
190169.0,210231.5,203943.9,248810.9,180874.3,370424.6,174433.6,201388.3,0.0
189702.8,209235.9,203175.1,247795.7,179741.7,369685.0,174152.2,199858.0,0.0
190992.3,209976.0,204116.0,249186.1,180891.3,370420.6,174907.1,201606.2,0.0
191725.7,211015.5,205020.8,250467.1,182245.2,371288.1,175382.6,203498.6,0.0
191368.4,211213.1,204942.3,250272.4,182297.3,371346.3,175155.8,203420.3,0.0
190203.2,210270.7,203887.7,248756.7,180953.7,370486.7,174448.5,201423.1,0.0
189734.4,209272.0,203112.7,247738.7,179813.2,369740.9,174163.6,199883.1,0.0
190994.4,209985.2,204030.4,249107.8,180938.5,370452.7,174902.7,201606.7,0.0
191699.5,210985.8,204908.6,250364.0,182266.2,371291.6,175357.3,203473.2,0.0
191333.5,211168.8,204817.1,250157.0,182306.1,371337.9,175121.4,203385.5,0.0
190176.5,210238.9,203770.9,248649.4,180973.3,370492.7,174424.9,201402.3,0.0
189708.6,209247.8,203003.8,247635.1,179842.1,369757.9,174150.4,199869.1,0.0
190985.7,209971.0,203933.1,249015.3,180977.7,370479.5,174899.6,201601.2,0.0
191715.2,210997.3,204831.1,250291.4,182322.9,371334.6,175371.3,203484.8,0.0
191359.2,211194.0,204750.6,250094.6,182372.6,371388.8,175147.4,203405.3,0.0
190211.8,210276.5,203720.0,248600.7,181053.0,370555.5,174465.3,201433.1,0.0
189736.8,209282.3,202944.7,247575.9,179911.2,369813.8,174180.9,199890.9,0.0
191006.8,210003.8,203869.3,248951.4,181040.8,370532.3,174923.6,201616.0,0.0
191713.8,211014.8,204754.3,250213.0,182373.6,371373.6,175380.0,203483.9,0.0
191353.9,211206.8,204672.1,250014.9,182421.9,371424.7,175152.4,203402.9,0.0
190197.8,210273.5,203625.7,248507.6,181082.5,370572.7,174451.7,201416.2,0.0
189722.0,209278.4,202851.4,247484.6,179935.3,369826.3,174169.4,199873.2,0.0
190984.2,209987.0,203768.4,248850.8,181049.7,370531.0,174904.8,201586.2,0.0
191706.5,211002.9,204662.1,250120.6,182387.8,371378.1,175369.6,203463.7,0.0
191352.0,211200.3,204583.1,249925.1,182439.8,371433.8,175147.3,203387.8,0.0
190199.4,210275.0,203545.4,248425.5,181110.2,370589.4,174455.1,201409.7,0.0
189714.4,209267.6,202763.1,247393.0,179956.0,369834.7,174162.3,199854.7,0.0
190983.8,209982.0,203686.2,248764.0,181078.1,370547.3,174900.5,201573.0,0.0
191708.2,211003.1,204585.8,250042.6,182421.3,371401.9,175363.6,203458.9,0.0
191348.5,211189.3,204500.0,249841.0,182463.2,371447.8,175129.2,203377.5,0.0
190185.1,210252.2,203449.1,248330.6,181120.3,370588.8,174420.1,201389.0,0.0
189693.9,209245.0,202660.7,247294.3,179961.0,369828.8,174120.3,199828.5,0.0
190970.5,209962.5,203591.9,248677.4,181090.8,370548.8,174873.3,201552.3,0.0
191702.7,210983.8,204496.0,249963.4,182436.1,371405.6,175348.6,203441.4,0.0
191358.6,211190.7,204426.9,249781.7,182497.6,371468.5,175131.8,203377.8,0.0
190211.4,210271.9,203392.7,248287.9,181171.9,370628.3,174443.6,201405.2,0.0
189721.6,209258.7,202603.3,247249.8,180011.0,369868.6,174150.4,199841.7,0.0
190990.0,209974.8,203524.8,248618.6,181130.6,370578.3,174889.6,201556.6,0.0
191714.3,210999.0,204421.3,249896.8,182472.1,371428.4,175353.8,203441.9,0.0
191359.4,211195.5,204342.9,249706.0,182521.8,371480.7,175126.5,203370.9,0.0
190208.6,210266.2,203304.1,248206.8,181188.0,370632.6,174436.1,201393.7,0.0
189712.2,209247.5,202510.8,247161.4,180019.6,369867.6,174138.4,199823.8,0.0
190969.8,209951.5,203424.7,248523.8,181129.0,370569.7,174872.7,201527.7,0.0
191693.5,210975.0,204323.1,249804.7,182469.2,371420.4,175341.2,203412.5,0.0
191340.9,211172.0,204247.4,249620.2,182520.0,371477.0,175116.7,203344.6,0.0
190199.5,210256.5,203219.1,248130.8,181199.9,370644.1,174426.2,201378.9,0.0
189720.0,209262.0,202443.9,247102.9,180053.0,369901.4,174143.6,199831.0,0.0
190981.3,209967.0,203355.2,248461.0,181156.4,370598.5,174880.1,201531.0,0.0
191710.5,210990.7,204253.4,249744.6,182500.3,371449.4,175352.0,203419.8,0.0
191356.1,211191.9,204180.3,249563.0,182562.7,371513.0,175129.0,203361.5,0.0
190199.6,210262.5,203139.5,248060.9,181230.7,370663.0,174428.9,201383.9,0.0
189705.6,209258.8,202350.7,247018.6,180068.3,369901.5,174131.9,199817.0,0.0
190967.4,209969.4,203267.8,248381.6,181182.0,370607.7,174869.6,201523.4,0.0
191709.7,211000.8,204179.9,249676.3,182540.9,371475.8,175352.2,203428.8,0.0
191369.5,211208.2,204114.3,249500.3,182606.8,371543.2,175135.1,203375.2,0.0
190220.8,210290.5,203078.3,248005.2,181278.6,370701.8,174441.3,201404.7,0.0
189716.3,209274.1,202282.2,246959.2,180110.6,369939.4,174140.9,199833.6,0.0
190966.3,209969.1,203185.2,248309.1,181210.4,370633.4,174864.0,201526.1,0.0
191676.9,210971.3,204066.6,249572.3,182530.3,371465.6,175309.9,203394.5,0.0
191325.2,211162.8,203987.0,249379.2,182573.1,371511.4,175080.2,203317.5,0.0
190204.3,210272.3,202980.7,247914.9,181279.7,370696.9,174409.2,201383.7,0.0
189718.3,209275.5,202206.5,246886.2,180130.2,369952.4,174126.7,199829.0,0.0
190974.2,209966.1,203115.6,248240.5,181230.1,370647.2,174862.2,201521.3,0.0
191700.5,210986.5,204012.4,249520.3,182566.9,371492.3,175329.1,203406.3,0.0
191348.9,211188.9,203939.0,249337.1,182623.8,371550.4,175108.0,203345.8,0.0
190203.9,210275.8,202910.8,247849.7,181305.0,370716.3,174421.8,201383.0,0.0
189710.7,209273.8,202127.5,246814.0,180148.2,369965.8,174130.2,199819.8,0.0
190976.0,209982.4,203046.5,248179.7,181261.4,370672.9,174872.5,201524.0,0.0
191711.5,211008.0,203952.6,249470.9,182611.3,371530.1,175350.1,203423.1,0.0
191357.0,211205.3,203878.6,249288.4,182667.2,371587.7,175122.3,203364.8,0.0
190209.2,210292.7,202850.2,247798.0,181345.2,370750.7,174428.0,201401.9,0.0
189706.8,209275.5,202052.8,246745.1,180171.1,369985.4,174119.5,199820.9,0.0
190972.5,209979.4,202967.5,248104.5,181279.4,370690.7,174856.7,201520.9,0.0
191710.7,211007.0,203877.1,249394.5,182633.3,371551.1,175333.4,203422.9,0.0
191360.5,211204.1,203804.2,249210.5,182688.1,371607.5,175108.0,203360.3,0.0
190211.0,210282.4,202775.0,247721.4,181365.1,370769.3,174415.9,201396.2,0.0
189716.4,209275.6,201992.6,246681.5,180204.7,370017.3,174122.4,199829.1,0.0
190983.9,209988.5,202916.0,248046.6,181319.1,370726.0,174867.5,201531.9,0.0
191721.7,211012.6,203827.4,249341.6,182674.5,371583.8,175346.4,203435.9,0.0
191372.3,211210.5,203755.7,249159.4,182732.3,371640.5,175121.3,203380.1,0.0
190227.3,210294.0,202727.0,247668.9,181408.0,370801.2,174428.9,201416.0,0.0
189723.0,209272.3,201928.6,246613.9,180231.3,370033.5,174124.5,199831.2,0.0
190982.3,209962.6,202836.2,247964.7,181327.5,370729.0,174855.6,201516.9,0.0
191725.3,210994.3,203749.5,249264.0,182680.9,371589.0,175332.1,203420.6,0.0
191377.7,211200.8,203682.6,249089.7,182743.3,371648.3,175109.8,203366.5,0.0
190230.2,210283.1,202653.7,247600.6,181419.8,370807.2,174414.2,201400.5,0.0
189723.4,209264.0,201859.1,246547.4,180240.7,370038.4,174110.6,199814.4,0.0
190975.6,209958.1,202768.4,247899.3,181335.3,370731.9,174845.1,201500.5,0.0
191710.8,210977.1,203674.3,249192.0,182682.0,371584.6,175317.2,203399.5,0.0
191373.6,211189.4,203616.2,249025.3,182752.0,371653.5,175102.0,203358.7,0.0
190233.0,210280.4,202594.0,247541.9,181437.6,370821.5,174417.6,201404.3,0.0
189732.7,209267.2,201801.2,246494.4,180269.0,370060.7,174126.0,199828.6,0.0
190981.8,209954.8,202702.4,247840.4,181361.3,370749.3,174857.0,201509.8,0.0
191707.3,210969.1,203596.5,249124.1,182700.6,371592.4,175318.6,203400.9,0.0
191365.0,211181.7,203534.5,248956.5,182769.2,371659.3,175099.2,203360.3,0.0
190242.7,210294.5,202532.1,247496.3,181474.3,370848.0,174431.3,201426.6,0.0
189752.3,209294.1,201751.3,246457.3,180316.4,370102.1,174145.8,199859.7,0.0
190997.8,209977.3,202647.0,247796.5,181401.5,370786.5,174869.6,201535.8,0.0
191728.4,210995.8,203548.0,249083.9,182745.7,371634.3,175338.1,203435.3,0.0
191389.1,211206.8,203487.0,248915.2,182815.0,371700.9,175117.4,203395.3,0.0
190245.8,210300.6,202461.4,247431.0,181500.4,370869.6,174425.3,201441.3,0.0
189733.2,209279.7,201657.2,246368.9,180317.0,370098.6,174116.2,199849.9,0.0
190989.9,209982.0,202569.4,247726.5,181416.0,370800.1,174850.9,201538.4,0.0
191737.4,211017.1,203489.6,249034.0,182777.0,371667.3,175333.1,203452.6,0.0
191387.8,211221.0,203423.3,248858.6,182837.1,371726.2,175106.9,203404.6,0.0
190240.2,210301.2,202396.0,247368.8,181512.5,370886.1,174410.0,201441.9,0.0
189737.9,209283.3,201602.1,246313.5,180334.3,370120.2,174108.8,199854.8,0.0
190994.2,209977.2,202511.7,247667.2,181428.8,370817.4,174845.9,201540.6,0.0
191734.3,211015.1,203424.5,248966.7,182782.4,371679.6,175321.8,203450.0,0.0
191387.6,211229.6,203363.3,248798.1,182850.0,371745.9,175106.0,203409.6,0.0
190243.8,210315.5,202341.0,247315.7,181531.8,370912.4,174421.0,201456.7,0.0
189726.8,209284.1,201531.4,246245.4,180338.4,370133.6,174108.5,199857.2,0.0
190982.6,209967.4,202434.5,247591.5,181424.3,370822.9,174839.3,201537.4,0.0
191732.4,211003.4,203352.2,248896.0,182779.1,371686.2,175320.0,203451.9,0.0
191388.5,211213.3,203292.5,248728.1,182847.3,371754.5,175102.4,203412.0,0.0
190246.0,210303.8,202271.5,247245.9,181530.3,370919.2,174410.1,201458.0,0.0
189734.0,209283.4,201473.8,246186.7,180347.1,370149.7,174102.1,199864.4,0.0
190992.9,209977.0,202386.4,247538.7,181437.9,370843.3,174841.7,201545.3,0.0
191731.3,211001.9,203298.0,248838.9,182790.4,371701.0,175319.8,203457.1,0.0
191374.1,211199.2,203222.9,248657.8,182845.7,371752.9,175085.6,203404.9,0.0
190225.1,210286.2,202199.0,247177.1,181531.0,370918.3,174395.6,201452.7,0.0
189713.8,209270.4,201400.0,246117.6,180351.4,370151.0,174090.4,199860.7,0.0
190970.8,209963.9,202307.8,247466.6,181440.4,370845.1,174825.1,201539.1,0.0
191737.8,211018.9,203244.5,248793.8,182817.7,371729.3,175328.3,203475.5,0.0
191414.5,211243.5,203204.7,248646.5,182910.1,371818.0,175132.0,203457.0,0.0
190260.9,210317.0,202171.9,247150.6,181583.8,370973.3,174432.0,201490.1,0.0
189745.2,209288.9,201364.0,246079.8,180390.9,370195.3,174118.6,199882.4,0.0
190995.3,209974.5,202266.8,247420.5,181475.5,370883.9,174847.3,201551.6,0.0
191740.7,211009.9,203185.0,248726.0,182835.2,371748.4,175325.6,203467.9,0.0
191401.9,211220.2,203127.2,248564.8,182909.2,371817.8,175106.4,203432.1,0.0
190258.8,210303.0,202103.6,247085.8,181597.1,370983.5,174416.2,201480.2,0.0
189742.9,209283.9,201299.1,246017.3,180410.4,370209.2,174106.3,199877.6,0.0
190990.8,209966.8,202199.5,247355.9,181488.0,370893.1,174833.2,201542.7,0.0
191733.9,210986.0,203114.9,248658.2,182839.3,371750.6,175314.0,203449.9,0.0
191398.7,211192.1,203057.8,248489.1,182903.5,371812.4,175097.7,203403.0,0.0
190277.3,210310.2,202055.8,247031.8,181613.0,370996.2,174419.0,201476.7,0.0
189756.7,209292.2,201254.2,245970.5,180432.7,370226.5,174110.1,199879.5,0.0
190999.3,209975.4,202153.3,247307.8,181512.5,370911.9,174839.6,201544.2,0.0
191742.9,211004.6,203072.0,248612.0,182870.7,371773.3,175318.1,203459.6,0.0
191407.5,211224.3,203023.0,248457.2,182952.6,371848.8,175105.0,203434.4,0.0
190264.9,210316.8,202005.2,246980.3,181642.2,371019.6,174415.7,201489.2,0.0
189747.4,209291.1,201203.5,245913.8,180453.9,370246.2,174107.8,199885.8,0.0
190990.2,209974.7,202100.7,247249.5,181529.3,370926.3,174829.0,201545.5,0.0
191731.6,211000.4,203013.2,248551.9,182883.0,371782.7,175301.0,203457.7,0.0
191398.3,211222.6,202964.4,248399.2,182965.2,371859.1,175092.8,203435.4,0.0
190260.7,210319.6,201951.4,246930.1,181660.6,371033.6,174407.5,201491.5,0.0
189739.2,209282.2,201142.0,245858.5,180465.1,370254.5,174089.3,199878.0,0.0
190991.8,209962.9,202042.7,247197.0,181541.7,370938.5,174818.9,201540.9,0.0
191752.1,211003.3,202971.8,248514.1,182909.1,371809.6,175311.5,203468.0,0.0
191411.8,211211.8,202912.9,248347.2,182978.6,371872.6,175089.8,203431.4,0.0
190264.8,210299.4,201888.8,246862.3,181659.2,371031.7,174390.9,201475.1,0.0
189746.7,209277.3,201085.0,245794.6,180472.6,370259.7,174081.8,199870.6,0.0
190988.3,209955.8,201980.1,247126.5,181549.1,370943.0,174806.6,201530.8,0.0
191732.1,210980.3,202896.2,248430.4,182902.6,371800.7,175284.7,203443.6,0.0
191403.4,211206.8,202854.5,248285.1,182991.6,371882.8,175082.9,203427.1,0.0
190278.4,210324.3,201856.0,246830.0,181701.5,371070.6,174414.2,201499.3,0.0
189754.5,209291.5,201040.8,245753.1,180503.4,370287.6,174095.2,199882.1,0.0
191009.7,209981.6,201946.0,247099.7,181590.7,370983.1,174828.1,201551.3,0.0
191760.8,211018.9,202868.6,248412.5,182955.6,371853.5,175310.5,203478.5,0.0
191418.4,211232.9,202811.3,248251.7,183030.8,371921.3,175087.4,203449.8,0.0
190281.1,210332.9,201796.8,246778.8,181723.6,371095.6,174397.4,201507.3,0.0
189748.6,209293.1,200981.9,245697.8,180521.7,370311.9,174077.3,199885.3,0.0
190993.3,209969.8,201877.5,247028.3,181589.7,370989.1,174802.7,201534.4,0.0
191747.0,211007.1,202802.6,248342.3,182954.8,371854.7,175289.5,203457.8,0.0
191412.3,211227.7,202754.9,248190.2,183039.4,371929.3,175079.5,203436.5,0.0
190271.8,210325.7,201741.5,246718.2,181733.3,371100.8,174395.7,201492.8,0.0
189746.9,209293.6,200934.4,245644.6,180537.4,370324.4,174086.9,199877.3,0.0
190994.4,209967.9,201831.4,246978.7,181609.1,371006.2,174814.4,201531.2,0.0
191746.5,211001.3,202751.1,248287.5,182969.7,371870.9,175292.8,203453.9,0.0
191418.2,211228.6,202707.4,248139.3,183055.8,371953.0,175083.2,203438.3,0.0
190279.7,210329.6,201693.4,246666.7,181748.1,371125.6,174393.3,201495.6,0.0
189748.6,209294.1,200880.4,245587.8,180546.0,370341.8,174074.7,199874.8,0.0
190989.5,209966.1,201772.3,246917.4,181613.2,371018.2,174801.3,201526.1,0.0
191741.9,210998.1,202695.5,248228.9,182974.8,371881.9,175289.5,203452.7,0.0
191411.3,211212.3,202646.5,248075.0,183052.5,371952.7,175076.8,203431.6,0.0
190286.5,210336.5,201648.4,246622.7,181765.6,371143.6,174399.1,201508.7,0.0
189752.6,209308.8,200838.0,245544.1,180568.5,370363.3,174080.6,199890.6,0.0
190992.2,209985.0,201733.1,246874.0,181638.6,371042.2,174805.9,201542.7,0.0
191745.0,211021.6,202656.7,248189.4,183004.4,371909.4,175290.2,203469.4,0.0
191411.3,211243.9,202610.6,248041.2,183092.6,371989.2,175079.3,203453.9,0.0
190272.5,210336.5,201596.5,246571.1,181785.7,371159.3,174394.3,201511.4,0.0
189742.1,209300.3,200785.0,245491.5,180583.9,370377.2,174080.8,199887.2,0.0
190983.2,209969.7,201676.9,246818.6,181650.9,371052.7,174806.6,201533.3,0.0
191736.8,211003.1,202600.3,248132.3,183014.8,371916.8,175289.6,203457.4,0.0
191402.7,211224.1,202552.8,247983.6,183100.0,371993.5,175074.6,203439.0,0.0
190266.1,210327.3,201540.9,246512.1,181796.1,371167.0,174388.9,201499.1,0.0
189738.0,209294.2,200729.3,245430.4,180595.5,370385.9,174073.6,199875.5,0.0
190980.7,209965.2,201621.8,246760.3,181663.1,371061.6,174798.2,201522.1,0.0
191733.6,210998.6,202545.1,248076.3,183025.4,371924.2,175278.2,203449.3,0.0
191403.6,211216.9,202502.0,247931.5,183114.8,372004.0,175066.6,203436.4,0.0
190290.0,210340.8,201512.4,246484.5,181834.8,371200.0,174401.6,201517.8,0.0
189760.6,209315.8,200706.5,245409.1,180639.0,370424.1,174093.6,199897.6,0.0
190990.1,209977.3,201588.9,246726.6,181693.9,371091.6,174805.8,201533.2,0.0
191743.7,211010.6,202512.1,248042.1,183058.8,371957.5,175288.5,203462.0,0.0
191418.3,211234.5,202471.5,247896.6,183151.0,372040.3,175084.2,203453.2,0.0
190285.6,210339.4,201467.3,246433.2,181853.7,371220.0,174399.7,201520.9,0.0
189747.6,209301.1,200651.0,245344.6,180643.0,370429.8,174077.0,199884.6,0.0
190984.6,209969.6,201542.5,246667.5,181703.7,371102.3,174800.2,201523.3,0.0
191733.0,210992.7,202458.6,247975.0,183056.9,371958.3,175276.5,203441.2,0.0
191398.5,211203.3,202402.8,247816.3,183129.3,372024.1,175056.3,203413.6,0.0
190285.9,210331.9,201415.0,246375.8,181856.6,371221.6,174386.4,201509.1,0.0
189750.4,209303.4,200607.8,245300.8,180661.0,370446.2,174072.3,199890.9,0.0
190984.9,209967.5,201495.4,246621.9,181718.6,371115.5,174791.0,201526.8,0.0
191749.5,211006.8,202426.5,247945.5,183086.8,371982.5,175280.3,203458.5,0.0
191422.9,211233.9,202387.2,247803.7,183180.0,372063.0,175073.9,203451.1,0.0
190281.8,210336.9,201377.7,246334.7,181880.7,371241.5,174386.9,201517.9,0.0
189740.5,209305.2,200557.2,245246.3,180671.8,370455.9,174066.5,199882.3,0.0
190977.4,209977.0,201444.9,246570.6,181732.9,371130.3,174790.6,201519.5,0.0
191734.4,211014.0,202372.1,247891.7,183101.2,371997.5,175278.2,203451.6,0.0
191415.2,211253.6,202343.4,247761.9,183205.5,372089.6,175082.8,203456.4,0.0
190286.1,210371.2,201346.9,246305.8,181918.5,371277.3,174407.5,201536.5,0.0
189738.3,209326.2,200523.7,245210.1,180707.1,370486.3,174082.6,199900.0,0.0
190964.9,209973.2,201401.7,246521.9,181756.5,371151.7,174800.1,201529.9,0.0
191731.3,211008.4,202329.3,247843.4,183119.9,372015.0,175288.8,203460.7,0.0
191414.3,211243.4,202292.1,247707.7,183215.8,372096.9,175083.9,203457.8,0.0
190274.7,210340.9,201281.6,246239.3,181911.2,371265.4,174386.9,201520.6,0.0
189731.5,209294.5,200460.9,245146.0,180697.0,370470.4,174060.9,199879.6,0.0
190971.0,209957.7,201348.5,246464.9,181754.7,371140.5,174783.4,201512.9,0.0
191732.6,210992.9,202279.5,247786.4,183122.8,372007.9,175273.7,203447.0,0.0
191409.8,211226.5,202243.9,247653.0,183218.9,372092.0,175067.6,203446.3,0.0
190279.3,210343.7,201241.1,246197.4,181925.4,371275.1,174383.0,201521.4,0.0
189723.8,209288.4,200412.3,245096.5,180701.3,370477.3,174050.2,199872.6,0.0
190961.9,209955.8,201299.2,246412.8,181755.1,371146.3,174771.3,201503.3,0.0
191728.2,210997.2,202233.0,247743.1,183126.8,372016.3,175266.3,203442.5,0.0
191406.3,211225.0,202199.3,247615.4,183227.6,372103.1,175067.2,203448.8,0.0
190276.3,210340.3,201200.8,246161.2,181939.7,371289.8,174387.3,201528.7,0.0
189739.3,209311.7,200389.8,245074.5,180734.3,370509.2,174069.9,199894.8,0.0
190971.3,209971.2,201272.5,246387.1,181782.9,371175.4,174789.1,201520.4,0.0
191737.8,211008.9,202208.1,247715.0,183155.2,372048.8,175287.0,203462.7,0.0
191410.6,211231.2,202166.9,247575.0,183249.3,372130.1,175075.9,203460.8,0.0
190280.4,210347.5,201162.5,246113.6,181953.8,371309.5,174386.2,201533.9,0.0
189734.0,209306.1,200338.6,245016.1,180734.8,370516.0,174056.3,199887.5,0.0
190968.6,209966.8,201222.3,246332.0,181788.2,371184.3,174776.9,201516.3,0.0
191738.2,211003.2,202161.7,247662.0,183165.3,372057.7,175270.6,203462.4,0.0
191418.8,211242.1,202129.9,247527.3,183261.4,372141.2,175062.7,203464.6,0.0
190285.6,210360.1,201126.6,246069.2,181967.8,371321.6,174378.0,201539.4,0.0
189735.9,209314.3,200304.4,244975.1,180753.3,370531.6,174056.2,199896.8,0.0
190971.1,209974.5,201189.6,246290.2,181804.5,371200.0,174779.3,201523.8,0.0
191733.7,211008.0,202119.3,247617.6,183172.5,372067.7,175265.3,203463.4,0.0
191414.2,211241.7,202088.8,247493.5,183275.9,372159.6,175063.4,203474.1,0.0
190287.0,210364.6,201096.5,246044.8,181990.2,371347.8,174385.9,201557.8,0.0
189734.9,209324.5,200275.9,244950.5,180777.2,370557.5,174062.7,199915.0,0.0
190961.3,209974.6,201157.0,246261.3,181826.3,371222.2,174784.3,201537.3,0.0
191726.4,211004.0,202086.1,247583.8,183192.9,372088.7,175272.0,203473.8,0.0
191412.2,211248.1,202055.9,247456.1,183299.0,372179.9,175067.3,203485.3,0.0
190287.2,210376.5,201059.9,246006.8,182015.5,371371.3,174387.1,201573.4,0.0
189730.8,209325.3,200230.3,244903.1,180790.6,370575.7,174051.1,199922.0,0.0
190957.3,209973.7,201108.0,246211.5,181833.3,371237.3,174763.3,201541.6,0.0
191730.4,211022.0,202048.1,247548.8,183214.0,372116.4,175262.8,203492.9,0.0
191413.5,211260.7,202019.0,247421.0,183321.0,372209.0,175063.4,203505.4,0.0
190285.2,210377.1,201019.5,245966.8,182034.6,371394.9,174379.3,201588.4,0.0
189733.5,209331.8,200195.3,244869.1,180815.5,370602.8,174053.9,199940.0,0.0
190971.0,210001.3,201085.6,246191.5,181874.0,371280.3,174784.0,201573.8,0.0
191736.8,211044.0,202021.7,247526.3,183255.3,372159.3,175281.9,203526.5,0.0
191417.6,211280.6,201988.7,247396.5,183357.9,372248.9,175081.4,203539.6,0.0
190290.1,210403.1,200990.5,245943.8,182067.5,371433.6,174399.9,201624.3,0.0
189729.8,209350.7,200158.7,244834.5,180840.3,370635.6,174065.5,199964.8,0.0
190953.0,210005.5,201035.8,246142.4,181882.7,371300.3,174777.1,201582.2,0.0
191719.2,211044.2,201967.2,247473.9,183257.3,372172.1,175262.7,203530.6,0.0
191400.6,211277.9,201935.2,247346.5,183363.6,372264.1,175056.4,203544.2,0.0
190278.1,210396.7,200941.3,245895.4,182075.9,371453.7,174373.4,201629.0,0.0
189730.6,209358.3,200118.2,244796.5,180857.0,370664.3,174046.0,199977.5,0.0
190958.0,210004.2,200992.0,246097.8,181891.8,371318.9,174761.3,201583.5,0.0
191732.6,211044.1,201929.8,247432.7,183266.1,372191.1,175260.0,203531.5,0.0
191424.3,211297.5,201910.7,247319.6,183385.6,372295.5,175069.0,203562.6,0.0
190292.1,210416.2,200913.1,245867.8,182098.6,371481.2,174387.9,201647.3,0.0
189730.4,209354.0,200079.1,244754.8,180863.7,370678.0,174056.1,199978.9,0.0
190960.3,210008.3,200955.7,246062.1,181903.3,371341.1,174776.6,201590.8,0.0
191727.2,211048.9,201890.0,247395.9,183279.0,372215.2,175267.1,203538.9,0.0
191415.7,211290.0,201865.3,247275.3,183389.4,372308.7,175063.3,203557.1,0.0
190289.5,210411.6,200870.0,245822.3,182101.1,371495.9,174376.9,201641.9,0.0
189729.5,209360.0,200039.4,244711.0,180870.8,370695.2,174044.6,199978.0,0.0
190955.3,210002.8,200913.1,246011.0,181906.2,371351.5,174761.0,201582.7,0.0
191722.6,211028.5,201840.6,247332.7,183266.8,372211.4,175249.4,203514.2,0.0
191408.3,211252.7,201809.3,247204.0,183362.4,372295.7,175049.7,203518.4,0.0
190300.7,210394.8,200832.5,245779.1,182099.0,371500.1,174381.7,201632.6,0.0
189731.0,209334.9,199993.3,244660.7,180861.3,370688.8,174038.6,199963.9,0.0
190948.5,209971.8,200859.8,245952.7,181890.3,371337.1,174743.8,201560.3,0.0
191728.2,211024.6,201809.3,247301.4,183283.3,372225.2,175250.5,203523.7,0.0
191420.2,211269.4,201791.0,247186.3,183398.1,372322.2,175059.9,203549.4,0.0
190294.2,210389.7,200799.0,245737.8,182111.6,371509.1,174381.1,201636.3,0.0
189723.0,209323.3,199957.2,244615.2,180869.1,370698.4,174037.1,199957.0,0.0
190933.4,209963.5,200822.8,245905.9,181900.4,371351.8,174745.6,201554.9,0.0
191713.1,211017.5,201772.0,247254.7,183293.8,372241.3,175254.8,203519.6,0.0
191398.4,211254.0,201744.3,247129.9,183401.8,372330.3,175052.5,203538.2,0.0
190279.8,210382.1,200754.3,245685.1,182123.0,371521.1,174374.7,201633.0,0.0
189732.3,209343.9,199933.8,244588.9,180908.9,370737.6,174053.3,199981.8,0.0
190963.1,209994.5,200811.8,245894.5,181951.8,371402.9,174771.5,201590.3,0.0
191740.1,211035.6,201751.0,247231.0,183330.0,372279.8,175265.8,203540.0,0.0
191427.0,211275.5,201723.5,247111.3,183439.0,372374.5,175061.6,203559.6,0.0
190296.3,210395.2,200724.1,245659.6,182150.5,371562.1,174373.1,201641.3,0.0
189728.2,209331.2,199882.1,244537.7,180910.0,370751.6,174030.1,199959.7,0.0
190953.8,209979.6,200758.4,245841.6,181950.2,371415.2,174750.7,201565.3,0.0
191732.4,211022.7,201703.1,247184.2,183333.8,372293.9,175253.9,203523.3,0.0
191425.4,211268.5,201681.4,247067.3,183447.7,372388.2,175057.6,203547.4,0.0
190303.8,210390.5,200689.7,245620.4,182162.8,371576.0,174373.4,201636.7,0.0
189740.6,209337.5,199856.3,244507.4,180928.2,370773.5,174036.3,199965.1,0.0
190957.0,209981.1,200723.1,245799.1,181956.7,371423.7,174745.0,201557.8,0.0
191727.5,211020.2,201660.9,247137.7,183334.3,372295.4,175239.4,203509.2,0.0
191417.6,211264.3,201640.1,247024.7,183450.3,372391.0,175042.2,203536.5,0.0
190296.1,210395.6,200651.7,245582.0,182175.4,371586.0,174361.4,201631.0,0.0
189730.8,209341.6,199818.2,244463.1,180942.4,370784.3,174024.3,199957.2,0.0
190950.6,209983.9,200689.1,245758.8,181975.9,371442.2,174740.3,201556.2,0.0
191725.3,211026.3,201632.2,247099.3,183359.1,372321.3,175238.1,203512.2,0.0
191417.7,211266.0,201613.2,246984.9,183473.7,372417.8,175040.8,203539.4,0.0
190297.7,210388.3,200623.7,245541.8,182192.4,371608.0,174361.0,201633.1,0.0
189732.7,209335.8,199788.5,244425.0,180957.5,370805.7,174024.7,199960.6,0.0
190955.3,209986.7,200663.0,245725.0,181996.2,371466.6,174744.1,201562.8,0.0
191733.6,211028.9,201604.5,247068.5,183381.6,372344.7,175243.3,203520.8,0.0
191423.1,211265.0,201579.3,246949.1,183490.9,372432.7,175044.9,203542.1,0.0
190301.9,210389.7,200588.6,245506.2,182211.8,371622.4,174367.9,201637.6,0.0
189728.9,209328.8,199747.2,244385.2,180971.0,370814.8,174025.5,199960.0,0.0
190953.4,209968.5,200617.9,245681.5,182002.1,371469.3,174741.3,201555.7,0.0
191736.8,211011.9,201562.3,247026.0,183386.4,372344.8,175243.5,203515.0,0.0
191430.4,211259.2,201544.7,246914.6,183503.6,372439.8,175050.2,203545.1,0.0
190306.8,210388.8,200556.9,245473.5,182227.3,371634.5,174369.4,201641.6,0.0
189741.5,209339.6,199722.6,244357.1,180994.3,370833.6,174028.5,199965.8,0.0
190958.1,209982.1,200588.5,245647.4,182023.0,371484.4,174737.7,201554.7,0.0
191737.7,211027.6,201531.7,246992.1,183409.1,372362.8,175239.6,203513.2,0.0
191426.2,211272.9,201509.1,246876.5,183527.0,372460.8,175042.0,203542.5,0.0
190301.5,210395.1,200520.0,245434.7,182251.6,371656.3,174368.1,201642.2,0.0
189734.7,209337.0,199683.7,244312.9,181012.1,370849.4,174033.5,199963.7,0.0
190949.3,209976.6,200549.5,245599.9,182033.0,371495.5,174741.8,201548.3,0.0
191726.0,211027.6,201496.3,246948.8,183423.5,372377.6,175240.7,203511.8,0.0
191417.9,211274.8,201478.1,246839.5,183548.1,372480.1,175042.3,203547.5,0.0
190291.4,210397.8,200485.0,245391.9,182264.1,371665.2,174358.2,201639.3,0.0
189711.3,209320.8,199636.2,244261.1,181011.1,370845.8,174013.3,199946.1,0.0
190932.7,209958.0,200501.6,245550.0,182033.7,371494.1,174723.9,201530.3,0.0
191708.3,211009.1,201445.5,246897.7,183419.9,372371.8,175222.8,203491.7,0.0
191397.9,211256.5,201427.3,246788.4,183541.2,372471.0,175029.5,203526.5,0.0
190294.6,210407.3,200456.1,245365.3,182281.7,371683.7,174367.3,201641.2,0.0
189732.4,209359.2,199623.4,244249.2,181049.0,370885.0,174035.5,199965.7,0.0
190943.3,209984.0,200480.3,245526.7,182063.8,371525.6,174739.1,201542.0,0.0
191727.5,211028.7,201429.8,246876.9,183455.3,372408.2,175240.7,203512.4,0.0
191427.6,211280.9,201415.5,246772.1,183579.7,372511.6,175045.3,203553.1,0.0
190308.7,210412.1,200427.0,245329.5,182301.5,371702.7,174361.4,201649.3,0.0
189734.4,209356.6,199584.2,244203.5,181058.8,370894.2,174015.6,199962.0,0.0
190945.2,209989.7,200441.9,245487.1,182075.4,371538.4,174723.3,201540.6,0.0
191725.9,211034.4,201389.6,246836.9,183464.8,372420.0,175228.8,203508.2,0.0
191420.3,211283.0,201370.0,246726.4,183584.6,372517.0,175031.5,203543.4,0.0
190304.5,210415.3,200382.2,245286.6,182308.1,371710.5,174352.5,201643.9,0.0
189730.0,209353.0,199538.8,244158.3,181062.5,370900.5,174008.3,199954.9,0.0
190946.8,209985.7,200401.6,245442.1,182084.3,371549.6,174719.9,201534.4,0.0
191724.4,211024.3,201340.4,246782.4,183465.2,372423.8,175217.8,203489.2,0.0
191412.6,211259.0,201315.6,246664.6,183574.9,372512.4,175018.1,203510.7,0.0
190312.1,210399.9,200346.2,245244.0,182321.2,371717.4,174353.4,201633.6,0.0
189737.7,209341.6,199505.5,244118.5,181079.9,370906.3,174009.2,199946.1,0.0
190955.8,209985.7,200373.0,245408.9,182103.8,371557.6,174725.4,201525.8,0.0
191736.6,211033.7,201321.6,246761.4,183497.3,372440.5,175230.4,203492.6,0.0
191437.7,211287.4,201312.3,246661.5,183627.8,372547.2,175036.2,203536.9,0.0
190323.9,210422.3,200329.3,245225.6,182358.2,371746.4,174356.4,201640.9,0.0
189741.1,209346.9,199477.5,244087.8,181100.5,370924.3,174005.9,199938.3,0.0
190956.0,209983.8,200342.5,245378.6,182124.2,371576.2,174719.0,201520.8,0.0
191738.0,211035.2,201289.9,246731.8,183514.6,372457.8,175219.0,203487.3,0.0
191432.5,211283.4,201272.6,246623.8,183637.6,372556.3,175020.7,203524.1,0.0
190306.2,210407.2,200279.2,245176.1,182355.8,371742.3,174332.7,201616.4,0.0
189722.6,209342.2,199429.9,244042.8,181105.3,370929.1,173988.2,199919.0,0.0
190939.2,209978.4,200292.4,245328.4,182123.8,371578.9,174704.5,201497.1,0.0
191727.7,211029.8,201243.8,246684.9,183518.5,372463.5,175211.0,203469.2,0.0
191425.8,211282.2,201231.1,246582.1,183642.2,372564.8,175016.0,203511.4,0.0
190310.2,210420.3,200250.6,245148.5,182371.1,371764.4,174339.1,201618.0,0.0
189746.9,209378.5,199423.0,244035.5,181139.3,370971.6,174009.3,199941.5,0.0
190964.5,210017.1,200290.3,245324.3,182162.2,371623.8,174724.7,201521.5,0.0
191747.0,211061.2,201238.7,246675.5,183551.5,372501.1,175222.1,203487.7,0.0
191445.2,211312.2,201231.3,246576.8,183682.6,372607.8,175030.3,203537.7,0.0
190321.4,210436.9,200242.0,245134.4,182403.1,371796.8,174344.6,201637.2,0.0
189723.9,209348.4,199378.0,243984.0,181133.4,370966.2,173982.1,199922.4,0.0
190931.1,209965.1,200229.4,245255.3,182134.9,371599.4,174681.3,201481.6,0.0
191731.2,211025.6,201192.2,246621.2,183535.8,372489.8,175200.4,203460.7,0.0
191442.7,211288.2,201189.3,246531.5,183672.7,372599.5,175023.1,203515.6,0.0
190323.1,210421.5,200203.4,245094.3,182397.9,371793.1,174343.0,201619.8,0.0
189737.4,209357.7,199355.5,243958.4,181146.7,370980.8,173996.1,199921.5,0.0
190940.0,209973.5,200205.3,245226.1,182148.3,371611.9,174694.5,201479.8,0.0
191731.1,211026.7,201157.6,246585.6,183542.1,372495.3,175200.0,203454.1,0.0
191432.2,211283.3,201150.3,246492.6,183676.5,372604.0,175008.5,203510.0,0.0
190315.8,210420.4,200170.3,245062.5,182410.5,371807.5,174330.3,201625.1,0.0
189728.7,209353.0,199321.2,243924.5,181156.8,370994.4,173982.0,199923.8,0.0
190939.7,209982.0,200178.9,245198.9,182169.2,371637.6,174689.9,201489.5,0.0
191732.2,211035.8,201133.9,246557.6,183565.9,372526.1,175196.1,203467.0,0.0
191435.0,211296.8,201129.7,246466.6,183702.7,372638.1,175011.0,203524.1,0.0
190309.4,210426.3,200139.9,245025.5,182427.3,371829.3,174329.0,201625.5,0.0
189713.7,209348.9,199280.2,243877.0,181164.0,371005.4,173977.2,199910.8,0.0
190924.0,209977.5,200138.2,245153.6,182173.4,371646.1,174688.5,201472.9,0.0
191720.4,211035.9,201098.5,246518.8,183575.0,372537.1,175200.8,203453.5,0.0
191422.5,211291.3,201089.4,246421.6,183704.6,372640.0,175008.2,203504.7,0.0
190309.7,210432.3,200114.2,244990.7,182439.2,371838.8,174330.7,201616.7,0.0
189724.1,209368.6,199270.4,243857.8,181187.8,371029.2,173980.1,199916.1,0.0
190938.3,210002.1,200132.3,245138.7,182195.0,371674.0,174689.7,201481.4,0.0
191729.9,211053.0,201087.8,246498.4,183587.3,372556.3,175198.0,203458.5,0.0
191437.2,211322.2,201084.5,246412.5,183730.1,372672.8,175010.4,203524.1,0.0
190317.9,210468.8,200105.7,244982.8,182469.5,371877.5,174330.7,201642.1,0.0
189726.4,209390.7,199254.7,243840.8,181210.0,371060.3,173983.1,199936.7,0.0
190939.7,210020.1,200115.9,245120.1,182220.1,371705.3,174695.1,201502.6,0.0
191731.8,211078.0,201073.7,246485.9,183620.8,372596.3,175203.8,203484.8,0.0
191428.8,211326.6,201061.6,246385.6,183747.7,372696.8,175006.7,203534.0,0.0
190321.1,210479.8,200094.4,244967.4,182495.1,371907.7,174339.0,201658.2,0.0
189732.3,209421.7,199245.6,243829.2,181241.9,371096.5,173995.5,199954.2,0.0
190930.0,210036.5,200090.4,245093.4,182238.5,371728.8,174696.6,201505.0,0.0
191725.7,211087.1,201045.3,246453.8,183638.5,372617.5,175205.0,203488.1,0.0
191436.4,211353.1,201043.4,246366.1,183782.1,372732.7,175016.2,203556.6,0.0
190320.8,210503.3,200064.8,244939.2,182520.5,371937.0,174337.6,201675.4,0.0
189717.5,209418.7,199203.3,243790.8,181255.9,371115.3,173981.6,199960.0,0.0
190925.9,210041.3,200059.2,245064.8,182263.1,371757.9,174688.4,201520.8,0.0
191728.7,211111.8,201026.1,246438.4,183674.5,372656.0,175201.7,203516.0,0.0
191439.2,211383.9,201028.6,246355.0,183821.5,372773.4,175016.0,203588.7,0.0
190327.6,210536.5,200053.7,244932.6,182570.5,371987.9,174341.7,201719.0,0.0
189726.8,209460.4,199192.9,243783.8,181310.3,371171.0,173986.5,200009.6,0.0
190924.4,210077.2,200039.8,245048.6,182309.6,371807.4,174689.0,201562.9,0.0
191719.7,211142.0,200997.5,246411.7,183712.5,372698.6,175200.2,203547.8,0.0
191431.8,211415.1,201002.5,246330.1,183865.1,372823.4,175015.2,203625.4,0.0
190322.4,210557.4,200028.7,244901.9,182604.5,372030.0,174334.7,201750.3,0.0
189734.6,209495.7,199178.8,243756.5,181346.3,371216.5,173983.8,200042.4,0.0
190951.2,210137.8,200047.1,245041.0,182367.0,371875.9,174703.1,201611.5,0.0
191750.3,211203.0,201010.9,246409.8,183773.4,372776.0,175216.8,203597.4,0.0
191448.2,211453.4,200998.1,246308.0,183899.5,372880.0,175022.0,203646.3,0.0
190346.9,210620.0,200033.3,244896.1,182658.3,372098.4,174354.3,201791.0,0.0
189737.2,209545.6,199169.0,243745.4,181397.4,371279.3,173993.9,200079.8,0.0
190935.9,210166.7,200015.5,245009.6,182398.6,371918.5,174696.9,201628.7,0.0
191736.7,211227.9,200979.2,246379.1,183808.4,372817.6,175212.4,203620.6,0.0
191450.0,211507.4,200983.9,246300.7,183965.3,372943.9,175029.5,203697.2,0.0
190339.1,210667.8,200017.2,244884.3,182723.5,372165.6,174356.0,201829.2,0.0
189742.3,209602.1,199159.3,243733.8,181464.2,371351.2,173999.5,200110.1,0.0
190953.0,210234.5,200017.6,245008.4,182478.7,372003.1,174712.5,201667.6,0.0
191761.3,211302.7,200990.3,246388.5,183901.3,372912.8,175234.8,203670.8,0.0
191473.6,211572.1,200991.8,246304.4,184050.9,373033.0,175047.1,203740.4,0.0
190367.3,210740.1,200023.6,244886.4,182808.8,372252.9,174370.7,201871.0,0.0
189758.9,209674.5,199161.2,243729.5,181552.0,371439.4,174009.8,200150.8,0.0
190955.9,210294.5,200007.8,244988.2,182556.1,372081.1,174714.4,201697.3,0.0
191758.8,211361.5,200973.5,246360.1,183976.1,372988.4,175232.8,203694.0,0.0
191469.6,211639.8,200978.0,246280.4,184137.3,373119.9,175046.9,203771.6,0.0
190363.2,210801.6,200013.4,244865.4,182900.3,372345.8,174376.8,201908.1,0.0
189765.0,209737.9,199158.3,243716.5,181649.1,371539.1,174022.0,200190.1,0.0
190971.7,210376.5,200013.7,244986.8,182666.6,372192.3,174729.3,201740.8,0.0
191777.4,211455.0,200983.9,246364.9,184097.6,373105.9,175247.1,203743.1,0.0
191493.6,211747.0,200997.2,246291.7,184274.4,373248.3,175066.7,203831.1,0.0
190378.0,210907.9,200023.8,244862.9,183032.9,372468.8,174383.2,201957.3,0.0
189774.3,209841.4,199163.0,243705.8,181779.2,371659.6,174023.9,200233.7,0.0
190974.1,210468.8,200014.0,244973.8,182797.0,372312.9,174728.6,201781.6,0.0
191782.9,211556.2,200987.2,246356.4,184235.3,373234.6,175247.8,203789.4,0.0
191499.6,211854.9,201000.8,246285.2,184419.0,373384.5,175068.5,203885.3,0.0
190389.0,211030.3,200035.0,244867.1,183189.5,372618.1,174395.6,202023.9,0.0
189781.7,209970.5,199175.6,243710.3,181942.4,371813.4,174038.9,200302.8,0.0
190983.1,210602.2,200027.7,244973.6,182962.3,372468.0,174745.8,201851.3,0.0
191792.7,211689.6,201005.8,246360.4,184407.0,373395.2,175268.2,203862.4,0.0
191507.0,211988.3,201018.6,246290.5,184591.1,373546.0,175082.9,203953.7,0.0
190400.7,211176.0,200060.9,244880.2,183374.9,372793.1,174409.0,202101.3,0.0
189789.9,210119.5,199197.8,243715.5,182129.5,371993.5,174041.2,200376.6,0.0
190984.9,210752.0,200044.7,244973.7,183151.7,372649.5,174740.3,201917.4,0.0
191785.3,211838.4,201016.5,246356.3,184599.9,373578.8,175258.3,203924.0,0.0
191505.6,212149.3,201037.3,246295.8,184800.9,373744.2,175084.6,204026.7,0.0
190412.4,211353.7,200090.1,244896.5,183605.4,373007.4,174426.1,202188.3,0.0
189809.3,210315.1,199237.9,243743.6,182378.7,372224.2,174071.9,200475.8,0.0
191005.6,210957.7,200090.2,245006.3,183410.6,372894.6,174776.4,202026.5,0.0
191826.1,212066.8,201077.9,246401.4,184878.5,373844.2,175310.3,204054.8,0.0
191545.7,212387.5,201101.4,246340.5,185090.2,374016.6,175139.0,204165.0,0.0
190434.5,211579.8,200141.9,244926.0,183885.9,373269.6,174465.6,202313.5,0.0
189819.0,210532.8,199284.0,243765.3,182657.0,372482.7,174103.3,200594.8,0.0
191012.7,211177.4,200133.6,245023.5,183691.9,373151.5,174802.7,202140.3,0.0
191823.7,212286.0,201112.5,246409.7,185158.1,374097.8,175323.9,204161.4,0.0
191540.9,212598.7,201131.1,246340.4,185362.5,374264.0,175145.6,204263.5,0.0
190442.8,211811.7,200186.1,244941.6,184177.1,373538.3,174484.4,202428.7,0.0
189830.8,210774.6,199328.5,243783.8,182955.0,372762.2,174121.3,200710.9,0.0
191017.8,211407.3,200168.2,245031.5,183979.3,373426.5,174810.0,202245.3,0.0
191835.8,212517.8,201154.6,246425.2,185452.5,374383.6,175338.8,204273.1,0.0
191552.5,212839.7,201177.0,246362.2,185664.6,374558.6,175162.8,204380.2,0.0
190436.1,212032.5,200211.6,244944.6,184462.8,373813.2,174484.3,202525.7,0.0
189822.0,210991.1,199354.1,243786.9,183244.3,373039.3,174123.5,200806.4,0.0
191019.3,211639.6,200206.7,245049.2,184285.6,373721.1,174829.3,202353.1,0.0
191837.3,212745.4,201185.5,246434.7,185753.2,374671.3,175355.0,204373.0,0.0
191556.2,213061.0,201200.9,246367.1,185961.6,374844.7,175172.7,204476.1,0.0
190447.1,212259.3,200241.2,244958.5,184765.7,374106.2,174499.1,202627.2,0.0
189836.0,211219.9,199383.5,243800.0,183544.0,373329.0,174140.1,200904.5,0.0
191030.8,211868.1,200232.6,245056.6,184585.5,374009.6,174843.1,202448.1,0.0
191841.7,212974.7,201213.6,246443.9,186058.4,374962.3,175366.8,204469.5,0.0
191551.7,213281.6,201225.3,246366.8,186261.7,375128.4,175180.4,204565.7,0.0
190437.9,212468.9,200261.1,244949.3,185059.1,374384.0,174502.0,202708.8,0.0
189827.7,211421.9,199399.8,243789.5,183832.5,373605.3,174140.7,200983.7,0.0
191013.4,212054.6,200232.7,245033.0,184855.9,374270.0,174833.5,202513.2,0.0
191820.9,213153.5,201206.5,246414.4,186320.7,375214.2,175352.7,204527.9,0.0
191555.6,213488.5,201241.6,246362.8,186544.4,375403.0,175184.5,204643.0,0.0
190472.9,212709.3,200303.8,244973.7,185367.2,374688.8,174528.5,202812.9,0.0
189863.0,211672.1,199448.0,243816.1,184149.9,373920.5,174172.1,201094.3,0.0
191054.4,212319.0,200295.0,245070.3,185192.3,374603.5,174879.3,202635.0,0.0
191867.2,213428.6,201277.1,246459.1,186669.7,375562.0,175406.6,204657.8,0.0
191573.3,213731.2,201283.6,246379.3,186869.5,375727.8,175215.1,204744.6,0.0
190478.2,212934.9,200331.9,244975.7,185682.5,374996.0,174545.9,202900.8,0.0
189864.4,211898.5,199473.2,243815.4,184465.3,374224.6,174187.3,201178.5,0.0
191043.8,212531.5,200309.0,245059.0,185494.0,374897.4,174883.3,202707.4,0.0
191845.8,213628.5,201280.8,246437.7,186956.0,375846.8,175398.3,204717.5,0.0
191570.5,213940.4,201296.6,246368.8,187161.3,376023.8,175219.2,204811.7,0.0
190483.4,213155.8,200352.0,244975.9,185985.2,375304.7,174555.6,202983.6,0.0
189862.9,212118.4,199489.4,243811.8,184764.1,374530.0,174186.5,201257.4,0.0
191054.8,212761.4,200334.3,245061.4,185800.7,375209.8,174886.6,202790.8,0.0
191872.1,213861.0,201314.0,246446.6,187270.9,376162.8,175411.7,204808.2,0.0
191595.7,214180.5,201338.2,246386.3,187490.9,376347.6,175238.4,204916.2,0.0
190499.1,213403.9,200397.2,244993.4,186322.0,375637.2,174575.1,203086.7,0.0
189863.7,212343.1,199518.4,243810.3,185081.0,374846.4,174190.8,201335.5,0.0
191049.4,212978.3,200356.4,245057.2,186110.7,375518.1,174892.0,202860.2,0.0
191866.1,214084.7,201337.2,246450.6,187588.3,376476.1,175420.4,204883.5,0.0
191579.8,214383.1,201342.9,246377.6,187788.4,376641.4,175231.5,204977.8,0.0
190474.3,213570.0,200374.5,244959.1,186581.9,375896.4,174549.6,203117.4,0.0
189856.5,212517.4,199504.8,243786.4,185344.6,375112.7,174183.2,201372.4,0.0
191042.4,213151.0,200344.4,245031.8,186367.0,375783.9,174885.3,202892.5,0.0
191860.1,214243.1,201323.0,246418.7,187827.3,376731.0,175414.5,204905.4,0.0
191582.8,214549.1,201339.1,246349.2,188023.7,376897.2,175232.7,205000.9,0.0
190459.9,213714.9,200360.1,244916.9,186793.2,376132.0,174532.4,203123.5,0.0
189836.1,212647.8,199486.1,243741.7,185540.8,375336.0,174159.3,201372.2,0.0
191021.5,213261.5,200320.2,244987.9,186555.5,376001.3,174859.0,202890.6,0.0
191839.3,214342.2,201291.1,246371.8,188005.9,376934.9,175382.3,204899.7,0.0
191569.9,214644.1,201311.5,246310.3,188204.7,377101.4,175209.3,205004.6,0.0
190480.4,213830.6,200358.7,244907.5,186997.1,376359.4,174542.3,203157.5,0.0
189857.3,212751.2,199480.8,243727.2,185730.4,375551.9,174169.2,201398.3,0.0
191037.5,213353.6,200305.5,244959.4,186718.7,376194.5,174862.8,202898.3,0.0
191850.8,214420.5,201271.8,246338.6,188147.4,377114.3,175381.7,204894.3,0.0
191565.3,214691.7,201274.9,246259.4,188313.7,377253.5,175192.9,204974.1,0.0
190461.2,213849.3,200307.9,244843.7,187080.6,376487.3,174518.5,203107.5,0.0
189829.8,212756.3,199417.5,243650.8,185793.2,375659.1,174139.4,201333.0,0.0
191000.8,213337.7,200229.6,244870.5,186760.4,376282.8,174824.0,202816.5,0.0
191812.9,214387.3,201190.9,246245.7,188182.2,377193.8,175342.4,204810.8,0.0
191548.5,214678.6,201213.1,246190.0,188367.6,377348.2,175171.8,204912.1,0.0
190449.7,213858.9,200257.7,244786.9,187145.9,376590.5,174497.3,203058.1,0.0
189819.5,212773.7,199376.8,243604.6,185867.9,375772.2,174117.4,201291.8,0.0
191001.6,213367.1,200200.5,244835.5,186849.7,376408.8,174809.3,202787.3,0.0
191824.0,214439.7,201176.8,246225.3,188289.8,377336.7,175338.4,204798.9,0.0
191540.9,214712.1,201182.6,246152.3,188455.5,377474.3,175152.4,204883.3,0.0
190443.8,213882.6,200222.7,244743.8,187227.3,376712.5,174482.7,203024.6,0.0
189815.2,212805.1,199346.4,243568.2,185957.5,375904.8,174114.3,201268.0,0.0
190992.8,213397.4,200171.0,244803.1,186939.8,376544.9,174808.1,202765.1,0.0
191804.2,214468.7,201137.3,246183.1,188368.8,377463.5,175325.0,204765.6,0.0
191542.6,214770.6,201166.0,246134.7,188561.5,377627.9,175159.7,204876.6,0.0
190450.4,213950.7,200213.2,244731.7,187343.3,376876.3,174490.2,203028.1,0.0
189814.2,212855.4,199322.0,243535.0,186053.7,376048.4,174103.7,201250.7,0.0
190988.0,213438.1,200137.8,244754.6,187021.9,376675.1,174790.2,202735.6,0.0
191808.0,214500.8,201108.0,246139.5,188448.5,377591.7,175310.8,204740.0,0.0
191550.3,214791.6,201135.6,246092.4,188636.8,377750.2,175142.7,204852.3,0.0
190458.2,213964.0,200176.5,244689.0,187402.2,376984.0,174473.8,202996.2,0.0
189821.8,212866.7,199288.5,243497.0,186104.8,376153.2,174095.3,201220.3,0.0
190998.7,213444.9,200108.4,244722.3,187066.1,376778.0,174786.9,202706.7,0.0
191816.7,214503.0,201080.2,246109.9,188488.2,377690.2,175311.1,204712.6,0.0
191540.0,214774.9,201092.5,246046.3,188655.5,377824.6,175132.0,204807.5,0.0
190434.3,213928.5,200126.3,244635.3,187417.5,377050.2,174452.3,202948.7,0.0
189805.1,212831.8,199242.6,243450.7,186132.2,376224.9,174075.8,201182.4,0.0
190981.5,213422.3,200063.4,244678.4,187103.1,376853.6,174766.4,202673.6,0.0
191805.3,214499.4,201047.3,246075.4,188545.0,377782.1,175302.2,204695.0,0.0
191550.0,214816.4,201088.2,246042.3,188759.1,377960.3,175145.7,204830.8,0.0
190456.7,214009.3,200142.7,244651.8,187556.3,377217.8,174479.0,202998.6,0.0
189827.5,212941.1,199272.5,243474.7,186297.2,376419.4,174112.3,201247.4,0.0
191006.1,213545.8,200104.8,244710.8,187296.1,377074.5,174814.3,202757.1,0.0
191834.1,214635.3,201095.1,246118.4,188760.6,378023.3,175355.8,204797.0,0.0
191566.4,214943.4,201120.9,246069.6,188965.3,378191.0,175181.6,204918.9,0.0
190470.5,214139.8,200170.4,244675.3,187766.9,377451.0,174512.5,203085.5,0.0
189831.9,213066.6,199291.8,243494.4,186506.2,376649.7,174138.1,201330.2,0.0
191005.9,213665.1,200115.3,244726.0,187493.9,377295.3,174830.1,202831.0,0.0
191836.4,214754.1,201103.6,246132.4,188952.4,378240.5,175367.4,204866.4,0.0
191559.7,215045.5,201118.9,246074.3,189143.6,378397.8,175182.5,204979.6,0.0
190465.4,214234.0,200165.3,244676.4,187935.5,377652.8,174506.0,203142.2,0.0
189825.7,213157.9,199280.6,243487.6,186664.5,376846.1,174127.1,201379.8,0.0
190990.0,213742.0,200090.9,244704.5,187632.9,377476.2,174812.9,202863.9,0.0
191807.1,214810.6,201061.2,246089.7,189065.9,378400.2,175340.1,204875.5,0.0
191541.1,215098.5,201078.0,246025.9,189243.7,378548.4,175163.2,204975.0,0.0
190469.9,214311.0,200147.7,244654.7,188060.8,377824.8,174509.6,203169.9,0.0
189830.3,213232.3,199266.4,243469.2,186792.1,377018.4,174132.0,201409.1,0.0
191002.2,213813.1,200082.5,244687.0,187760.6,377650.6,174820.3,202890.2,0.0
191828.8,214880.4,201064.5,246083.8,189199.8,378582.2,175351.3,204910.6,0.0
191564.6,215170.1,201085.8,246029.9,189384.5,378735.7,175179.2,205022.8,0.0
190477.8,214363.0,200138.3,244639.7,188177.3,377990.6,174514.9,203192.5,0.0
189829.2,213262.8,199239.1,243434.9,186882.8,377161.4,174125.4,201408.8,0.0
191003.3,213845.5,200055.5,244656.0,187852.7,377793.6,174819.5,202893.7,0.0
191825.3,214913.9,201033.9,246049.2,189289.3,378720.3,175346.1,204913.9,0.0
191565.2,215211.5,201065.0,246003.6,189483.3,378883.2,175175.2,205033.5,0.0
190471.2,214394.6,200112.2,244603.4,188267.2,378132.4,174501.7,203190.9,0.0
189831.2,213308.3,199225.8,243412.4,186984.1,377315.0,174123.7,201417.9,0.0
191003.4,213894.9,200044.2,244636.4,187954.8,377950.8,174818.5,202904.0,0.0
191830.3,214968.1,201023.7,246035.4,189393.6,378881.2,175351.7,204928.2,0.0
191556.4,215256.2,201043.8,245982.1,189580.1,379034.7,175173.8,205042.5,0.0
190462.5,214442.0,200095.3,244586.6,188367.8,378284.4,174504.4,203205.6,0.0
189818.6,213350.8,199207.8,243389.4,187081.6,377464.0,174123.8,201429.7,0.0
190985.3,213921.0,200014.4,244598.5,188036.7,378080.7,174807.3,202901.5,0.0
191818.0,214991.9,200997.9,246002.2,189483.7,379012.8,175343.5,204934.0,0.0
191568.0,215297.6,201036.3,245967.6,189691.4,379185.7,175178.0,205067.9,0.0
190484.9,214491.3,200092.6,244575.7,188483.1,378439.5,174503.8,203235.2,0.0
189838.3,213403.6,199203.6,243378.0,187197.1,377618.8,174117.0,201456.7,0.0
191001.4,213973.3,200008.4,244587.2,188152.2,378237.6,174795.5,202924.6,0.0
191829.3,215043.8,200990.5,245988.2,189592.3,379167.1,175328.1,204949.1,0.0
191564.4,215330.3,201014.9,245938.8,189782.6,379323.5,175154.2,205066.3,0.0
190473.8,214516.2,200063.6,244540.7,188568.5,378571.5,174486.6,203225.0,0.0
189831.4,213427.2,199173.2,243343.5,187282.0,377752.4,174109.8,201442.1,0.0
191010.8,214014.0,199993.0,244567.7,188252.6,378388.0,174809.6,202921.9,0.0
191831.3,215061.9,200962.4,245956.5,189675.5,379297.4,175330.1,204931.0,0.0
191575.4,215366.1,200998.1,245920.8,189878.8,379466.5,175163.8,205063.9,0.0
190487.8,214563.3,200054.5,244530.7,188673.6,378723.9,174492.8,203234.7,0.0
189847.1,213478.2,199168.6,243331.4,187386.8,377902.6,174112.2,201451.2,0.0
191009.6,214047.4,199975.2,244541.2,188341.2,378522.0,174796.1,202915.7,0.0
191835.5,215112.6,200952.2,245939.9,189778.7,379446.1,175324.8,204937.2,0.0
191565.3,215390.6,200971.5,245887.4,189963.5,379595.0,175145.2,205050.4,0.0
190472.9,214567.4,200017.5,244488.1,188744.4,378838.7,174472.1,203208.6,0.0
189834.5,213485.4,199135.4,243294.8,187459.0,378022.9,174099.0,201431.7,0.0
191004.3,214067.2,199950.8,244511.0,188420.5,378649.7,174794.1,202904.9,0.0
191837.3,215144.8,200939.7,245918.6,189870.1,379583.3,175333.2,204935.0,0.0
191573.1,215429.3,200964.6,245871.3,190060.1,379735.1,175158.9,205054.7,0.0
190482.3,214611.3,200016.8,244475.9,188843.7,378981.7,174487.8,203216.8,0.0
189838.4,213527.2,199132.2,243282.1,187556.9,378165.4,174108.8,201435.3,0.0
190997.0,214085.4,199934.5,244482.6,188499.7,378775.2,174788.8,202890.6,0.0
191838.2,215166.6,200926.9,245896.0,189952.1,379715.9,175331.3,204929.7,0.0
191581.5,215470.3,200959.0,245855.4,190150.2,379879.2,175158.5,205058.2,0.0
190498.9,214664.3,200018.8,244467.9,188944.1,379135.1,174494.1,203230.1,0.0
189848.7,213566.5,199122.8,243261.8,187645.0,378305.0,174107.5,201437.7,0.0
190993.5,214102.8,199912.3,244451.6,188575.4,378900.8,174777.8,202878.8,0.0
191829.9,215173.2,200901.9,245862.4,190022.4,379834.8,175318.0,204914.5,0.0
191570.9,215478.3,200931.4,245823.7,190217.7,379995.9,175145.0,205045.1,0.0
190479.7,214664.9,199984.5,244430.1,189004.0,379243.2,174476.5,203211.7,0.0
189832.1,213574.3,199095.7,243231.8,187716.6,378423.0,174098.1,201430.4,0.0
190989.3,214138.2,199896.8,244438.2,188665.5,379041.9,174779.2,202892.9,0.0
191815.0,215187.6,200869.7,245833.4,190091.6,379955.6,175303.2,204912.0,0.0
191556.3,215478.0,200897.8,245789.9,190276.6,380106.1,175129.2,205037.8,0.0
190469.6,214661.9,199950.6,244397.0,189056.8,379349.7,174459.9,203203.9,0.0
189831.8,213573.0,199069.4,243209.5,187768.3,378533.5,174087.8,201424.4,0.0
190991.7,214138.0,199875.5,244423.3,188719.3,379152.0,174771.5,202887.2,0.0
191817.4,215193.0,200849.8,245821.9,190147.0,380065.0,175300.4,204905.0,0.0
191564.8,215486.4,200883.1,245787.9,190341.3,380222.3,175135.7,205035.6,0.0
190485.1,214685.7,199945.1,244409.8,189139.2,379483.0,174472.9,203213.4,0.0
189828.1,213579.5,199044.6,243199.8,187829.5,378646.3,174084.3,201412.7,0.0
190987.7,214136.9,199845.9,244404.5,188770.1,379256.2,174768.7,202868.3,0.0
191817.6,215190.6,200820.7,245805.2,190199.2,380169.8,175295.3,204889.9,0.0
191561.3,215488.8,200849.2,245766.9,190388.1,380322.2,175121.7,205018.8,0.0
190477.4,214685.3,199909.0,244384.0,189179.5,379574.6,174456.1,203195.0,0.0
189819.4,213577.2,199009.4,243174.4,187868.8,378734.9,174062.6,201392.7,0.0
190980.8,214134.9,199814.0,244382.5,188812.1,379346.5,174748.0,202850.4,0.0
191817.9,215198.6,200798.8,245791.1,190248.3,380267.0,175285.3,204877.8,0.0
191561.1,215485.3,200830.3,245751.9,190436.3,380420.3,175120.9,205001.5,0.0
190492.2,214695.5,199900.9,244382.6,189240.7,379683.3,174467.3,203192.7,0.0
189830.3,213598.3,199003.8,243175.9,187942.2,378853.3,174079.2,201401.4,0.0
190988.0,214155.9,199806.3,244377.7,188884.5,379465.4,174766.8,202855.7,0.0
191824.4,215218.4,200791.1,245784.1,190320.9,380387.7,175305.1,204885.0,0.0
191547.1,215485.0,200803.1,245724.4,190484.9,380516.5,175114.2,204989.3,0.0
190473.0,214686.7,199876.8,244355.0,189288.8,379780.5,174458.6,203181.5,0.0
189829.7,213598.6,198994.3,243159.7,187997.8,378961.0,174082.2,201401.7,0.0
190979.0,214150.1,199786.9,244352.0,188924.3,379559.8,174755.0,202842.9,0.0
191807.5,215200.5,200762.0,245749.6,190346.3,380469.4,175282.0,204863.9,0.0
191564.2,215510.1,200808.4,245730.3,190555.3,380640.9,175125.9,205014.3,0.0
190482.1,214701.3,199868.3,244344.2,189341.9,379889.5,174457.9,203187.3,0.0
189817.9,213579.3,198960.5,243121.8,188019.0,379038.8,174063.0,201375.3,0.0
190969.6,214110.9,199750.1,244312.7,188939.7,379627.9,174743.7,202810.5,0.0
191811.4,215178.6,200733.9,245721.6,190375.0,380545.6,175282.7,204842.5,0.0
191553.2,215468.9,200762.7,245683.0,190564.2,380696.4,175108.0,204973.6,0.0
190480.0,214675.5,199834.9,244312.7,189369.4,379964.8,174450.3,203163.6,0.0
189824.5,213577.9,198942.7,243106.5,188072.2,379139.0,174063.5,201370.7,0.0
190977.7,214127.9,199740.5,244304.0,189010.7,379746.8,174745.6,202818.2,0.0
191818.3,215196.6,200731.5,245721.0,190459.5,380679.1,175289.2,204862.3,0.0
191570.0,215502.5,200772.9,245691.8,190662.1,380844.1,175122.7,205005.5,0.0
190496.0,214705.1,199841.1,244316.5,189462.0,380101.9,174459.1,203191.0,0.0
189837.5,213605.3,198944.8,243107.3,188160.0,379272.5,174071.8,201395.6,0.0
190991.1,214150.4,199740.0,244302.8,189092.5,379877.0,174757.9,202839.2,0.0
191821.7,215202.5,200716.1,245702.1,190520.3,380786.9,175290.8,204865.4,0.0
191563.8,215499.3,200750.7,245668.2,190715.5,380943.3,175121.7,205007.5,0.0
190474.3,214685.3,199807.3,244279.8,189498.5,380188.5,174450.7,203180.8,0.0
189808.6,213569.0,198899.6,243057.9,188176.9,379342.3,174057.6,201367.7,0.0
190959.8,214105.9,199688.1,244245.8,189094.5,379935.3,174736.4,202802.0,0.0
191803.9,215166.0,200674.1,245658.1,190528.4,380852.1,175276.0,204835.4,0.0
191556.8,215460.3,200713.6,245628.6,190721.3,381006.4,175111.8,204973.9,0.0
190477.5,214653.1,199777.7,244246.8,189508.6,380258.1,174448.0,203153.0,0.0
189805.4,213537.9,198867.5,243021.0,188187.2,379410.8,174050.7,201337.3,0.0
190955.5,214081.9,199659.5,244208.6,189113.6,380008.7,174731.0,202770.5,0.0
191799.4,215150.4,200649.5,245621.9,190555.7,380934.0,175272.9,204810.5,0.0
191554.7,215458.4,200694.2,245599.6,190762.1,381098.4,175112.4,204960.5,0.0
190498.2,214693.5,199784.8,244250.9,189593.6,380388.2,174470.5,203177.6,0.0
189850.9,213623.3,198904.5,243056.8,188313.8,379583.8,174099.8,201400.3,0.0
190992.5,214168.5,199691.1,244239.2,189238.2,380182.4,174770.7,202832.3,0.0
191834.3,215235.1,200680.0,245651.6,190683.7,381109.7,175312.2,204871.7,0.0
191579.0,215536.8,200717.1,245620.6,190884.9,381272.2,175143.8,205016.5,0.0
190490.3,214728.2,199774.4,244232.9,189670.5,380518.4,174469.3,203192.0,0.0
189804.2,213589.0,198845.5,242987.2,188323.0,379648.1,174054.2,201351.8,0.0
190949.8,214123.8,199632.0,244172.4,189238.0,380240.6,174727.7,202778.4,0.0
191791.4,215178.7,200615.4,245582.6,190666.9,381153.5,175262.8,204809.2,0.0
191540.1,215468.3,200650.4,245549.3,190854.0,381300.2,175092.7,204945.7,0.0
190462.4,214667.1,199716.8,244174.0,189645.4,380552.0,174430.6,203131.1,0.0
189794.7,213552.4,198812.4,242953.5,188322.1,379706.5,174041.0,201317.4,0.0
190941.0,214079.2,199597.3,244135.3,189228.5,380291.6,174715.6,202738.3,0.0
191793.2,215143.5,200593.2,245555.5,190666.7,381215.4,175261.2,204782.7,0.0
191544.5,215441.8,200633.7,245530.9,190862.4,381370.5,175096.4,204930.5,0.0
190466.5,214646.1,199703.1,244158.4,189659.1,380622.8,174435.2,203120.5,0.0
189795.0,213530.4,198793.8,242933.3,188336.1,379776.5,174040.7,201305.3,0.0
190936.6,214053.8,199571.5,244105.9,189237.5,380358.8,174711.4,202721.0,0.0
191782.1,215105.6,200554.3,245517.0,190665.8,381268.8,175252.8,204754.3,0.0
191544.0,215399.3,200599.1,245495.9,190861.6,381422.9,175094.5,204905.4,0.0
190478.7,214619.4,199680.2,244137.9,189671.8,380690.4,174440.6,203112.2,0.0
189795.7,213499.5,198764.9,242904.5,188337.7,379835.1,174036.1,201287.5,0.0
190931.7,214013.5,199539.0,244072.9,189231.8,380406.9,174707.2,202698.5,0.0
191780.6,215067.5,200525.5,245487.5,190660.8,381317.6,175251.1,204738.2,0.0
191540.4,215371.3,200571.3,245466.3,190857.6,381469.9,175091.9,204891.8,0.0
190459.8,214563.1,199635.7,244089.7,189643.8,380715.5,174426.1,203078.5,0.0
189780.5,213432.5,198721.0,242857.1,188304.6,379856.2,174030.3,201250.6,0.0
190922.4,213949.0,199498.5,244028.1,189197.3,380426.6,174704.6,202661.6,0.0
191756.2,214979.4,200470.6,245429.3,190607.7,381320.4,175232.2,204686.6,0.0
191518.2,215277.2,200514.2,245411.4,190804.9,381474.4,175069.2,204841.5,0.0
190448.5,214493.0,199591.7,244051.3,189614.1,380740.4,174411.2,203047.2,0.0
189776.3,213380.7,198683.1,242825.8,188284.8,379890.3,174012.9,201227.8,0.0
190921.5,213909.7,199467.1,244008.4,189188.2,380473.6,174689.7,202647.9,0.0
191766.6,214958.4,200457.1,245424.5,190614.6,381383.9,175233.0,204685.8,0.0
191520.6,215244.3,200497.3,245396.2,190800.8,381531.3,175073.7,204829.2,0.0
190461.9,214447.0,199578.4,244038.2,189604.1,380789.2,174424.2,203038.2,0.0
189784.9,213322.3,198662.9,242806.6,188266.9,379928.8,174021.8,201214.0,0.0
190915.6,213829.0,199430.9,243968.5,189147.4,380490.4,174686.4,202611.3,0.0
191771.8,214891.3,200425.2,245391.1,190578.6,381406.5,175237.4,204660.0,0.0
191543.5,215203.6,200483.4,245390.1,190793.4,381577.7,175090.6,204835.8,0.0
190475.1,214399.5,199553.4,244022.4,189587.3,380828.0,174431.2,203033.3,0.0
189796.4,213271.8,198632.7,242786.4,188240.0,379961.6,174026.3,201201.1,0.0
190926.7,213784.6,199402.1,243952.9,189122.9,380524.5,174687.2,202604.0,0.0
191779.1,214844.4,200394.9,245377.3,190553.6,381436.2,175231.1,204651.6,0.0
191539.1,215145.2,200442.5,245362.4,190751.2,381591.3,175071.5,204814.0,0.0
190464.9,214341.6,199508.9,243990.6,189540.4,380837.6,174403.9,203007.0,0.0
189782.8,213203.6,198584.3,242749.3,188187.5,379966.5,173996.5,201168.8,0.0
190925.5,213718.0,199363.0,243921.4,189077.3,380537.6,174672.5,202577.2,0.0
191778.6,214772.2,200358.5,245347.6,190510.3,381455.3,175222.8,204633.4,0.0
191543.8,215082.6,200413.2,245341.8,190714.8,381618.6,175071.4,204807.5,0.0
190470.4,214284.8,199485.8,243976.6,189507.5,380870.4,174412.8,203010.9,0.0
189796.4,213157.5,198571.6,242746.4,188164.2,380009.0,174013.1,201183.9,0.0
190936.4,213670.9,199346.3,243915.9,189050.1,380576.6,174682.8,202588.4,0.0
191782.1,214716.6,200331.8,245331.5,190470.7,381478.2,175221.1,204628.9,0.0
191538.5,215007.2,200376.9,245314.3,190661.7,381628.6,175058.8,204790.1,0.0
190469.6,214204.3,199452.0,243951.2,189453.5,380879.5,174400.0,202993.5,0.0
189788.6,213073.2,198532.5,242712.2,188104.6,380011.7,173995.6,201158.9,0.0
190928.6,213595.0,199312.0,243885.3,188996.9,380587.5,174670.8,202570.5,0.0
191777.3,214647.9,200303.9,245304.6,190421.0,381497.7,175215.3,204616.2,0.0
191526.5,214924.7,200335.4,245275.6,190595.8,381631.0,175045.3,204761.6,0.0
190457.8,214124.2,199408.4,243911.3,189388.1,380879.9,174390.2,202963.8,0.0
189777.9,212993.9,198492.5,242677.4,188045.1,380017.0,173993.7,201136.0,0.0
190913.7,213510.7,199268.0,243844.5,188932.9,380585.8,174662.9,202540.0,0.0
191768.4,214572.4,200266.4,245270.8,190368.8,381504.0,175213.8,204594.3,0.0
191528.1,214864.5,200310.8,245252.6,190560.3,381651.3,175056.0,204755.3,0.0
190458.4,214059.6,199384.5,243886.9,189345.8,380892.6,174397.9,202954.5,0.0
189771.1,212929.8,198463.7,242648.7,187995.8,380023.5,173993.0,201121.8,0.0
190901.0,213438.5,199231.3,243813.1,188875.2,380586.8,174660.0,202520.9,0.0
191753.2,214478.7,200215.4,245228.2,190289.4,381483.4,175200.3,204557.5,0.0
191519.5,214776.4,200265.0,245218.0,190487.1,381635.1,175042.0,204724.2,0.0
190446.3,213976.4,199341.3,243854.3,189283.3,380884.8,174381.9,202928.5,0.0
189766.4,212850.0,198428.7,242620.2,187940.1,380021.4,173980.5,201094.7,0.0
190906.7,213368.8,199208.8,243793.3,188831.3,380593.2,174658.2,202499.5,0.0
191763.8,214428.3,200208.0,245221.3,190265.3,381505.8,175209.7,204554.1,0.0
191526.5,214723.5,200258.0,245211.5,190459.6,381655.3,175054.8,204720.4,0.0
190451.7,213917.1,199325.5,243843.8,189243.8,380892.4,174389.8,202916.6,0.0
189764.7,212778.6,198398.2,242597.1,187884.0,380013.4,173980.6,201071.1,0.0
190896.1,213272.4,199161.1,243749.7,188749.3,380562.1,174643.9,202454.3,0.0
191749.5,214316.9,200151.2,245169.7,190169.5,381461.2,175185.8,204497.3,0.0
191510.5,214611.0,200201.1,245158.3,190363.9,381608.0,175028.2,204663.8,0.0
190436.5,213804.0,199273.8,243790.3,189149.4,380845.5,174367.4,202861.0,0.0
189756.1,212675.8,198360.1,242556.8,187801.4,379975.7,173969.1,201026.1,0.0
190889.1,213175.7,199129.4,243718.5,188674.3,380531.0,174638.8,202415.0,0.0
191753.8,214232.2,200129.3,245149.6,190105.7,381440.1,175196.0,204467.7,0.0
191518.5,214524.8,200176.3,245137.8,190295.1,381581.3,175040.8,204632.2,0.0
190437.0,213706.0,199234.3,243759.6,189063.9,380802.5,174365.9,202815.9,0.0
189750.2,212560.7,198308.4,242510.5,187697.1,379915.9,173957.2,200963.7,0.0
190891.9,213072.4,199083.1,243677.9,188577.1,380478.8,174633.7,202362.3,0.0
191745.6,214131.2,200079.3,245109.3,190011.7,381394.8,175178.1,204420.3,0.0
191497.2,214418.9,200121.3,245090.2,190196.9,381532.8,175005.0,204581.5,0.0
190424.4,213612.9,199193.5,243722.0,188982.9,380768.9,174337.9,202782.0,0.0
189743.6,212479.6,198280.9,242487.3,187635.5,379900.6,173941.4,200947.2,0.0
190877.7,212977.8,199049.8,243646.2,188505.9,380455.1,174612.3,202335.3,0.0
191737.6,214031.6,200047.5,245073.9,189931.6,381358.5,175161.5,204385.8,0.0
191505.6,214329.1,200104.9,245069.9,190129.0,381508.1,175011.4,204560.0,0.0
190435.5,213523.5,199179.8,243708.0,188915.4,380745.3,174352.4,202762.9,0.0
189748.7,212389.0,198255.8,242463.8,187554.8,379866.2,173947.5,200918.1,0.0
190877.5,212889.7,199016.3,243615.2,188418.4,380412.5,174609.1,202300.5,0.0
191736.3,213943.1,200014.2,245046.6,189848.0,381319.3,175160.7,204356.9,0.0
191497.1,214229.4,200064.6,245040.0,190040.4,381463.8,175005.7,204529.5,0.0
190427.9,213424.4,199136.1,243672.7,188822.4,380694.1,174342.8,202729.1,0.0
189733.8,212290.1,198209.8,242423.5,187460.9,379811.5,173931.3,200881.7,0.0
190860.6,212790.7,198975.6,243578.5,188332.1,380368.2,174598.1,202269.8,0.0
191713.1,213834.5,199964.9,244997.0,189747.1,381264.6,175144.3,204312.5,0.0
191476.0,214123.7,200010.2,244981.0,189927.6,381400.7,174986.1,204471.2,0.0
190437.5,213350.1,199112.8,243650.7,188748.9,380667.6,174354.4,202714.6,0.0
189751.9,212224.9,198196.8,242413.9,187398.9,379796.4,173954.5,200881.1,0.0
190864.6,212704.1,198948.1,243553.2,188245.9,380330.5,174609.0,202249.0,0.0
191721.4,213744.5,199939.6,244976.1,189661.8,381222.3,175153.5,204297.2,0.0
191489.5,214043.0,199993.9,244971.8,189855.3,381363.1,174996.6,204473.9,0.0
190427.3,213255.4,199080.5,243624.1,188656.6,380617.4,174346.1,202696.1,0.0
189731.3,212113.3,198151.7,242369.9,187290.6,379733.2,173936.3,200842.4,0.0
190852.2,212597.1,198904.9,243509.0,188140.8,380269.2,174592.5,202210.1,0.0
191717.6,213658.6,199907.6,244942.9,189570.9,381175.1,175145.8,204269.1,0.0
191507.0,213982.9,199985.3,244964.7,189793.4,381346.6,175014.9,204472.6,0.0
190433.6,213177.0,199055.2,243601.6,188578.0,380577.7,174351.5,202677.8,0.0
189723.8,212017.8,198112.9,242336.1,187194.6,379673.0,173927.8,200806.4,0.0
190855.8,212511.1,198878.0,243489.6,188052.5,380214.0,174597.0,202183.4,0.0
191719.1,213560.3,199875.3,244920.9,189476.4,381115.5,175143.3,204242.0,0.0
191488.2,213868.6,199933.5,244918.8,189678.3,381267.5,174983.3,204424.0,0.0
190416.6,213064.6,199009.9,243558.0,188467.6,380507.8,174319.3,202633.5,0.0
189728.0,211922.0,198085.9,242308.9,187101.6,379627.3,173913.7,200779.8,0.0
190870.3,212425.8,198858.5,243468.1,187964.6,380180.3,174592.3,202160.3,0.0
191738.9,213483.9,199864.1,244908.3,189395.1,381088.2,175154.5,204224.4,0.0
191508.6,213782.2,199922.1,244908.3,189593.1,381234.0,175001.7,204409.9,0.0
190438.2,212978.4,198997.2,243544.3,188377.6,380466.8,174337.4,202619.0,0.0
189734.3,211828.8,198061.1,242283.4,187001.9,379573.0,173920.2,200754.5,0.0
190855.3,212311.0,198815.2,243424.6,187848.4,380107.3,174583.3,202115.0,0.0
191719.7,213363.9,199812.0,244856.3,189271.6,381004.3,175135.4,204170.0,0.0
191494.9,213667.3,199873.7,244864.3,189475.3,381153.4,174983.2,204358.1,0.0
190433.0,212875.0,198960.2,243513.4,188273.1,380397.0,174327.4,202577.4,0.0
189732.2,211732.6,198029.4,242256.4,186900.7,379510.0,173913.8,200717.6,0.0
190852.0,212222.8,198784.7,243394.5,187747.5,380044.8,174573.8,202080.1,0.0
191718.0,213283.8,199786.9,244831.2,189176.1,380948.3,175128.0,204142.2,0.0
191484.8,213577.9,199839.7,244828.1,189368.2,381086.4,174969.8,204321.2,0.0
190423.3,212773.5,198919.1,243471.4,188153.5,380318.7,174312.6,202531.6,0.0
189730.3,211628.0,197991.3,242219.4,186780.9,379428.4,173902.8,200671.1,0.0
190845.5,212112.1,198742.2,243356.5,187623.1,379958.0,174558.8,202028.0,0.0
191708.3,213162.3,199741.2,244791.8,189048.5,380857.4,175110.2,204089.2,0.0
191480.0,213463.7,199798.6,244797.3,189247.2,381002.7,174957.6,204274.3,0.0
190413.9,212668.5,198878.6,243442.3,188037.5,380240.7,174302.0,202489.0,0.0
189725.8,211534.9,197959.5,242196.0,186674.6,379360.5,173902.2,200640.2,0.0
190866.0,212043.7,198731.7,243355.6,187539.7,379912.9,174582.4,202020.3,0.0
191726.4,213097.8,199730.5,244790.1,188961.5,380808.1,175136.3,204080.5,0.0
191493.3,213397.9,199789.3,244795.1,189163.1,380954.4,174988.2,204271.9,0.0
190435.9,212610.3,198874.9,243446.0,187966.2,380200.8,174331.7,202499.0,0.0
189734.3,211467.9,197940.7,242183.8,186589.2,379305.1,173910.9,200634.5,0.0
190845.3,211943.4,198687.5,243314.3,187421.0,379827.2,174559.9,201984.7,0.0
191710.7,212993.8,199686.1,244748.8,188842.2,380723.0,175106.6,204042.7,0.0
191482.6,213294.7,199744.5,244752.7,189044.7,380865.1,174952.8,204230.7,0.0
190422.8,212508.2,198835.7,243407.4,187853.7,380115.9,174306.3,202460.7,0.0
189713.3,211349.7,197896.7,242138.0,186471.1,379216.5,173884.6,200588.0,0.0
190837.1,211832.5,198646.5,243271.3,187302.6,379740.0,174545.0,201937.6,0.0
191711.4,212900.4,199657.2,244720.2,188738.1,380650.1,175112.2,204015.8,0.0
191480.6,213198.9,199712.8,244722.9,188936.9,380789.4,174956.3,204204.2,0.0
190425.9,212420.4,198805.4,243384.3,187746.9,380041.9,174305.9,202438.7,0.0
189715.5,211271.5,197870.7,242120.6,186367.3,379146.7,173890.6,200571.4,0.0
190824.5,211732.5,198610.4,243243.9,187190.4,379662.8,174542.9,201914.1,0.0
191701.9,212790.9,199615.0,244684.9,188616.5,380561.8,175099.9,203980.1,0.0
191497.3,213119.5,199697.1,244715.0,188842.8,380729.4,174966.1,204195.8,0.0
190441.6,212343.6,198793.7,243378.2,187656.2,379986.0,174318.0,202433.9,0.0
189718.8,211177.9,197846.4,242101.4,186263.3,379077.2,173889.3,200549.8,0.0
190825.9,211634.9,198578.5,243215.4,187078.4,379585.5,174534.1,201878.4,0.0
191701.5,212686.0,199580.1,244652.5,188499.5,380479.3,175090.9,203941.4,0.0
191483.9,213005.7,199654.9,244674.5,188719.9,380640.2,174953.5,204151.8,0.0
190415.4,212214.8,198737.7,243322.4,187517.4,379880.2,174291.6,202373.7,0.0
189712.7,211064.1,197803.9,242059.7,186133.6,378979.8,173876.6,200501.8,0.0
190829.4,211536.7,198549.8,243190.5,186961.5,379497.0,174536.5,201844.0,0.0
191701.7,212593.8,199552.9,244635.9,188390.3,380396.0,175094.5,203912.4,0.0
191487.7,212912.1,199627.9,244659.2,188609.4,380553.5,174955.9,204123.0,0.0
190428.1,212127.7,198719.7,243312.2,187411.5,379797.9,174304.1,202355.2,0.0
189709.1,210967.1,197774.6,242035.9,186015.8,378888.6,173876.4,200474.2,0.0
190815.2,211430.9,198512.5,243157.8,186833.8,379400.1,174519.8,201811.0,0.0
191686.3,212482.5,199517.2,244599.4,188260.2,380299.9,175075.5,203879.5,0.0
191473.4,212803.8,199594.7,244624.3,188483.1,380461.4,174938.9,204091.6,0.0
190423.9,212027.2,198692.4,243286.8,187295.1,379714.8,174291.8,202328.4,0.0
189711.8,210873.3,197747.9,242012.8,185904.3,378807.6,173864.5,200446.3,0.0
190820.4,211342.4,198485.1,243133.4,186724.3,379319.0,174512.7,201780.9,0.0
191690.0,212389.8,199482.6,244568.2,188141.0,380208.2,175067.7,203836.9,0.0
191470.1,212697.6,199545.0,244577.5,188341.2,380351.0,174921.1,204027.3,0.0
190432.8,211934.1,198655.6,243258.3,187166.9,379610.1,174282.5,202287.2,0.0
189704.3,210773.7,197708.8,241984.6,185775.4,378700.6,173852.2,200410.0,0.0
190804.9,211233.8,198445.9,243103.0,186595.4,379216.1,174501.3,201744.7,0.0
191690.2,212295.2,199457.9,244551.1,188027.4,380116.9,175067.5,203820.9,0.0
191480.9,212624.2,199537.3,244577.4,188253.2,380278.9,174928.0,204041.4,0.0
190425.9,211845.9,198631.1,243237.1,187062.7,379527.2,174275.3,202281.0,0.0
189712.6,210691.7,197692.2,241964.7,185672.6,378621.2,173853.8,200400.8,0.0
190815.8,211145.3,198423.5,243076.5,186480.8,379123.9,174497.0,201723.5,0.0
191698.1,212217.9,199437.7,244530.0,187917.5,380031.0,175066.1,203805.1,0.0
191476.9,212537.5,199509.9,244552.1,188135.2,380187.4,174923.8,204018.8,0.0
190421.3,211758.6,198608.8,243217.2,186946.5,379439.4,174275.7,202261.7,0.0
189704.6,210597.1,197663.7,241943.0,185550.3,378529.3,173850.4,200376.0,0.0
190808.2,211065.9,198398.5,243055.6,186363.2,379034.9,174498.7,201701.3,0.0
191691.3,212136.3,199414.7,244511.6,187806.6,379943.1,175068.9,203788.2,0.0
191479.0,212460.8,199493.6,244541.9,188036.7,380108.8,174935.3,204011.6,0.0
190421.0,211685.3,198588.0,243205.3,186850.3,379360.4,174284.6,202254.9,0.0
189703.4,210539.5,197644.1,241933.1,185460.8,378457.0,173858.2,200374.7,0.0
190806.2,210998.9,198375.0,243044.8,186272.6,378964.7,174505.3,201701.3,0.0
191686.3,212060.0,199382.1,244494.7,187711.4,379869.0,175069.0,203785.7,0.0
191471.2,212388.6,199457.6,244521.9,187941.0,380033.6,174928.3,204011.2,0.0
190423.1,211626.7,198564.7,243197.8,186770.2,379301.4,174285.4,202272.2,0.0
189705.0,210480.5,197621.2,241922.2,185377.6,378399.4,173857.8,200391.1,0.0
190806.4,210946.1,198351.9,243034.5,186188.3,378909.8,174501.3,201714.6,0.0
191690.2,212011.1,199364.5,244488.5,187626.2,379817.7,175062.9,203798.4,0.0
191490.6,212353.9,199457.7,244532.7,187873.0,379999.2,174934.1,204041.4,0.0
190441.1,211591.6,198563.4,243204.6,186701.7,379266.8,174288.4,202299.8,0.0
189717.5,210443.2,197618.3,241928.3,185308.8,378365.0,173864.6,200412.8,0.0
190809.1,210897.2,198341.5,243028.8,186109.0,378864.6,174503.8,201720.4,0.0
191693.5,211959.8,199354.8,244480.0,187547.3,379770.6,175071.8,203805.1,0.0
191490.4,212302.9,199442.6,244518.8,187789.2,379947.1,174939.5,204042.8,0.0
190439.2,211545.7,198548.6,243190.3,186619.9,379213.1,174295.3,202302.8,0.0
189716.3,210399.6,197605.7,241910.2,185233.1,378311.7,173873.0,200419.4,0.0
190806.6,210851.4,198328.2,243011.2,186036.3,378813.5,174513.4,201731.8,0.0
191687.5,211911.2,199337.2,244462.7,187472.6,379716.5,175072.2,203812.7,0.0
191486.5,212253.2,199425.0,244501.4,187715.5,379891.1,174937.5,204049.3,0.0
190447.5,211510.1,198539.5,243181.5,186555.6,379165.0,174298.5,202316.4,0.0
189720.4,210358.2,197594.3,241901.4,185165.4,378262.4,173870.5,200429.0,0.0
190813.2,210804.5,198315.1,242999.4,185965.6,378762.3,174509.3,201734.2,0.0
191698.9,211872.4,199325.5,244450.0,187405.0,379670.3,175074.0,203819.8,0.0
191496.6,212220.4,199415.8,244492.6,187654.0,379849.0,174941.1,204062.7,0.0
190449.3,211472.1,198527.6,243171.1,186495.5,379122.3,174298.3,202329.4,0.0
189709.8,210303.1,197569.5,241875.7,185092.2,378205.9,173858.8,200424.8,0.0
190809.0,210759.9,198295.2,242976.7,185896.3,378708.2,174500.3,201730.0,0.0
191701.9,211837.5,199314.5,244435.8,187346.0,379624.4,175071.1,203820.4,0.0
191499.6,212178.5,199403.9,244476.3,187592.5,379802.5,174943.5,204058.4,0.0
190445.2,211409.6,198503.7,243143.4,186415.7,379058.0,174295.9,202308.8,0.0
189716.6,210258.0,197549.8,241854.0,185017.1,378145.3,173859.8,200408.8,0.0
190812.3,210716.5,198276.4,242957.5,185822.8,378650.5,174501.5,201717.8,0.0
191697.6,211782.7,199290.3,244412.1,187264.2,379556.9,175064.1,203802.4,0.0
191504.0,212133.2,199389.5,244461.6,187520.8,379741.6,174940.0,204049.9,0.0
190457.8,211382.1,198498.2,243135.4,186357.6,379010.6,174294.1,202309.6,0.0
189726.2,210226.8,197544.6,241846.5,184962.3,378102.3,173860.8,200410.1,0.0
190826.1,210689.3,198271.9,242948.3,185772.1,378610.1,174507.1,201716.9,0.0
191720.8,211766.6,199293.6,244411.8,187225.7,379525.4,175077.0,203808.5,0.0
191520.0,212113.2,199384.2,244456.4,187477.1,379703.8,174944.3,204048.0,0.0
190467.8,211359.1,198487.9,243127.2,186309.0,378967.8,174294.4,202301.3,0.0
189729.2,210204.5,197529.3,241832.6,184907.8,378055.2,173857.4,200395.8,0.0
190816.5,210654.3,198245.6,242926.9,185704.0,378551.8,174495.9,201692.0,0.0
191701.6,211717.7,199258.1,244381.6,187142.6,379455.1,175061.1,203773.6,0.0
191502.9,212069.8,199354.7,244431.5,187397.4,379637.4,174937.6,204022.3,0.0
190461.5,211327.3,198469.2,243116.0,186245.0,378915.2,174301.1,202293.0,0.0
189725.9,210168.7,197514.9,241822.7,184844.8,378004.6,173862.5,200385.4,0.0
190815.4,210614.6,198232.7,242913.1,185640.7,378501.9,174495.0,201678.0,0.0
191717.6,211695.1,199261.4,244383.9,187101.2,379425.5,175074.0,203779.9,0.0
191513.6,212029.4,199352.1,244426.8,187350.3,379600.4,174941.6,204023.1,0.0
190473.7,211289.2,198466.0,243106.0,186194.9,378874.3,174294.4,202290.7,0.0
189739.9,210132.2,197510.5,241810.8,184795.8,377964.3,173854.5,200383.0,0.0
190818.5,210562.7,198214.7,242888.0,185576.0,378444.9,174483.6,201657.3,0.0
191704.9,211628.0,199231.1,244344.6,187020.3,379351.2,175056.1,203740.6,0.0
191502.1,211967.1,199321.3,244384.7,187266.4,379525.1,174924.6,203975.1,0.0
190472.1,211233.7,198447.6,243083.9,186129.3,378813.9,174290.7,202267.5,0.0
189735.4,210088.6,197494.9,241797.4,184737.8,377912.4,173853.5,200373.8,0.0
190811.3,210515.4,198198.2,242873.3,185514.7,378393.5,174482.1,201648.6,0.0
191713.0,211587.7,199220.0,244338.6,186962.6,379305.5,175056.0,203743.0,0.0
191522.1,211946.9,199324.5,244399.3,187229.8,379500.4,174935.4,204007.2,0.0
190484.9,211211.3,198446.8,243088.1,186083.5,378785.3,174298.9,202287.4,0.0
189735.1,210050.8,197483.8,241783.5,184678.2,377868.9,173854.8,200373.4,0.0
190818.2,210489.0,198192.2,242862.4,185459.8,378352.7,174488.3,201650.4,0.0
191714.0,211561.1,199213.9,244325.4,186911.4,379264.4,175061.3,203746.1,0.0
191520.3,211921.0,199318.0,244385.6,187180.6,379457.6,174940.9,204010.8,0.0
190485.2,211195.2,198443.9,243080.1,186043.7,378749.1,174310.0,202298.6,0.0
189734.0,210028.0,197475.3,241770.7,184631.0,377826.5,173860.5,200376.2,0.0
190821.1,210471.8,198189.6,242854.5,185417.2,378317.7,174497.2,201657.5,0.0
191725.9,211553.8,199218.6,244325.9,186876.8,379240.2,175076.0,203761.0,0.0
191527.9,211908.8,199316.7,244379.5,187140.7,379428.4,174944.0,204016.4,0.0
190480.4,211164.5,198428.0,243061.0,185988.5,378702.0,174294.7,202287.1,0.0
189732.7,210005.6,197461.8,241756.6,184580.5,377783.3,173849.0,200370.3,0.0
190814.0,210447.9,198171.5,242839.7,185371.9,378277.2,174488.0,201652.4,0.0
191711.9,211519.0,199190.4,244301.9,186825.8,379188.8,175062.5,203749.8,0.0
191514.5,211874.3,199285.3,244350.8,187088.0,379373.0,174934.4,204006.1,0.0
190476.3,211141.3,198407.3,243042.0,185945.8,378659.5,174299.0,202290.0,0.0
189722.2,209981.4,197438.4,241731.7,184533.9,377738.8,173852.2,200369.5,0.0
190803.7,210426.8,198144.4,242807.8,185315.5,378227.7,174485.1,201645.3,0.0
191703.9,211510.5,199170.2,244277.8,186777.8,379151.1,175061.7,203755.1,0.0
191514.6,211871.4,199273.0,244337.7,187049.4,379342.9,174940.0,204021.6,0.0
190477.3,211144.6,198396.2,243032.2,185911.4,378629.7,174299.3,202306.6,0.0
189719.9,209977.6,197426.9,241719.0,184497.4,377707.4,173846.7,200378.3,0.0
190789.5,210397.4,198123.0,242782.5,185266.4,378184.6,174473.6,201637.2,0.0
191695.2,211470.7,199151.0,244253.7,186725.7,379105.5,175055.5,203742.0,0.0
191515.7,211840.3,199262.1,244319.5,186999.9,379301.6,174938.0,204011.2,0.0
190482.0,211111.4,198387.3,243016.3,185864.6,378587.4,174299.9,202297.9,0.0
189734.2,209962.5,197431.2,241720.0,184471.2,377683.3,173860.0,200387.3,0.0
190799.3,210376.9,198120.2,242776.3,185231.6,378152.7,174477.3,201635.9,0.0
191702.2,211448.0,199142.9,244247.2,186686.5,379067.1,175052.5,203734.4,0.0
191515.8,211817.1,199250.1,244312.9,186963.8,379265.7,174931.5,204007.9,0.0
190480.3,211095.5,198375.4,243006.3,185831.4,378556.7,174289.5,202299.3,0.0
189738.5,209949.2,197423.4,241709.8,184442.3,377657.0,173856.7,200390.5,0.0
190820.8,210380.1,198127.1,242777.8,185216.2,378138.1,174489.3,201647.0,0.0
191714.9,211431.2,199137.2,244231.5,186650.8,379034.6,175049.7,203728.0,0.0
191536.6,211799.2,199250.5,244301.8,186930.4,379235.0,174936.0,204003.8,0.0
190509.7,211102.6,198395.8,243019.8,185825.6,378553.3,174316.5,202319.9,0.0
189749.7,209938.0,197423.0,241703.2,184410.8,377630.6,173868.2,200387.3,0.0
190808.2,210356.4,198105.4,242753.9,185163.6,378094.0,174483.5,201628.7,0.0
191710.9,211426.3,199129.3,244225.8,186617.3,379007.7,175060.9,203730.4,0.0
191529.8,211797.7,199247.1,244298.8,186902.1,379212.7,174948.6,204009.3,0.0
190502.0,211090.6,198384.2,243002.5,185779.8,378514.9,174313.0,202310.3,0.0
189740.8,209925.9,197410.1,241683.7,184364.3,377592.5,173853.6,200376.8,0.0
190805.5,210334.6,198092.2,242732.7,185113.4,378054.4,174470.3,201611.8,0.0
191718.9,211418.6,199125.1,244212.8,186576.2,378979.1,175054.2,203722.8,0.0
191532.5,211785.8,199237.1,244285.2,186861.8,379184.8,174936.4,204005.1,0.0
190495.8,211071.9,198365.8,242983.3,185735.6,378480.8,174296.8,202300.4,0.0
189731.8,209906.7,197392.1,241664.8,184319.5,377557.7,173843.3,200363.8,0.0
190797.9,210318.0,198076.8,242718.0,185070.7,378021.8,174464.8,201600.5,0.0
191709.6,211393.3,199105.7,244195.1,186528.5,378938.6,175045.5,203706.2,0.0
191525.3,211758.0,199217.8,244265.7,186810.3,379140.7,174931.4,203986.3,0.0
190498.7,211052.3,198355.0,242975.3,185694.9,378447.7,174302.6,202294.8,0.0
189739.9,209894.7,197385.7,241659.7,184286.4,377531.6,173855.3,200365.8,0.0
190803.3,210304.3,198070.4,242708.7,185036.6,377995.8,174473.6,201599.4,0.0
191708.5,211375.6,199094.1,244179.9,186489.8,378908.9,175044.9,203699.5,0.0
191527.2,211750.9,199206.4,244251.2,186775.0,379111.6,174924.7,203979.7,0.0
190505.6,211052.9,198351.0,242967.6,185665.2,378423.2,174300.6,202292.9,0.0
189738.5,209886.1,197375.2,241650.4,184250.9,377503.5,173847.2,200359.7,0.0
190800.8,210295.4,198056.8,242696.6,184999.9,377964.7,174466.5,201592.5,0.0
191722.9,211380.8,199096.2,244182.0,186469.0,378889.7,175063.0,203709.7,0.0
191535.1,211751.0,199207.1,244253.5,186754.3,379092.7,174946.8,203994.5,0.0
190502.7,211033.1,198337.7,242953.5,185630.4,378390.3,174307.0,202294.3,0.0
189750.5,209882.4,197374.8,241644.5,184226.2,377478.6,173861.4,200367.3,0.0
190811.2,210300.6,198061.6,242698.5,184982.3,377947.8,174482.7,201607.4,0.0
191711.1,211367.8,199079.8,244164.0,186430.0,378854.1,175052.8,203705.8,0.0
191531.1,211747.4,199198.0,244242.3,186721.6,379063.4,174939.7,203996.5,0.0
190502.9,211047.0,198340.7,242956.9,185614.2,378377.2,174312.4,202312.7,0.0
189732.2,209872.4,197362.8,241633.9,184195.9,377455.2,173858.3,200371.3,0.0
190793.3,210282.5,198041.9,242677.5,184943.3,377916.3,174476.5,201597.2,0.0
191701.6,211354.5,199064.3,244147.3,186397.5,378830.3,175054.5,203696.5,0.0
191514.9,211716.5,199168.7,244210.1,186670.1,379023.6,174932.8,203963.8,0.0
190503.5,211025.2,198318.2,242935.0,185569.7,378338.3,174310.9,202290.7,0.0
189737.6,209861.5,197345.3,241616.5,184159.8,377418.9,173853.9,200360.4,0.0
190796.5,210260.5,198021.4,242655.1,184898.6,377872.7,174464.0,201580.9,0.0
191716.2,211338.2,199052.8,244136.1,186359.1,378792.0,175047.8,203692.8,0.0
191545.0,211724.9,199176.5,244220.0,186656.1,379006.3,174939.7,203987.9,0.0
190512.7,211021.6,198311.3,242928.3,185541.4,378313.5,174303.7,202296.3,0.0
189738.1,209851.4,197328.9,241600.8,184118.6,377387.2,173842.4,200348.7,0.0
190792.1,210247.9,198002.5,242636.5,184856.1,377840.2,174456.5,201564.8,0.0
191704.4,211321.7,199033.4,244115.8,186319.7,378759.6,175041.7,203676.9,0.0
191528.4,211695.0,199155.6,244197.3,186616.3,378969.5,174933.3,203972.4,0.0
190509.7,210999.7,198298.7,242912.0,185507.7,378279.4,174303.7,202289.4,0.0
189738.0,209833.4,197321.0,241585.1,184090.4,377357.3,173849.7,200346.6,0.0
190794.0,210233.0,197995.7,242620.9,184829.9,377812.2,174463.1,201563.4,0.0
191709.8,211308.0,199022.2,244096.2,186287.1,378724.4,175037.3,203669.4,0.0
191547.8,211700.8,199154.2,244189.8,186595.7,378945.0,174935.8,203974.1,0.0
190524.5,210999.4,198295.8,242902.1,185484.9,378250.4,174303.7,202285.6,0.0
189755.9,209827.8,197318.8,241577.4,184063.9,377325.8,173848.1,200339.9,0.0
190797.2,210215.9,197986.0,242607.6,184795.9,377776.3,174453.0,201550.3,0.0
191710.1,211290.8,199015.8,244086.6,186256.6,378693.1,175036.6,203663.5,0.0
191539.7,211683.1,199142.6,244176.1,186560.3,378908.4,174932.8,203968.5,0.0
190514.8,210982.2,198285.4,242891.5,185454.0,378219.6,174303.5,202288.5,0.0
189737.1,209804.3,197295.8,241551.6,184022.6,377285.2,173834.8,200331.5,0.0
190790.3,210196.8,197966.8,242583.0,184755.3,377734.6,174445.4,201538.5,0.0
191714.9,211283.1,199004.1,244073.5,186225.6,378660.3,175033.7,203659.4,0.0
191539.3,211664.2,199129.1,244161.9,186525.0,378873.5,174929.1,203964.2,0.0
190517.4,210966.4,198272.7,242881.0,185413.3,378182.3,174304.8,202285.1,0.0
189734.1,209788.8,197284.2,241546.7,183982.2,377250.3,173837.5,200331.7,0.0
190784.3,210188.3,197953.2,242576.9,184716.0,377702.5,174449.3,201540.9,0.0
191705.6,211277.7,198991.3,244066.9,186190.3,378633.3,175038.8,203666.5,0.0
191530.4,211659.7,199114.2,244153.3,186488.8,378846.1,174926.9,203966.9,0.0
190500.2,210942.0,198247.4,242861.4,185367.6,378142.6,174292.2,202275.3,0.0
189725.9,209759.0,197263.2,241527.2,183938.2,377208.3,173829.0,200320.2,0.0
190791.0,210173.4,197945.4,242567.1,184685.1,377670.2,174447.2,201538.0,0.0
191710.0,211265.2,198982.9,244057.6,186162.9,378597.7,175038.3,203664.8,0.0
191526.7,211642.9,199095.3,244142.1,186459.2,378805.8,174924.8,203965.8,0.0
190496.2,210932.3,198226.2,242853.3,185340.1,378106.4,174289.0,202281.0,0.0
189725.5,209760.0,197249.8,241526.2,183919.8,377183.0,173840.2,200335.8,0.0
190784.0,210178.2,197930.9,242565.0,184667.3,377647.3,174462.4,201555.5,0.0
191695.1,211256.6,198954.6,244043.3,186132.2,378566.7,175037.9,203670.5,0.0
191516.7,211629.3,199067.7,244122.3,186421.5,378768.5,174919.9,203969.9,0.0
190487.8,210909.6,198199.9,242828.8,185293.3,378059.3,174284.3,202279.7,0.0
189717.9,209742.6,197223.7,241501.3,183869.4,377136.4,173832.9,200333.3,0.0
190771.6,210148.1,197902.6,242540.0,184615.6,377604.9,174453.7,201550.0,0.0
191698.7,211234.5,198943.3,244036.2,186093.8,378537.7,175044.3,203679.8,0.0
191525.9,211610.7,199061.4,244119.3,186384.4,378743.4,174928.2,203980.7,0.0
190498.5,210894.4,198194.4,242827.0,185258.1,378037.8,174291.7,202293.1,0.0
189725.5,209724.5,197215.5,241498.0,183831.0,377110.8,173834.7,200343.8,0.0
190782.3,210134.2,197895.8,242533.6,184577.0,377577.5,174451.3,201559.5,0.0
191712.1,211233.3,198942.7,244032.2,186063.6,378518.5,175046.1,203697.8,0.0
191528.8,211597.4,199054.3,244112.3,186351.2,378718.8,174930.0,203995.1,0.0
190493.3,210863.5,198177.3,242811.6,185214.8,378002.1,174285.1,202296.1,0.0
189718.3,209694.7,197197.8,241477.6,183787.7,377075.6,173827.1,200339.5,0.0
190780.1,210114.5,197883.5,242517.7,184539.6,377547.1,174456.1,201555.9,0.0
191699.8,211205.6,198920.6,244009.9,186015.7,378476.2,175042.7,203684.7,0.0
191521.7,211578.3,199036.8,244095.1,186307.0,378682.0,174926.6,203988.1,0.0
190487.6,210843.8,198161.7,242795.9,185172.4,377967.9,174284.4,202292.5,0.0
189711.3,209667.9,197173.6,241452.6,183737.5,377034.9,173821.6,200326.5,0.0
190772.4,210088.6,197861.5,242495.3,184492.6,377510.0,174450.4,201545.3,0.0
191704.5,211189.8,198914.4,243999.0,185980.3,378451.4,175050.5,203687.7,0.0
191524.9,211550.2,199026.8,244080.1,186264.9,378647.8,174928.8,203983.8,0.0
190507.1,210842.5,198165.4,242795.2,185145.7,377945.6,174291.4,202299.8,0.0
189729.8,209670.7,197183.5,241459.1,183717.4,377016.7,173831.7,200339.9,0.0
190776.1,210066.3,197855.9,242486.1,184457.1,377475.5,174445.4,201539.8,0.0
191702.7,211155.7,198895.1,243978.7,185934.7,378403.8,175033.5,203667.7,0.0
191513.7,211510.4,198998.7,244051.0,186212.4,378589.5,174905.4,203955.3,0.0
190494.5,210804.9,198143.7,242775.5,185102.5,377895.0,174278.0,202281.5,0.0
189711.6,209625.9,197154.6,241432.6,183665.0,376956.3,173814.4,200311.8,0.0
190776.8,210041.9,197838.8,242473.9,184414.5,377429.7,174446.1,201522.1,0.0
191704.1,211142.1,198885.9,243977.5,185902.5,378373.6,175041.5,203659.6,0.0
191520.4,211493.9,198989.9,244047.0,186172.7,378558.4,174918.6,203937.6,0.0
190512.8,210790.0,198138.2,242774.6,185064.7,377863.1,174290.0,202270.9,0.0
189725.1,209616.0,197150.1,241435.6,183636.8,376931.3,173822.7,200307.3,0.0
190771.0,210018.3,197820.6,242459.5,184373.8,377389.2,174438.3,201499.7,0.0
191704.1,211112.1,198867.1,243960.2,185859.5,378326.4,175034.6,203636.0,0.0
191527.5,211474.9,198980.6,244042.0,186144.5,378520.2,174915.4,203933.5,0.0
190506.9,210765.3,198120.2,242761.6,185026.0,377818.3,174282.3,202252.3,0.0
189729.8,209602.1,197140.5,241433.0,183603.9,376899.9,173826.9,200297.4,0.0
190777.0,210000.4,197814.4,242460.6,184343.2,377364.9,174442.1,201495.9,0.0
191707.3,211088.5,198859.5,243957.4,185825.2,378298.1,175032.0,203631.2,0.0
191535.0,211458.3,198980.0,244042.7,186114.6,378496.1,174917.5,203936.3,0.0
190514.8,210748.2,198121.1,242757.8,184997.0,377793.1,174285.7,202257.6,0.0
189725.5,209570.3,197129.7,241410.1,183561.1,376859.4,173822.5,200285.6,0.0
190774.5,209976.0,197801.9,242433.8,184300.8,377323.8,174440.7,201481.1,0.0
191707.3,211070.3,198848.5,243936.3,185789.0,378257.8,175035.3,203621.7,0.0
191534.0,211442.0,198968.2,244025.8,186082.2,378456.0,174918.0,203931.3,0.0
190522.7,210741.0,198116.7,242752.4,184972.9,377761.8,174289.7,202261.8,0.0
189738.9,209561.7,197130.7,241407.4,183537.3,376827.2,173829.6,200290.4,0.0
190781.5,209950.3,197793.7,242419.1,184261.9,377275.7,174441.4,201469.3,0.0
191710.2,211046.9,198836.9,243920.8,185750.3,378212.6,175032.9,203609.4,0.0
191536.1,211427.9,198959.1,244011.5,186047.9,378417.7,174915.7,203922.4,0.0
190521.3,210730.2,198108.1,242733.2,184939.5,377725.0,174286.6,202254.1,0.0
189736.2,209549.5,197119.7,241389.0,183505.2,376794.3,173824.7,200284.0,0.0
190780.8,209936.7,197781.6,242403.8,184228.7,377245.3,174435.2,201465.9,0.0
191716.7,211027.5,198825.6,243905.7,185709.8,378174.9,175026.5,203604.2,0.0
191547.6,211409.6,198948.1,244000.1,186008.2,378377.3,174911.1,203918.5,0.0
190528.6,210707.6,198091.7,242720.5,184897.1,377678.7,174278.7,202248.9,0.0
189736.3,209527.6,197098.6,241371.8,183456.3,376743.0,173811.6,200275.0,0.0
190780.4,209922.0,197762.9,242389.5,184182.7,377197.8,174431.1,201458.3,0.0
191717.0,211014.6,198811.6,243894.1,185669.7,378134.8,175031.5,203601.9,0.0
191542.6,211382.2,198933.3,243985.7,185962.8,378335.7,174917.9,203915.0,0.0
190533.0,210693.3,198092.4,242724.4,184868.3,377655.4,174301.5,202263.4,0.0
189735.4,209509.9,197094.2,241366.5,183424.2,376715.3,173831.1,200283.6,0.0
190777.8,209895.9,197754.9,242376.3,184142.4,377161.4,174441.5,201456.8,0.0
191720.2,210995.0,198809.9,243890.2,185635.5,378105.2,175041.6,203609.5,0.0
191549.8,211368.8,198933.8,243983.3,185935.0,378309.9,174922.5,203926.5,0.0
190536.5,210669.7,198081.9,242710.3,184830.2,377615.9,174289.5,202259.3,0.0
189748.7,209492.7,197092.7,241364.3,183396.2,376683.9,173827.0,200285.4,0.0
190783.1,209874.8,197746.3,242365.0,184109.4,377125.6,174432.9,201451.2,0.0
191722.6,210975.8,198798.0,243876.8,185601.8,378064.7,175034.6,203602.6,0.0
191557.3,211364.6,198928.0,243982.2,185912.5,378277.3,174926.2,203931.1,0.0
190538.1,210668.6,198076.7,242708.5,184812.5,377587.6,174296.3,202268.6,0.0
189738.4,209481.9,197077.0,241351.3,183368.8,376646.8,173829.5,200283.3,0.0
190775.6,209864.4,197731.9,242355.2,184083.3,377089.5,174437.0,201446.9,0.0
191713.2,210944.7,198775.2,243855.6,185560.6,378012.5,175027.8,203582.7,0.0
191566.6,211347.7,198923.7,243978.3,185887.0,378242.1,174934.5,203928.7,0.0
190556.3,210662.3,198077.4,242712.7,184789.6,377557.8,174306.4,202270.9,0.0
189747.4,209472.8,197071.0,241344.1,183339.2,376612.1,173829.3,200278.3,0.0
190789.1,209866.6,197732.8,242351.3,184062.5,377064.9,174446.7,201448.3,0.0
191742.6,210971.4,198795.4,243872.6,185563.9,378013.9,175059.4,203605.5,0.0
191582.1,211363.3,198932.6,243984.4,185880.4,378233.6,174951.8,203939.9,0.0
190560.3,210671.7,198077.9,242710.5,184776.7,377540.4,174313.8,202274.3,0.0
189751.2,209483.6,197070.5,241341.9,183324.2,376594.5,173835.7,200277.8,0.0
190785.4,209853.6,197722.2,242341.6,184035.0,377037.2,174442.1,201434.9,0.0
191740.5,210953.6,198781.6,243861.1,185533.3,377981.3,175048.0,203590.0,0.0
191578.9,211339.2,198911.7,243967.8,185844.9,378193.0,174933.0,203919.4,0.0
190566.5,210648.9,198062.8,242699.0,184747.8,377505.1,174301.5,202263.0,0.0
189759.4,209461.9,197056.4,241331.1,183296.7,376560.8,173825.9,200265.0,0.0
190797.5,209846.9,197710.1,242330.0,184007.4,377004.2,174438.8,201420.5,0.0
191750.8,210959.3,198772.9,243856.6,185514.8,377958.4,175048.8,203586.0,0.0
191589.0,211349.6,198905.3,243965.2,185830.2,378174.5,174936.5,203921.5,0.0
190572.8,210669.0,198059.5,242699.4,184737.0,377491.3,174306.3,202270.2,0.0
189757.6,209475.3,197051.0,241328.3,183283.4,376543.8,173830.2,200272.2,0.0
190795.1,209852.1,197709.8,242331.5,183997.2,376992.3,174451.9,201429.2,0.0
191729.8,210935.8,198752.1,243832.2,185478.7,377920.5,175042.2,203566.8,0.0
191576.0,211334.1,198890.8,243941.9,185794.4,378136.6,174930.5,203905.2,0.0
190565.7,210650.8,198045.4,242675.0,184696.9,377449.8,174298.1,202251.8,0.0
189756.8,209458.0,197041.9,241308.8,183244.4,376505.7,173819.8,200258.0,0.0
190786.8,209825.8,197689.4,242299.7,183942.2,376938.8,174423.9,201403.1,0.0
191731.4,210917.6,198739.9,243811.6,185428.7,377869.6,175023.4,203549.4,0.0
191576.7,211314.2,198879.4,243928.9,185747.3,378087.7,174922.0,203889.8,0.0
190574.9,210641.5,198045.3,242674.8,184664.8,377410.4,174300.2,202247.8,0.0
189765.7,209461.7,197043.4,241311.0,183222.3,376472.3,173823.8,200258.1,0.0
190781.7,209824.4,197677.3,242291.2,183915.9,376901.8,174420.8,201393.8,0.0
191725.6,210907.9,198725.4,243798.8,185399.6,377832.4,175020.6,203537.5,0.0
191568.3,211286.0,198858.5,243907.0,185708.1,378045.9,174916.4,203870.1,0.0
190592.1,210637.0,198045.5,242677.7,184651.2,377392.3,174314.8,202261.2,0.0
189776.0,209452.8,197041.9,241309.4,183204.1,376449.5,173835.4,200269.8,0.0
190779.7,209799.3,197664.1,242274.9,183883.4,376864.4,174421.4,201387.3,0.0
191731.0,210899.3,198722.2,243796.1,185387.6,377811.2,175031.7,203546.7,0.0
191589.9,211308.1,198873.1,243920.5,185719.8,378039.7,174936.5,203900.3,0.0
190588.1,210637.2,198039.5,242666.9,184642.2,377366.8,174312.9,202263.4,0.0
189770.2,209447.7,197028.7,241292.8,183187.2,376420.3,173832.0,200261.2,0.0
190791.4,209804.1,197663.5,242271.4,183874.4,376845.5,174430.3,201390.2,0.0
191752.9,210907.3,198727.8,243797.7,185376.3,377793.0,175041.5,203554.4,0.0
191605.8,211317.3,198875.5,243921.7,185711.2,378022.2,174941.5,203910.7,0.0
190601.9,210642.2,198038.2,242665.6,184631.0,377345.9,174315.5,202272.2,0.0
