EEG 1,EEG 2,EEG 3,EEG 4,EEG 5,EEG 6,EEG 7,EEG 8,TRIG
203365.4,189846.5,197028.7,218768.0,206792.6,170209.7,161756.7,180673.0,0.0
201491.5,189121.1,196121.5,217933.6,205445.5,169992.4,161330.4,179718.0,0.0
200811.6,188929.7,195952.5,217889.2,204842.4,170057.7,161434.4,179740.5,0.0
202587.2,189635.0,196780.7,218722.0,206064.7,170319.8,161951.7,180817.0,0.0
203777.3,190049.7,197123.3,218989.1,207034.9,170361.4,162052.9,181187.0,0.0
203376.8,189855.4,196733.7,218550.4,206830.4,170219.5,161772.1,180683.7,0.0
201492.4,189116.5,195815.7,217706.5,205484.1,169994.1,161337.4,179717.3,0.0
200799.8,188917.3,195633.6,217649.8,204865.9,170048.1,161429.9,179727.1,0.0
202590.7,189637.9,196469.5,218486.9,206091.0,170317.4,161951.6,180810.5,0.0
203788.5,190051.7,196817.7,218758.2,207068.7,170362.6,162050.9,181183.8,0.0
203377.0,189844.8,196426.9,218320.1,206853.7,170218.2,161764.3,180676.0,0.0
201500.3,189118.9,195521.4,217484.3,205508.3,169994.2,161336.4,179712.9,0.0
200805.3,188922.7,195348.1,217433.0,204893.1,170055.5,161430.8,179724.7,0.0
202576.1,189626.8,196178.0,218259.4,206106.3,170314.6,161945.9,180800.0,0.0
203772.6,190040.5,196532.4,218531.6,207085.3,170357.1,162050.0,181177.7,0.0
203370.1,189836.0,196144.1,218095.0,206874.6,170208.4,161762.6,180673.0,0.0
201505.8,189122.5,195255.5,217276.0,205546.0,170002.1,161344.7,179727.2,0.0
200804.1,188924.5,195089.4,217225.7,204935.7,170065.8,161444.9,179741.9,0.0
202564.9,189620.9,195914.8,218048.1,206138.6,170319.9,161955.1,180811.6,0.0
203773.4,190045.0,196280.3,218330.5,207123.4,170368.9,162066.0,181196.7,0.0
203376.8,189847.0,195903.2,217899.8,206920.1,170226.1,161779.6,180696.2,0.0
201501.3,189118.5,195003.1,217067.0,205575.3,170004.6,161345.3,179732.4,0.0
200782.3,188904.0,194819.1,217000.1,204941.8,170055.6,161429.9,179730.0,0.0
202560.6,189621.4,195662.5,217841.4,206157.2,170326.8,161955.0,180816.0,0.0
203778.7,190054.2,196036.1,218135.3,207152.0,170386.9,162074.1,181210.3,0.0
203381.8,189848.7,195654.2,217700.7,206948.3,170236.5,161785.0,180705.7,0.0
201502.5,189117.7,194751.6,216865.9,205599.7,170006.6,161345.7,179737.8,0.0
200772.2,188901.8,194566.0,216799.1,204952.0,170052.7,161425.6,179729.3,0.0
202543.7,189612.5,195404.2,217636.8,206156.0,170316.1,161945.8,180805.7,0.0
203759.9,190040.4,195778.3,217931.8,207145.0,170369.6,162062.4,181198.3,0.0
203381.9,189850.2,195414.5,217512.4,206958.6,170225.6,161786.2,180709.0,0.0
201510.1,189122.3,194512.7,216679.7,205615.3,170000.8,161350.1,179740.8,0.0
200777.5,188907.8,194327.8,216614.7,204972.8,170052.9,161437.4,179729.6,0.0
202552.7,189625.0,195177.0,217459.3,206189.7,170328.3,161969.2,180815.8,0.0
203768.9,190052.5,195549.7,217749.6,207182.0,170380.8,162081.8,181206.5,0.0
203380.0,189855.8,195175.1,217322.5,206981.7,170236.1,161794.8,180708.1,0.0
201521.5,189135.8,194290.2,216504.2,205655.9,170023.0,161372.4,179756.0,0.0
200782.0,188913.3,194102.0,216433.1,205004.0,170065.9,161446.6,179735.4,0.0
202537.3,189613.3,194936.3,217266.2,206195.5,170323.9,161958.0,180803.4,0.0
203765.3,190047.3,195320.0,217568.1,207192.5,170377.9,162077.8,181200.8,0.0
203388.3,189858.6,194956.1,217145.9,207001.0,170237.1,161800.4,180709.3,0.0
201524.7,189132.5,194067.0,216318.8,205662.3,170013.5,161367.4,179747.0,0.0
200784.9,188911.6,193881.5,216252.1,205006.8,170059.1,161445.0,179727.6,0.0
202551.0,189623.8,194728.4,217095.9,206215.1,170324.9,161968.3,180811.1,0.0
203785.9,190061.2,195110.5,217397.4,207217.6,170374.9,162082.6,181210.0,0.0
203410.5,189867.9,194747.1,216983.4,207030.3,170233.2,161801.0,180716.8,0.0
201541.0,189135.5,193852.9,216151.6,205693.6,170005.4,161363.1,179749.1,0.0
200789.0,188913.3,193662.7,216076.4,205035.8,170054.0,161440.7,179724.0,0.0
202550.6,189623.7,194512.4,216925.1,206245.6,170328.4,161971.4,180808.9,0.0
203795.3,190072.2,194911.8,217244.9,207267.6,170397.5,162103.2,181223.2,0.0
203426.9,189885.7,194551.3,216833.7,207091.6,170259.0,161826.2,180735.6,0.0
201559.5,189158.9,193656.8,216004.5,205757.7,170031.2,161387.3,179768.0,0.0
200785.8,188926.4,193454.6,215921.8,205091.2,170066.8,161451.1,179732.7,0.0
202535.3,189627.6,194292.5,216760.0,206286.8,170327.5,161965.8,180807.8,0.0
203779.3,190067.4,194681.6,217069.2,207298.2,170381.5,162088.1,181213.0,0.0
203415.9,189880.7,194327.1,216659.0,207118.7,170241.0,161809.6,180726.0,0.0
201566.3,189158.4,193444.3,215835.3,205787.8,170016.7,161377.9,179765.5,0.0
200789.2,188916.0,193245.3,215752.1,205112.5,170057.3,161446.3,179729.6,0.0
202536.7,189614.8,194090.6,216592.3,206303.0,170324.4,161965.6,180804.9,0.0
203779.6,190056.4,194486.6,216900.8,207310.1,170381.0,162090.3,181209.9,0.0
203440.5,189887.2,194143.1,216498.7,207154.7,170242.4,161822.2,180736.5,0.0
201582.3,189165.6,193257.3,215674.0,205828.4,170015.3,161381.9,179772.9,0.0
200808.0,188938.6,193067.8,215599.8,205162.0,170063.7,161453.6,179741.8,0.0
202536.0,189620.0,193899.5,216431.0,206338.2,170316.5,161961.0,180803.4,0.0
203775.0,190054.5,194294.4,216742.7,207341.9,170368.8,162081.5,181206.9,0.0
203418.9,189874.1,193954.5,216342.1,207176.3,170233.7,161811.1,180727.9,0.0
201562.2,189151.8,193072.7,215520.8,205846.4,170009.4,161374.3,179763.7,0.0
200769.1,188911.0,192871.3,215437.8,205161.5,170052.9,161442.1,179719.9,0.0
202525.4,189624.0,193729.7,216291.8,206358.1,170327.7,161977.2,180806.9,0.0
203769.6,190061.5,194129.2,216602.9,207363.8,170381.7,162100.9,181214.4,0.0
203409.0,189870.3,193775.2,216183.7,207177.3,170229.2,161812.6,180718.9,0.0
201558.0,189149.5,192899.4,215363.7,205843.0,170006.3,161377.5,179754.4,0.0
200774.5,188917.7,192710.8,215289.6,205157.5,170057.4,161452.2,179721.0,0.0
202525.2,189624.3,193563.3,216136.3,206341.8,170326.1,161979.0,180802.0,0.0
203770.4,190059.9,193962.1,216445.2,207342.0,170374.4,162098.7,181207.8,0.0
203425.2,189880.8,193621.5,216044.3,207168.0,170236.2,161826.4,180726.6,0.0
201588.1,189173.5,192758.3,215241.6,205847.5,170029.1,161406.7,179778.4,0.0
200796.1,188937.9,192561.4,215161.1,205152.4,170073.9,161475.3,179735.7,0.0
202521.4,189624.2,193392.6,215991.9,206315.0,170326.2,161980.1,180798.6,0.0
203782.7,190077.5,193802.8,216316.6,207336.5,170388.3,162107.7,181217.5,0.0
203459.3,189917.1,193475.5,215930.3,207193.9,170261.6,161847.0,180754.2,0.0
201594.5,189183.7,192576.8,215093.9,205857.3,170021.5,161394.3,179774.8,0.0
200770.9,188927.8,192358.1,214997.7,205154.1,170058.2,161450.1,179713.3,0.0
202511.5,189633.5,193206.7,215849.4,206346.3,170327.5,161979.2,180793.1,0.0
203774.7,190085.4,193617.3,216180.5,207377.3,170386.3,162111.8,181218.6,0.0
203428.3,189901.5,193269.2,215781.6,207215.0,170241.0,161831.8,180738.9,0.0
201576.5,189179.9,192386.5,214963.2,205892.3,170014.3,161396.0,179774.3,0.0
200746.7,188923.5,192168.1,214863.8,205184.2,170047.3,161450.0,179706.6,0.0
202462.2,189610.6,193006.8,215701.0,206353.8,170307.0,161963.8,180772.7,0.0
203721.5,190058.9,193425.8,216030.5,207380.4,170369.4,162093.6,181197.5,0.0
203403.8,189897.1,193106.4,215644.1,207233.7,170238.4,161828.3,180733.4,0.0
201570.1,189187.1,192247.8,214837.5,205919.4,170021.6,161402.8,179779.7,0.0
200749.8,188937.4,192043.2,214745.8,205211.6,170058.3,161461.8,179718.9,0.0
202483.9,189636.6,192895.1,215593.7,206384.7,170324.9,161983.6,180793.5,0.0
203739.1,190071.6,193301.6,215913.6,207392.4,170373.3,162103.0,181206.9,0.0
203410.5,189896.2,192976.8,215525.5,207236.4,170239.8,161833.3,180740.3,0.0
201571.5,189179.0,192104.7,214707.4,205907.4,170015.9,161395.1,179775.4,0.0
200740.4,188919.1,191887.6,214605.1,205182.9,170050.5,161444.8,179704.4,0.0
202472.8,189619.8,192738.1,215450.1,206356.7,170321.0,161967.8,180779.5,0.0
203737.8,190065.7,193149.0,215777.2,207377.8,170374.7,162092.1,181201.1,0.0
203411.4,189894.9,192817.2,215388.7,207227.4,170236.7,161822.4,180735.2,0.0
201577.3,189182.1,191946.0,214575.4,205917.1,170017.8,161392.1,179776.1,0.0
200734.5,188919.5,191722.1,214471.9,205197.3,170052.9,161442.5,179700.7,0.0
202452.5,189614.0,192562.9,215313.1,206365.5,170318.0,161963.3,180770.7,0.0
203734.3,190075.1,192988.5,215654.2,207410.9,170385.9,162105.1,181211.5,0.0
203413.3,189905.3,192662.1,215268.0,207272.8,170246.8,161837.2,180743.0,0.0
201573.3,189190.3,191786.6,214451.5,205960.6,170019.6,161402.7,179777.1,0.0
200716.0,188918.6,191554.5,214343.9,205235.1,170045.7,161447.8,179696.9,0.0
202432.7,189611.1,192405.4,215195.8,206407.6,170314.0,161970.2,180774.2,0.0
203711.9,190070.6,192837.3,215538.2,207446.8,170379.4,162105.8,181209.6,0.0
203398.5,189905.3,192520.5,215156.2,207302.0,170246.7,161836.7,180745.3,0.0
201578.4,189200.2,191667.0,214353.0,206000.7,170029.1,161406.8,179791.0,0.0
200734.6,188935.9,191452.2,214249.5,205274.9,170059.0,161452.5,179710.6,0.0
202447.0,189619.8,192302.3,215090.2,206428.0,170318.5,161965.3,180775.1,0.0
203727.6,190072.0,192737.1,215429.7,207459.2,170376.3,162099.5,181205.7,0.0
203416.4,189906.5,192421.6,215045.7,207313.3,170231.4,161825.2,180737.4,0.0
201586.9,189192.9,191559.6,214234.9,205993.2,170007.8,161389.3,179772.0,0.0
200721.5,188919.2,191332.6,214120.7,205248.6,170036.0,161432.7,179682.3,0.0
202440.5,189618.6,192187.8,214970.1,206409.3,170307.4,161958.6,180756.7,0.0
203736.7,190088.2,192636.5,215327.1,207454.9,170381.1,162108.1,181208.2,0.0
203430.7,189919.5,192318.8,214942.5,207310.1,170239.3,161835.6,180744.3,0.0
201594.8,189198.4,191444.2,214125.1,205989.1,170011.3,161393.3,179773.4,0.0
200717.8,188918.1,191208.8,214012.2,205238.9,170043.7,161434.2,179680.7,0.0
202428.2,189610.8,192062.2,214865.9,206398.1,170316.9,161963.3,180756.4,0.0
203714.2,190065.2,192488.1,215205.4,207432.1,170372.0,162091.5,181188.0,0.0
203410.1,189896.6,192166.0,214824.1,207296.3,170231.9,161816.7,180725.1,0.0
201581.1,189179.7,191293.9,214012.8,205982.2,170005.6,161377.9,179762.0,0.0
200709.2,188905.9,191055.8,213896.0,205238.8,170036.0,161424.0,179673.5,0.0
202421.9,189601.6,191899.8,214745.2,206400.2,170306.1,161949.8,180748.5,0.0
203709.2,190058.0,192330.1,215095.3,207446.2,170368.9,162087.8,181188.5,0.0
203404.8,189888.9,192013.9,214720.1,207319.9,170233.5,161821.2,180730.9,0.0
201570.4,189166.7,191140.0,213905.1,206008.6,170008.1,161381.7,179764.0,0.0
200689.3,188890.8,190902.0,213784.9,205263.3,170035.7,161424.5,179668.3,0.0
202389.2,189579.7,191743.3,214631.6,206421.0,170297.1,161946.8,180738.3,0.0
203693.3,190054.1,192196.5,214997.7,207485.7,170376.7,162101.8,181199.6,0.0
203405.7,189900.7,191895.0,214630.7,207369.6,170248.6,161841.9,180751.5,0.0
201583.3,189191.1,191035.4,213819.1,206061.5,170020.1,161399.1,179784.6,0.0
200688.1,188905.4,190795.8,213693.2,205299.5,170039.9,161431.3,179676.4,0.0
202375.8,189582.7,191640.3,214536.4,206436.6,170305.1,161948.0,180737.9,0.0
203674.3,190047.1,192089.7,214893.1,207482.5,170375.1,162089.9,181187.1,0.0
203399.5,189895.4,191789.0,214522.4,207362.8,170240.0,161827.4,180736.6,0.0
201586.8,189187.0,190933.0,213719.0,206058.2,170020.5,161397.7,179779.6,0.0
200688.1,188901.0,190693.0,213597.6,205294.2,170049.8,161437.0,179676.3,0.0
202368.4,189572.3,191523.5,214428.4,206422.3,170301.9,161945.9,180733.3,0.0
203671.5,190032.6,191964.3,214781.7,207471.8,170363.3,162085.4,181182.6,0.0
203392.5,189879.2,191664.8,214419.8,207362.9,170237.2,161827.6,180736.8,0.0
201580.9,189173.3,190802.9,213615.5,206065.5,170016.1,161394.0,179777.1,0.0
200690.2,188896.4,190562.6,213494.3,205311.4,170045.9,161433.2,179675.8,0.0
202377.5,189574.8,191405.2,214342.0,206456.0,170312.1,161953.9,180745.1,0.0
203677.1,190037.8,191848.9,214701.4,207509.7,170377.0,162095.7,181196.9,0.0
203410.9,189896.9,191555.4,214343.6,207407.2,170250.2,161839.7,180752.0,0.0
201594.4,189184.8,190694.6,213535.3,206106.5,170025.3,161400.9,179784.1,0.0
200676.0,188887.0,190442.1,213396.0,205330.7,170041.7,161423.6,179662.3,0.0
202360.8,189569.3,191291.0,214244.3,206471.4,170310.3,161946.6,180730.8,0.0
203690.7,190051.4,191756.8,214620.7,207544.3,170386.7,162103.4,181197.6,0.0
203408.6,189887.8,191452.8,214250.6,207422.9,170244.7,161832.2,180740.8,0.0
201586.2,189166.1,190591.5,213438.3,206110.6,170010.9,161388.0,179771.6,0.0
200667.8,188870.7,190345.4,213301.8,205332.4,170032.7,161417.8,179653.4,0.0
202354.5,189555.2,191195.7,214148.0,206464.5,170299.8,161943.2,180722.3,0.0
203675.3,190027.9,191655.4,214516.8,207521.1,170370.6,162095.5,181185.4,0.0
203402.9,189874.1,191354.9,214146.8,207401.8,170233.0,161827.2,180730.7,0.0
201590.9,189162.0,190499.4,213339.9,206099.6,170007.0,161385.4,179764.2,0.0
200686.8,188886.2,190265.5,213219.6,205334.2,170046.1,161430.2,179658.5,0.0
202369.5,189570.9,191112.5,214065.3,206466.6,170315.8,161954.8,180725.0,0.0
203686.4,190041.8,191565.4,214435.2,207530.0,170383.3,162100.6,181187.0,0.0
203419.3,189891.1,191266.6,214073.7,207423.4,170249.1,161837.5,180741.5,0.0
201608.9,189180.5,190402.9,213266.6,206124.2,170020.7,161396.4,179775.5,0.0
200673.5,188881.8,190142.6,213127.6,205343.5,170038.9,161425.1,179653.1,0.0
202353.3,189570.0,190988.6,213981.8,206485.5,170316.2,161959.8,180731.7,0.0
203662.4,190027.9,191430.5,214343.2,207543.2,170376.0,162100.8,181188.3,0.0
203396.5,189875.0,191128.5,213981.6,207446.7,170237.2,161837.3,180744.5,0.0
201594.9,189170.6,190269.0,213175.9,206164.1,170009.1,161400.7,179781.9,0.0
200649.7,188864.0,190000.9,213026.7,205367.3,170021.9,161421.9,179643.2,0.0
202327.4,189546.7,190851.5,213881.3,206501.9,170294.7,161949.8,180716.4,0.0
203650.0,190019.3,191312.9,214257.7,207567.3,170369.5,162098.2,181187.5,0.0
203406.6,189886.7,191031.6,213910.5,207481.2,170242.5,161842.6,180755.8,0.0
201602.2,189179.0,190178.3,213105.5,206186.7,170016.0,161403.2,179793.8,0.0
200664.5,188886.9,189929.7,212969.6,205400.3,170044.4,161433.4,179666.2,0.0
202337.6,189570.0,190779.2,213819.4,206529.5,170316.7,161961.4,180732.7,0.0
203667.2,190045.5,191243.0,214193.5,207597.3,170384.4,162116.1,181202.8,0.0
203407.4,189893.6,190958.4,213841.5,207495.6,170257.1,161862.0,180764.6,0.0
201621.1,189197.1,190115.5,213042.2,206212.8,170036.8,161429.8,179806.5,0.0
200663.1,188886.5,189846.6,212883.0,205404.9,170043.9,161441.9,179655.5,0.0
202310.3,189544.5,190676.0,213710.5,206504.2,170294.3,161946.4,180701.9,0.0
203641.9,190019.6,191146.9,214090.2,207572.7,170364.5,162100.8,181176.3,0.0
203406.8,189886.7,190878.2,213752.8,207490.5,170244.1,161855.0,180754.2,0.0
201613.0,189184.1,190032.1,212954.5,206204.1,170023.1,161417.9,179796.2,0.0
200648.2,188873.4,189764.8,212801.0,205390.8,170040.0,161433.7,179649.3,0.0
202314.3,189553.4,190607.9,213644.5,206505.4,170306.5,161955.3,180710.4,0.0
203654.2,190031.7,191077.3,214026.8,207581.1,170377.9,162112.0,181188.1,0.0
203414.5,189890.9,190796.3,213681.5,207495.0,170249.6,161859.5,180759.1,0.0
201631.3,189200.4,189958.3,212893.8,206215.5,170039.4,161436.2,179811.8,0.0
200655.5,188882.4,189681.7,212738.6,205397.6,170053.3,161453.2,179662.8,0.0
202295.5,189538.4,190503.2,213568.7,206492.2,170304.1,161961.0,180707.5,0.0
203639.0,190017.8,190970.1,213949.4,207570.2,170373.4,162116.1,181185.2,0.0
203400.3,189876.0,190690.0,213602.6,207492.4,170245.3,161864.3,180761.3,0.0
201617.8,189183.2,189844.4,212807.8,206215.1,170030.1,161435.0,179808.1,0.0
200636.5,188867.2,189563.1,212648.1,205396.6,170036.7,161442.1,179649.8,0.0
202285.8,189535.7,190399.7,213491.1,206506.5,170293.8,161958.3,180707.8,0.0
203631.0,190019.4,190876.5,213880.0,207587.5,170368.9,162119.5,181194.8,0.0
203409.7,189893.4,190611.8,213546.9,207521.1,170252.6,161875.9,180782.3,0.0
201622.9,189186.4,189759.3,212741.7,206237.8,170023.1,161430.5,179816.0,0.0
200631.8,188861.2,189473.2,212571.3,205409.7,170028.8,161433.5,179645.7,0.0
202285.7,189542.4,190320.5,213419.2,206528.3,170302.5,161962.2,180710.9,0.0
203645.1,190036.2,190807.7,213820.5,207622.6,170390.1,162133.8,181207.9,0.0
203420.2,189901.5,190537.7,213481.2,207546.3,170267.2,161884.0,180788.2,0.0
201625.7,189191.5,189684.4,212670.5,206255.0,170030.4,161435.4,179816.8,0.0
200632.5,188871.7,189406.4,212502.3,205423.4,170040.9,161443.9,179650.5,0.0
202282.4,189548.5,190253.3,213348.0,206528.6,170308.1,161965.3,180709.4,0.0
203634.1,190030.3,190731.6,213734.2,207609.2,170375.6,162118.9,181193.9,0.0
203405.2,189892.5,190458.9,213390.6,207530.3,170246.0,161863.6,180766.8,0.0
201631.3,189196.6,189620.9,212594.7,206256.7,170027.3,161431.1,179808.7,0.0
200633.2,188874.7,189336.2,212424.0,205424.5,170039.8,161439.0,179641.3,0.0
202267.9,189543.5,190167.5,213262.3,206515.0,170304.6,161958.6,180696.9,0.0
203639.9,190037.7,190653.7,213663.2,207612.1,170379.3,162127.1,181196.7,0.0
203421.7,189898.0,190379.3,213319.9,207541.6,170242.2,161869.0,180772.7,0.0
201627.4,189184.0,189525.4,212512.4,206249.5,170010.2,161424.4,179805.7,0.0
200642.2,188877.9,189256.1,212355.6,205431.6,170038.8,161447.8,179651.3,0.0
202275.3,189544.0,190088.3,213192.3,206524.2,170304.9,161964.5,180701.6,0.0
203629.9,190023.7,190563.4,213584.9,207609.4,170373.6,162120.9,181190.4,0.0
203427.3,189899.8,190302.6,213261.7,207554.6,170250.8,161878.6,180781.5,0.0
201653.2,189200.6,189454.8,212461.7,206281.6,170024.5,161439.0,179818.4,0.0
200634.8,188869.5,189158.2,212281.2,205434.8,170031.2,161437.0,179634.5,0.0
202260.0,189534.2,189992.3,213119.3,206524.6,170296.3,161951.5,180685.4,0.0
203621.3,190018.0,190477.9,213520.7,207619.7,170368.7,162114.7,181185.1,0.0
203410.1,189885.0,190212.0,213193.4,207558.1,170243.0,161868.0,180774.5,0.0
201651.0,189200.4,189383.9,212409.6,206298.8,170029.3,161441.8,179824.7,0.0
200632.0,188871.0,189094.2,212228.8,205456.3,170036.8,161445.0,179643.0,0.0
202259.0,189538.2,189930.0,213068.6,206550.4,170303.4,161968.6,180697.2,0.0
203626.7,190026.9,190419.3,213471.8,207646.3,170381.5,162136.3,181198.4,0.0
203424.0,189896.8,190155.5,213138.9,207587.5,170251.0,161886.1,180787.3,0.0
201677.7,189220.9,189330.5,212354.2,206337.7,170041.6,161462.6,179846.0,0.0
200636.2,188876.2,189023.3,212160.2,205470.9,170037.4,161444.7,179648.5,0.0
202255.0,189541.2,189858.7,212998.5,206552.6,170300.7,161958.9,180700.5,0.0
203632.3,190038.9,190353.6,213401.9,207651.6,170378.9,162124.5,181202.4,0.0
203441.8,189915.5,190098.1,213075.0,207601.8,170253.9,161876.1,180794.9,0.0
201674.4,189213.8,189255.2,212276.2,206331.2,170025.5,161429.3,179832.0,0.0
200630.6,188871.3,188950.9,212088.7,205466.4,170034.5,161424.1,179638.1,0.0
202250.1,189536.5,189785.8,212929.4,206548.5,170303.6,161947.4,180691.3,0.0
203641.7,190041.4,190286.9,213345.6,207657.1,170385.2,162123.6,181201.9,0.0
203454.9,189920.4,190029.7,213021.8,207608.5,170259.6,161876.8,180795.3,0.0
201681.9,189216.3,189175.8,212216.0,206332.5,170024.5,161429.0,179825.4,0.0
200631.6,188868.9,188863.2,212021.2,205465.7,170023.2,161418.7,179627.2,0.0
202262.1,189546.5,189707.6,212871.3,206563.3,170303.2,161951.9,180692.0,0.0
203654.0,190056.7,190218.8,213298.3,207684.7,170399.7,162135.8,181217.4,0.0
203456.0,189924.3,189955.3,212967.1,207632.3,170268.9,161881.1,180803.3,0.0
201698.9,189231.5,189116.2,212171.3,206373.6,170042.2,161440.5,179842.4,0.0
200639.5,188882.9,188803.9,211976.2,205504.6,170046.2,161429.4,179642.7,0.0
202246.0,189543.6,189635.9,212815.5,206581.8,170315.2,161952.8,180694.5,0.0
203641.0,190047.5,190141.3,213234.0,207697.1,170393.0,162131.2,181210.6,0.0
203460.0,189926.6,189888.5,212912.6,207656.1,170264.6,161882.6,180806.4,0.0
201699.7,189228.9,189051.6,212119.5,206395.8,170040.8,161439.3,179849.6,0.0
200633.4,188876.4,188735.5,211918.5,205517.0,170038.5,161423.5,179641.9,0.0
202239.3,189539.0,189565.5,212751.3,206586.7,170301.4,161943.0,180688.0,0.0
203622.8,190034.6,190067.3,213163.4,207688.9,170381.6,162116.3,181201.0,0.0
203447.7,189915.5,189816.9,212843.1,207643.9,170257.4,161872.2,180801.1,0.0
201697.7,189222.3,188981.0,212047.2,206387.6,170029.1,161433.0,179843.6,0.0
200638.7,188882.3,188673.8,211856.0,205517.8,170039.4,161430.9,179640.7,0.0
202234.0,189539.2,189501.9,212689.3,206583.4,170308.8,161953.3,180685.8,0.0
203630.3,190042.2,190009.9,213110.4,207699.7,170390.8,162129.3,181204.8,0.0
203460.6,189925.5,189764.9,212797.4,207670.8,170270.4,161890.1,180810.6,0.0
201713.6,189236.7,188927.3,212000.8,206416.2,170042.1,161447.6,179852.3,0.0
200642.0,188886.6,188606.9,211793.4,205533.0,170042.2,161430.2,179636.5,0.0
202230.4,189541.3,189434.3,212626.1,206593.5,170310.6,161951.0,180683.2,0.0
203632.5,190046.4,189947.0,213051.1,207714.3,170394.8,162132.2,181209.5,0.0
203463.7,189924.7,189699.6,212733.7,207680.3,170266.9,161887.5,180809.2,0.0
201707.8,189225.2,188856.7,211934.4,206421.3,170031.0,161440.4,179842.1,0.0
200614.9,188867.3,188533.0,211721.5,205528.1,170030.1,161421.0,179620.3,0.0
202209.5,189524.9,189366.3,212556.4,206594.8,170299.2,161945.5,180672.6,0.0
203620.6,190030.9,189885.5,212988.4,207717.3,170390.8,162133.6,181207.7,0.0
203457.8,189913.8,189645.2,212675.5,207678.8,170264.9,161892.0,180813.5,0.0
201716.0,189225.6,188816.5,211883.1,206417.6,170038.8,161450.3,179855.0,0.0
200621.3,188861.6,188485.4,211664.7,205510.3,170028.8,161421.6,179623.9,0.0
202205.5,189513.7,189314.5,212497.2,206561.5,170294.3,161939.6,180669.7,0.0
203619.0,190025.3,189833.3,212926.8,207679.7,170383.3,162123.3,181201.5,0.0
203464.5,189910.2,189590.5,212615.2,207645.6,170260.2,161884.0,180808.5,0.0
201725.0,189221.7,188755.8,211822.3,206393.8,170030.4,161440.7,179848.3,0.0
200626.5,188864.1,188422.4,211606.8,205492.7,170025.9,161418.4,179618.8,0.0
202204.0,189518.7,189244.7,212443.2,206545.1,170296.0,161942.6,180665.2,0.0
203611.7,190024.5,189751.9,212870.2,207666.0,170377.1,162119.8,181194.8,0.0
203460.9,189913.2,189508.0,212560.5,207650.0,170256.0,161879.8,180808.3,0.0
201717.1,189224.9,188672.1,211767.3,206405.7,170028.1,161436.0,179849.4,0.0
200597.7,188854.4,188325.0,211540.2,205499.1,170016.9,161402.9,179607.7,0.0
202179.0,189516.0,189151.5,212379.8,206569.9,170297.3,161934.2,180659.4,0.0
203597.8,190033.5,189675.5,212820.4,207710.8,170393.7,162126.1,181201.4,0.0
203444.6,189922.0,189435.8,212513.8,207691.4,170269.2,161883.4,180810.5,0.0
201711.8,189239.2,188609.5,211724.3,206449.4,170044.5,161444.5,179856.5,0.0
200594.0,188871.4,188272.2,211498.4,205538.3,170037.2,161419.7,179618.1,0.0
202158.4,189520.5,189095.6,212327.3,206582.5,170303.1,161939.3,180657.4,0.0
203568.3,190018.8,189610.1,212752.5,207700.3,170380.3,162114.9,181186.8,0.0
203428.3,189905.3,189374.7,212443.5,207681.9,170253.7,161874.5,180800.0,0.0
201694.6,189210.0,188540.6,211645.8,206428.5,170020.5,161424.5,179836.3,0.0
200574.8,188839.0,188203.6,211419.6,205504.5,170012.9,161395.5,179594.8,0.0
202157.7,189499.6,189034.8,212256.7,206554.1,170279.7,161922.7,180642.3,0.0
203579.6,190009.2,189558.4,212693.8,207681.2,170368.0,162110.0,181185.4,0.0
203443.6,189902.8,189326.0,212392.4,207665.0,170250.7,161871.5,180806.5,0.0
201719.0,189218.7,188496.3,211601.6,206421.9,170022.9,161429.2,179849.2,0.0
200597.4,188853.7,188158.9,211377.1,205506.6,170022.5,161405.2,179606.2,0.0
202167.7,189514.9,188992.2,212221.2,206561.4,170305.4,161940.5,180658.3,0.0
203590.1,190027.2,189512.4,212659.4,207698.8,170394.1,162126.4,181200.1,0.0
203456.6,189922.7,189279.0,212359.4,207695.6,170275.2,161890.2,180815.6,0.0
201728.8,189236.7,188447.2,211570.4,206466.1,170044.1,161447.5,179856.8,0.0
200585.7,188858.9,188093.1,211336.6,205546.0,170028.5,161411.3,179604.1,0.0
202132.5,189504.7,188905.9,212160.1,206579.6,170292.0,161929.7,180635.5,0.0
203554.6,190015.6,189429.3,212596.6,207712.9,170376.1,162117.0,181177.8,0.0
203424.8,189912.5,189203.6,212298.6,207711.1,170255.3,161882.9,180804.4,0.0
201704.7,189229.3,188383.5,211510.3,206482.8,170027.9,161442.5,179851.1,0.0
200578.0,188864.6,188044.7,211280.9,205565.7,170024.9,161418.8,179602.2,0.0
202127.2,189507.3,188867.6,212109.3,206595.9,170292.7,161942.6,180642.0,0.0
203559.2,190022.8,189401.6,212551.9,207724.4,170378.9,162131.0,181188.5,0.0
203435.5,189914.6,189178.5,212256.1,207717.5,170257.2,161894.4,180814.7,0.0
201721.7,189232.7,188358.0,211469.3,206475.9,170027.9,161448.5,179859.0,0.0
200578.7,188854.5,188011.8,211231.7,205539.0,170014.5,161411.4,179601.9,0.0
202132.5,189505.4,188840.9,212068.1,206570.9,170292.3,161940.1,180645.3,0.0
203564.4,190020.2,189373.2,212513.3,207703.4,170385.7,162131.6,181194.3,0.0
203429.9,189903.1,189137.4,212202.4,207682.9,170254.6,161882.9,180806.2,0.0
201723.1,189227.7,188317.8,211420.4,206451.4,170029.4,161442.5,179854.0,0.0
200563.0,188839.8,187960.7,211178.0,205504.9,170013.8,161400.3,179586.7,0.0
202101.4,189482.3,188777.3,212008.5,206523.6,170285.9,161925.1,180625.5,0.0
203545.5,190008.0,189312.8,212462.8,207670.0,170381.9,162125.8,181186.1,0.0
203432.7,189907.0,189088.7,212168.9,207675.3,170261.8,161893.7,180813.5,0.0
201726.8,189231.8,188263.5,211382.5,206451.3,170039.2,161452.7,179861.7,0.0
200554.7,188840.2,187894.5,211131.0,205502.7,170019.5,161406.3,179588.2,0.0
202079.8,189472.0,188699.3,211951.0,206516.6,170281.9,161923.8,180616.7,0.0
203526.9,189993.5,189228.8,212401.3,207665.0,170372.9,162120.2,181172.6,0.0
203431.5,189906.1,189011.5,212117.1,207686.5,170260.8,161893.0,180810.9,0.0
201731.8,189233.3,188190.2,211337.4,206470.9,170038.9,161453.5,179864.0,0.0
200569.3,188853.3,187829.1,211097.0,205534.4,170030.7,161416.6,179599.8,0.0
202092.1,189486.3,188632.1,211920.4,206548.8,170293.3,161931.0,180627.8,0.0
203540.1,190011.7,189170.8,212378.8,207702.2,170385.2,162127.0,181190.7,0.0
203445.1,189923.6,188958.8,212095.5,207727.1,170270.4,161899.6,180830.0,0.0
201737.8,189240.4,188130.1,211303.4,206503.0,170036.3,161450.0,179868.3,0.0
200561.3,188848.2,187759.5,211050.4,205560.5,170017.8,161403.4,179588.2,0.0
202069.1,189475.8,188565.5,211869.9,206573.5,170286.6,161923.8,180616.1,0.0
203516.9,189999.8,189108.4,212326.7,207721.8,170377.2,162121.2,181177.9,0.0
203423.1,189912.5,188904.8,212043.5,207742.8,170261.4,161894.0,180816.9,0.0
201731.1,189239.7,188097.8,211267.2,206533.3,170041.1,161457.3,179870.4,0.0
200545.2,188835.2,187726.4,211008.4,205572.0,170021.3,161409.0,179585.6,0.0
202045.3,189450.6,188520.7,211814.4,206555.4,170272.3,161913.8,180600.1,0.0
203502.5,189980.5,189067.1,212273.0,207703.1,170368.1,162112.9,181166.9,0.0
203426.7,189902.3,188867.0,211997.7,207732.3,170258.4,161889.5,180813.5,0.0
201748.9,189241.1,188062.6,211226.0,206525.5,170042.3,161456.9,179872.5,0.0
200563.9,188848.0,187694.4,210973.1,205564.7,170031.8,161413.0,179591.6,0.0
202071.3,189475.7,188497.0,211788.6,206559.0,170297.9,161929.5,180614.7,0.0
203530.2,190003.3,189038.4,212246.2,207710.2,170388.2,162128.8,181180.9,0.0
203450.7,189920.9,188831.7,211968.4,207742.4,170276.6,161903.3,180824.1,0.0
201763.1,189248.2,188015.5,211186.8,206535.0,170054.0,161467.3,179877.8,0.0
200558.7,188842.8,187633.4,210921.3,205567.7,170032.0,161419.1,179586.3,0.0
202058.5,189468.2,188437.3,211742.5,206566.1,170298.0,161940.0,180613.6,0.0
203513.0,189990.1,188982.1,212201.5,207719.3,170387.1,162139.0,181182.2,0.0
203427.4,189901.9,188778.9,211923.1,207747.9,170271.5,161911.5,180826.3,0.0
201743.7,189235.1,187967.2,211144.2,206536.0,170044.3,161470.3,179878.4,0.0
200540.2,188832.4,187585.1,210876.3,205563.9,170017.8,161413.8,179581.7,0.0
202034.4,189451.7,188387.0,211689.6,206549.2,170282.2,161927.3,180602.5,0.0
203493.3,189971.9,188932.4,212149.9,207696.5,170372.0,162126.4,181172.2,0.0
203423.3,189894.9,188735.3,211878.7,207732.7,170258.8,161902.5,180824.5,0.0
201756.5,189237.4,187936.8,211108.9,206537.8,170043.8,161470.7,179889.8,0.0
200548.4,188829.0,187552.5,210836.8,205558.4,170022.0,161410.5,179588.9,0.0
202039.3,189450.2,188350.0,211649.8,206538.1,170289.4,161923.7,180607.8,0.0
203514.0,189990.2,188907.4,212124.5,207706.6,170392.5,162137.4,181193.8,0.0
203446.8,189910.8,188705.0,211849.8,207748.4,170280.8,161915.2,180840.9,0.0
201767.0,189239.8,187887.0,211064.8,206541.0,170055.0,161472.4,179886.6,0.0
200550.6,188829.6,187495.7,210790.9,205565.7,170032.0,161415.6,179585.6,0.0
202029.2,189443.8,188285.7,211603.8,206548.3,170293.3,161931.9,180605.0,0.0
203496.4,189974.5,188832.8,212074.1,207711.1,170384.8,162134.2,181183.0,0.0
203435.1,189900.2,188635.6,211808.8,207764.0,170276.8,161915.5,180839.8,0.0
201756.3,189229.5,187818.0,211025.2,206565.5,170045.2,161470.8,179889.9,0.0
200526.4,188812.8,187418.4,210744.2,205584.0,170017.8,161406.8,179575.1,0.0
202003.9,189429.7,188212.3,211558.4,206566.3,170280.3,161924.0,180592.2,0.0
203477.2,189962.5,188769.3,212035.7,207737.4,170379.8,162137.9,181179.1,0.0
203420.5,189887.9,188575.5,211768.0,207788.3,170270.3,161918.2,180834.9,0.0
201751.1,189222.6,187766.2,210986.9,206592.0,170043.7,161475.2,179887.6,0.0
200518.7,188805.2,187369.0,210702.9,205601.2,170014.9,161408.3,179571.5,0.0
201995.2,189416.7,188165.9,211516.4,206573.5,170278.8,161923.3,180589.1,0.0
203480.6,189956.7,188736.4,212004.2,207748.8,170388.0,162145.4,181186.9,0.0
203425.2,189881.4,188542.4,211736.6,207793.1,170276.2,161923.3,180843.7,0.0
201770.1,189226.7,187744.2,210966.8,206605.1,170052.5,161488.5,179905.0,0.0
200526.1,188801.4,187343.3,210677.6,205611.1,170015.8,161415.3,179583.0,0.0
201985.1,189403.1,188126.9,211477.4,206570.0,170269.7,161918.1,180588.4,0.0
203462.0,189935.2,188683.5,211948.0,207728.5,170363.9,162123.2,181169.5,0.0
203422.0,189870.6,188500.9,211687.0,207788.2,170260.0,161909.0,180831.5,0.0
201759.9,189209.8,187695.9,210908.5,206595.5,170036.0,161467.2,179884.4,0.0
200515.5,188790.5,187298.3,210625.4,205598.3,170014.5,161402.8,179568.6,0.0
201983.5,189407.2,188094.9,211439.8,206566.0,170284.2,161923.3,180587.2,0.0
203471.4,189946.8,188659.5,211920.4,207734.2,170383.2,162136.4,181180.1,0.0
203442.9,189891.0,188484.8,211670.1,207803.8,170282.8,161928.6,180851.8,0.0
201782.7,189225.7,187674.9,210889.2,206608.5,170049.1,161480.9,179903.5,0.0
200519.8,188792.2,187257.7,210591.3,205591.7,170014.3,161405.9,179572.7,0.0
201986.7,189407.3,188052.3,211407.4,206557.6,170287.3,161929.9,180594.3,0.0
203482.0,189947.3,188618.4,211891.5,207732.0,170387.6,162144.8,181190.0,0.0
203441.9,189876.1,188428.7,211628.7,207791.5,170275.2,161925.8,180852.4,0.0
201802.6,189230.9,187635.0,210865.1,206617.7,170060.6,161496.5,179916.5,0.0
200543.3,188804.2,187226.5,210574.6,205610.7,170034.6,161428.9,179589.2,0.0
201993.9,189407.6,188008.3,211379.2,206560.4,170293.1,161938.7,180599.8,0.0
203488.2,189949.3,188569.3,211859.0,207735.1,170393.3,162153.1,181196.8,0.0
203451.4,189879.5,188377.5,211592.0,207797.9,170280.5,161934.2,180858.9,0.0
201806.8,189228.5,187576.2,210821.3,206624.3,170059.0,161498.2,179917.4,0.0
200526.7,188787.8,187154.2,210515.4,205608.1,170022.6,161417.7,179574.4,0.0
201965.2,189385.3,187936.4,211319.4,206557.0,170286.9,161929.1,180583.6,0.0
203481.9,189944.8,188524.0,211824.0,207757.3,170402.2,162162.2,181202.3,0.0
203459.5,189887.6,188344.1,211567.2,207833.6,170290.3,161945.5,180868.5,0.0
201797.4,189219.1,187532.2,210782.7,206644.2,170052.4,161493.0,179912.2,0.0
200517.9,188778.0,187114.8,210479.2,205625.3,170016.1,161411.9,179567.5,0.0
201959.7,189380.7,187898.3,211282.6,206568.0,170278.0,161922.7,180571.6,0.0
203466.1,189930.7,188479.4,211780.9,207752.1,170385.9,162151.5,181183.6,0.0
203446.4,189869.5,188304.3,211527.4,207827.3,170277.8,161939.9,180858.8,0.0
201801.4,189209.6,187499.4,210749.1,206644.7,170043.5,161489.0,179909.7,0.0
200514.1,188764.8,187077.1,210441.1,205615.6,170006.8,161406.3,179565.3,0.0
201961.2,189373.7,187874.3,211257.2,206567.6,170288.5,161936.0,180583.2,0.0
203466.0,189917.5,188452.6,211751.0,207752.2,170393.8,162159.2,181188.9,0.0
203458.0,189863.9,188276.9,211497.1,207835.8,170281.9,161946.2,180860.8,0.0
201819.2,189210.4,187478.7,210723.9,206666.5,170056.9,161507.1,179918.0,0.0
200527.8,188770.6,187058.0,210417.6,205641.0,170027.8,161429.0,179573.5,0.0
201948.7,189361.3,187831.4,211214.7,206568.8,170288.3,161933.9,180570.7,0.0
203466.5,189914.6,188408.6,211709.8,207757.6,170396.5,162155.7,181180.4,0.0
203459.3,189858.0,188235.3,211459.2,207843.3,170288.5,161943.3,180858.8,0.0
201822.8,189206.0,187441.7,210692.1,206673.8,170063.1,161504.5,179921.6,0.0
200523.9,188763.6,187015.6,210384.2,205640.6,170027.7,161424.6,179570.6,0.0
201943.9,189355.4,187784.7,211175.0,206564.7,170283.0,161931.5,180565.4,0.0
203448.5,189893.6,188356.9,211663.8,207739.5,170382.1,162149.5,181170.0,0.0
203445.0,189840.7,188189.3,211416.0,207826.9,170278.2,161943.1,180852.1,0.0
201823.9,189198.4,187400.3,210651.8,206667.1,170056.4,161507.6,179919.9,0.0
200510.3,188742.1,186964.2,210333.3,205622.7,170015.8,161417.8,179561.5,0.0
201926.5,189336.5,187738.7,211134.0,206547.8,170276.6,161929.4,180564.2,0.0
203439.9,189883.3,188320.1,211634.6,207732.3,170382.3,162156.4,181179.9,0.0
203446.8,189835.2,188155.1,211389.3,207824.0,170279.6,161949.7,180861.7,0.0
201838.4,189197.1,187373.3,210631.2,206674.4,170060.4,161519.5,179935.0,0.0
200518.9,188740.5,186935.2,210306.6,205627.9,170015.9,161423.5,179569.2,0.0
201915.7,189319.5,187696.5,211092.8,206537.7,170269.7,161920.6,180555.0,0.0
203442.8,189876.6,188283.9,211601.8,207735.2,170381.5,162154.4,181175.8,0.0
203455.7,189831.4,188123.0,211366.2,207838.0,170283.3,161952.6,180863.3,0.0
201823.2,189170.9,187319.6,210588.5,206665.5,170047.2,161499.9,179914.8,0.0
200515.5,188727.4,186890.3,210276.6,205629.0,170013.5,161417.7,179558.1,0.0
201917.3,189313.7,187657.8,211070.8,206543.8,170272.6,161924.2,180551.3,0.0
203443.7,189869.7,188246.7,211579.3,207742.6,170384.0,162157.1,181178.1,0.0
203454.4,189822.3,188083.3,211339.7,207846.7,170286.7,161957.5,180870.1,0.0
201838.0,189179.5,187294.8,210576.2,206691.5,170067.2,161525.3,179939.4,0.0
200502.2,188713.5,186841.2,210235.4,205630.5,170009.8,161420.3,179560.2,0.0
201899.7,189299.1,187608.1,211026.2,206543.6,170267.8,161924.5,180549.3,0.0
203430.5,189858.2,188198.4,211536.7,207744.0,170382.7,162159.3,181175.5,0.0
203449.0,189816.5,188040.9,211300.3,207853.4,170282.7,161957.3,180868.1,0.0
201835.9,189171.0,187252.5,210536.8,206700.5,170057.9,161516.7,179935.0,0.0
200509.5,188714.3,186809.5,210207.8,205650.5,170013.3,161420.6,179562.6,0.0
201902.0,189298.2,187579.8,211001.5,206560.5,170276.0,161926.7,180554.3,0.0
203435.0,189854.9,188174.4,211514.6,207761.2,170390.4,162159.6,181183.3,0.0
203457.6,189810.4,188014.9,211274.4,207868.3,170285.7,161952.2,180870.1,0.0
201847.3,189164.3,187223.5,210503.7,206711.9,170057.9,161510.1,179931.8,0.0
200512.5,188706.9,186782.9,210172.8,205656.1,170017.6,161418.9,179558.7,0.0
201899.2,189287.6,187548.8,210961.0,206560.5,170274.1,161924.6,180543.5,0.0
203437.7,189846.0,188144.4,211473.3,207764.7,170382.3,162157.8,181168.9,0.0
203463.7,189802.8,187986.1,211234.8,207874.2,170277.8,161953.5,180859.2,0.0
201863.2,189165.6,187207.1,210480.9,206734.1,170065.1,161523.9,179934.3,0.0
200526.4,188708.4,186758.9,210152.1,205673.3,170025.6,161429.9,179557.4,0.0
201885.1,189267.0,187501.3,210924.8,206547.3,170266.8,161917.6,180526.6,0.0
203418.7,189823.2,188093.9,211439.1,207741.7,170376.2,162148.1,181155.5,0.0
203451.5,189784.3,187943.2,211210.0,207855.0,170277.1,161950.4,180855.2,0.0
201852.3,189141.5,187156.4,210446.4,206711.1,170051.0,161513.5,179923.9,0.0
200495.9,188665.8,186698.7,210103.6,205641.8,170001.8,161409.2,179539.1,0.0
201873.5,189247.6,187463.0,210892.9,206532.5,170268.8,161917.5,180527.9,0.0
203433.8,189825.4,188078.3,211423.9,207755.0,170395.3,162173.3,181178.6,0.0
203458.6,189772.8,187910.4,211176.3,207862.7,170276.3,161954.6,180861.2,0.0
201863.2,189134.8,187123.1,210411.5,206723.3,170050.7,161514.5,179929.0,0.0
200494.4,188657.4,186657.3,210063.7,205645.5,170001.2,161407.1,179536.3,0.0
201858.7,189229.8,187415.7,210852.3,206535.3,170268.1,161915.4,180523.3,0.0
203421.2,189805.3,188027.0,211381.1,207758.7,170388.7,162163.1,181171.3,0.0
203456.0,189762.6,187871.2,211146.5,207874.9,170280.4,161953.9,180866.9,0.0
201872.8,189133.9,187099.6,210396.0,206747.3,170064.4,161526.1,179946.0,0.0
200510.9,188657.8,186635.6,210048.8,205672.8,170014.0,161419.8,179547.5,0.0
201864.5,189220.8,187386.8,210829.6,206550.3,170270.9,161921.6,180523.5,0.0
203409.6,189780.1,187986.0,211350.1,207754.9,170382.3,162162.2,181162.1,0.0
203464.3,189754.1,187846.6,211125.5,207889.7,170286.0,161968.0,180870.7,0.0
201873.1,189116.7,187062.0,210360.9,206757.1,170056.7,161525.9,179938.5,0.0
200490.2,188632.9,186588.6,210003.1,205666.9,170001.0,161412.6,179533.2,0.0
201838.6,189194.7,187337.4,210782.2,206536.7,170256.9,161911.4,180509.1,0.0
203403.9,189767.9,187951.0,211315.3,207757.0,170379.6,162157.8,181161.7,0.0
203464.9,189743.1,187815.1,211097.0,207892.5,170288.6,161968.8,180874.0,0.0
201878.4,189107.7,187039.4,210339.7,206755.8,170064.7,161534.8,179945.8,0.0
200504.5,188630.0,186573.0,209990.2,205666.5,170008.6,161424.5,179543.8,0.0
201849.6,189194.7,187323.1,210774.6,206540.2,170266.8,161927.2,180522.4,0.0
203400.9,189756.3,187923.1,211295.5,207749.5,170377.1,162167.9,181164.6,0.0
203464.4,189732.1,187787.0,211076.7,207892.2,170283.3,161978.5,180879.4,0.0
201898.0,189112.7,187020.9,210331.7,206780.6,170070.2,161556.1,179966.1,0.0
200500.8,188617.7,186533.7,209962.1,205677.8,170005.3,161432.4,179548.2,0.0
201831.8,189170.3,187270.8,210728.1,206532.5,170254.3,161924.9,180513.9,0.0
203395.5,189743.5,187882.8,211257.9,207750.4,170369.9,162169.9,181164.8,0.0
203465.3,189725.9,187750.5,211041.5,207894.5,170275.2,161976.7,180876.9,0.0
201885.3,189088.5,186976.5,210283.3,206765.5,170051.4,161536.0,179945.8,0.0
200486.4,188595.0,186503.2,209921.3,205668.5,169993.0,161419.0,179531.5,0.0
201831.0,189164.7,187259.5,210702.4,206534.0,170255.8,161924.1,180508.0,0.0
203401.7,189740.9,187876.1,211235.8,207754.3,170373.6,162170.1,181159.6,0.0
203464.4,189712.5,187738.7,211012.7,207888.0,170271.7,161972.1,180870.2,0.0
201889.9,189080.8,186963.7,210254.9,206759.4,170047.9,161538.2,179944.3,0.0
200493.3,188590.9,186487.4,209893.7,205654.3,169993.4,161425.9,179531.1,0.0
201810.6,189141.4,187226.8,210660.2,206493.8,170247.4,161922.0,180495.5,0.0
203378.3,189714.0,187840.2,211192.8,207708.3,170363.9,162169.8,181152.6,0.0
203460.3,189697.1,187709.0,210974.0,207857.5,170261.7,161978.3,180870.8,0.0
201895.1,189065.7,186934.7,210219.4,206737.0,170039.2,161543.9,179948.6,0.0
200490.8,188573.3,186449.2,209853.4,205627.2,169988.6,161426.0,179530.4,0.0
201818.7,189140.6,187195.6,210632.6,206484.4,170255.1,161937.2,180508.0,0.0
203382.1,189708.6,187798.4,211159.1,207703.1,170363.6,162175.0,181158.8,0.0
203459.8,189692.2,187660.4,210944.2,207857.2,170267.6,161977.6,180875.3,0.0
201890.1,189068.0,186878.2,210186.2,206744.5,170045.5,161536.8,179949.3,0.0
200474.2,188573.0,186382.2,209812.6,205638.3,169986.8,161413.5,179521.4,0.0
201781.6,189128.8,187114.4,210583.8,206488.1,170245.3,161911.8,180486.8,0.0
203349.8,189707.6,187727.7,211120.1,207718.2,170365.5,162162.5,181148.7,0.0
203435.9,189697.3,187606.1,210917.2,207891.7,170276.9,161984.4,180881.4,0.0
201876.9,189074.8,186838.2,210170.7,206783.8,170054.5,161550.2,179962.2,0.0
200451.2,188573.9,186343.9,209792.9,205667.5,169991.1,161423.2,179531.4,0.0
201749.2,189123.8,187074.2,210554.3,206506.3,170246.4,161918.2,180489.7,0.0
203336.6,189710.1,187700.6,211100.5,207745.8,170373.0,162177.1,181160.0,0.0
203426.3,189691.8,187574.6,210890.4,207908.7,170271.9,161983.0,180884.7,0.0
201864.0,189062.3,186803.7,210128.8,206788.9,170039.8,161536.3,179952.5,0.0
200444.4,188565.9,186318.3,209750.5,205664.6,169982.8,161410.7,179516.1,0.0
201746.0,189115.6,187057.4,210514.8,206489.1,170235.6,161903.3,180473.6,0.0
203337.3,189701.6,187690.1,211063.9,207718.4,170358.8,162159.8,181145.4,0.0
203437.8,189694.3,187573.3,210864.7,207885.6,170269.0,161975.6,180877.8,0.0
201882.8,189071.4,186807.5,210115.4,206778.1,170049.9,161543.0,179959.8,0.0
200452.8,188573.7,186312.5,209737.3,205651.3,169993.5,161419.4,179525.0,0.0
201752.1,189125.4,187047.3,210504.6,206479.8,170247.8,161917.6,180484.9,0.0
203343.0,189711.4,187676.0,211051.7,207718.7,170368.6,162172.2,181158.3,0.0
203442.7,189702.9,187552.7,210847.1,207889.9,170276.6,161985.7,180890.6,0.0
201889.3,189076.6,186783.3,210097.8,206783.9,170051.8,161549.8,179969.0,0.0
200449.9,188569.0,186277.5,209712.9,205651.7,169987.2,161413.2,179521.4,0.0
201734.7,189111.2,187004.5,210472.9,206480.3,170242.0,161908.5,180476.6,0.0
203324.4,189694.4,187635.9,211023.2,207725.9,170369.1,162170.0,181153.3,0.0
203432.7,189690.1,187517.3,210820.5,207904.2,170278.0,161982.9,180886.1,0.0
201889.3,189072.1,186749.5,210069.1,206802.5,170053.2,161543.5,179961.0,0.0
200436.9,188558.4,186240.9,209677.8,205661.9,169986.4,161408.1,179508.6,0.0
201709.0,189096.6,186970.1,210436.9,206477.1,170241.6,161904.2,180460.5,0.0
203311.6,189690.7,187606.6,210988.5,207719.7,170364.2,162164.5,181141.0,0.0
203422.7,189683.8,187488.8,210785.7,207895.5,170268.9,161979.8,180877.8,0.0
201887.1,189064.6,186726.6,210035.2,206794.4,170045.9,161545.3,179958.5,0.0
200432.0,188546.6,186214.1,209636.0,205645.8,169977.5,161410.0,179500.9,0.0
201701.1,189083.1,186937.8,210389.7,206450.8,170229.6,161902.9,180449.8,0.0
203290.0,189665.8,187568.8,210939.8,207677.9,170351.3,162161.8,181128.4,0.0
203406.8,189663.0,187459.7,210744.8,207855.8,170261.7,161981.6,180872.9,0.0
201886.2,189053.2,186709.3,210008.0,206769.8,170048.8,161552.6,179965.7,0.0
200446.1,188555.9,186212.6,209626.7,205635.2,169996.6,161425.8,179519.2,0.0
201697.9,189083.4,186926.3,210375.6,206425.7,170240.7,161910.4,180458.2,0.0
203299.4,189674.4,187567.4,210936.6,207665.6,170365.8,162173.5,181146.2,0.0
203418.1,189670.8,187453.3,210737.6,207841.2,170270.3,161986.0,180880.8,0.0
201895.9,189065.6,186696.9,209995.5,206756.4,170052.2,161554.9,179965.3,0.0
200431.6,188548.2,186178.2,209596.7,205612.3,169985.7,161413.1,179503.2,0.0
201695.2,189091.5,186895.8,210354.9,206419.1,170244.8,161908.7,180453.5,0.0
203295.7,189680.4,187527.1,210910.8,207663.2,170367.1,162167.7,181135.8,0.0
203410.8,189676.2,187410.6,210711.3,207850.3,170270.0,161980.8,180873.5,0.0
201881.7,189060.6,186644.1,209962.8,206762.5,170048.1,161543.9,179956.0,0.0
200420.9,188551.1,186125.9,209568.0,205622.1,169989.3,161410.3,179498.7,0.0
201675.7,189089.9,186843.7,210326.0,206430.2,170249.9,161908.7,180449.1,0.0
203280.3,189681.3,187479.6,210888.8,207680.9,170376.5,162178.4,181140.3,0.0
203416.0,189689.3,187374.1,210704.9,207883.2,170291.3,162007.5,180894.9,0.0
201906.1,189084.4,186625.3,209971.0,206815.0,170074.3,161579.5,179990.9,0.0
200424.9,188557.3,186100.5,209564.4,205657.4,170002.3,161429.9,179517.8,0.0
201655.5,189079.5,186807.0,210309.5,206441.0,170253.4,161917.6,180453.1,0.0
203269.3,189678.1,187451.0,210873.8,207691.3,170379.2,162184.0,181145.8,0.0
203399.5,189674.7,187337.8,210676.3,207879.3,170276.1,161995.1,180885.6,0.0
201884.8,189065.5,186586.7,209934.8,206797.1,170056.2,161563.6,179975.2,0.0
200413.0,188545.4,186069.4,209529.6,205636.4,169989.7,161420.0,179505.7,0.0
201648.5,189061.3,186778.6,210271.3,206416.5,170233.9,161902.9,180438.8,0.0
203261.0,189655.2,187423.5,210835.7,207663.3,170361.5,162170.2,181132.6,0.0
203403.2,189662.1,187324.5,210649.1,207858.5,170271.4,161991.7,180887.1,0.0
201903.6,189061.2,186578.8,209910.5,206784.0,170051.9,161561.2,179981.4,0.0
200416.4,188529.0,186049.2,209493.8,205611.2,169974.2,161409.5,179496.9,0.0
201639.8,189047.1,186752.5,210234.1,206379.6,170220.5,161893.8,180425.9,0.0
203265.7,189652.1,187408.9,210811.2,207640.1,170358.1,162173.0,181134.0,0.0
203407.0,189656.1,187301.0,210623.2,207838.8,170261.2,161988.8,180883.6,0.0
201908.2,189055.8,186552.0,209889.5,206768.1,170047.6,161562.3,179982.5,0.0
200416.9,188527.8,186021.9,209477.3,205600.3,169980.3,161415.8,179503.8,0.0
201640.3,189051.9,186728.4,210225.0,206374.0,170236.6,161905.3,180438.3,0.0
203259.0,189654.2,187380.0,210799.7,207630.9,170372.3,162182.4,181144.3,0.0
203410.1,189670.5,187284.6,210622.3,207844.5,170288.9,162009.8,180905.9,0.0
201915.6,189071.9,186536.4,209888.0,206777.5,170072.1,161575.9,179999.7,0.0
200403.1,188524.4,185984.7,209451.6,205587.3,169980.4,161406.8,179495.2,0.0
201623.3,189045.3,186691.9,210193.0,206360.5,170230.6,161896.5,180426.3,0.0
203250.2,189649.5,187347.8,210767.9,207623.0,170363.8,162174.8,181136.2,0.0
203403.0,189658.6,187252.8,210583.9,207833.3,170273.4,161999.5,180895.1,0.0
201913.9,189058.2,186509.2,209847.7,206768.0,170053.7,161567.5,179986.5,0.0
200418.1,188525.6,185973.0,209424.8,205586.5,169973.2,161410.5,179492.9,0.0
201629.8,189044.1,186675.0,210165.7,206351.5,170220.4,161896.3,180422.0,0.0
203259.1,189648.4,187328.4,210744.0,207615.3,170356.5,162175.7,181131.9,0.0
203416.0,189658.3,187234.8,210565.1,207834.3,170272.6,162005.0,180895.5,0.0
201930.4,189063.5,186488.8,209831.8,206777.5,170058.1,161578.3,179994.6,0.0
200418.5,188523.9,185940.8,209401.5,205593.6,169980.5,161418.2,179497.0,0.0
201627.4,189044.5,186642.3,210141.6,206359.9,170234.0,161905.3,180425.4,0.0
203264.9,189656.4,187300.4,210726.1,207633.3,170374.3,162190.9,181145.5,0.0
203411.9,189659.3,187198.0,210543.3,207849.2,170283.1,162013.6,180901.6,0.0
201909.0,189047.0,186439.8,209797.7,206774.4,170056.5,161574.3,179985.7,0.0
200395.8,188507.5,185892.8,209367.5,205587.2,169972.0,161411.0,179485.0,0.0
201598.9,189028.6,186595.7,210108.5,206348.5,170220.7,161896.6,180413.8,0.0
203229.6,189633.5,187251.9,210687.6,207615.2,170355.4,162175.3,181127.8,0.0
203400.0,189653.0,187162.4,210513.6,207847.4,170271.5,162009.5,180897.0,0.0
201928.4,189066.4,186430.9,209791.2,206806.8,170067.7,161594.0,180007.9,0.0
200402.1,188519.0,185881.7,209357.1,205611.4,169988.2,161428.9,179502.5,0.0
201596.7,189031.2,186576.2,210089.8,206357.8,170233.9,161909.0,180420.0,0.0
203229.6,189631.8,187231.5,210667.6,207623.7,170359.2,162183.7,181131.4,0.0
203393.9,189642.8,187134.7,210485.5,207846.0,170266.2,162008.8,180894.4,0.0
201906.0,189035.8,186384.2,209742.6,206782.0,170039.0,161571.1,179983.0,0.0
200386.5,188497.9,185845.3,209317.5,205598.1,169967.5,161412.3,179484.2,0.0
201583.3,189022.4,186556.3,210064.6,206351.4,170231.7,161905.1,180415.1,0.0
203221.4,189630.3,187221.2,210650.7,207617.1,170367.3,162184.8,181135.1,0.0
203391.9,189647.0,187133.8,210478.8,207846.5,170278.8,162012.0,180903.0,0.0
201916.2,189053.2,186389.7,209743.9,206789.5,170057.3,161576.8,179996.0,0.0
200389.3,188510.9,185838.3,209308.4,205590.1,169979.5,161414.4,179487.1,0.0
201571.0,189016.2,186532.0,210042.5,206327.4,170228.6,161899.1,180403.6,0.0
203228.2,189633.5,187205.2,210637.4,207607.6,170370.6,162190.5,181132.1,0.0
203410.5,189654.4,187124.0,210471.2,207844.4,170288.9,162028.3,180910.5,0.0
201936.0,189057.0,186379.7,209735.3,206792.0,170065.6,161592.8,180005.8,0.0
200398.3,188508.3,185815.9,209291.4,205587.7,169980.5,161421.9,179489.3,0.0
201564.8,189009.8,186495.2,210013.3,206313.9,170221.7,161900.7,180397.3,0.0
203207.0,189616.5,187155.7,210601.7,207584.2,170354.5,162182.1,181117.8,0.0
203388.5,189635.9,187068.8,210432.8,207818.3,170268.5,162010.7,180891.4,0.0
201928.3,189050.8,186337.1,209710.9,206782.6,170060.7,161586.4,179998.5,0.0
200392.1,188504.3,185782.9,209275.6,205588.6,169978.7,161420.1,179485.3,0.0
201557.6,189003.8,186467.1,210002.3,206319.8,170226.3,161899.3,180398.7,0.0
203213.7,189618.9,187134.5,210593.6,207595.4,170363.1,162186.0,181126.8,0.0
203402.8,189641.1,187053.1,210426.3,207829.9,170277.7,162016.6,180902.3,0.0
201935.1,189047.3,186317.4,209696.3,206787.2,170055.4,161587.1,180003.9,0.0
200387.9,188497.9,185755.5,209250.4,205579.6,169969.9,161417.5,179480.8,0.0
201547.7,188997.8,186435.4,209972.6,206304.5,170216.6,161896.0,180389.7,0.0
203206.7,189615.5,187109.5,210570.9,207588.4,170358.7,162187.9,181125.2,0.0
203401.7,189642.8,187031.8,210408.7,207835.1,170277.2,162024.7,180907.3,0.0
201934.7,189047.6,186291.3,209676.2,206784.6,170058.2,161591.0,180005.4,0.0
200390.8,188496.9,185733.1,209230.1,205577.9,169978.0,161422.2,179482.5,0.0
201553.3,189000.6,186418.1,209955.0,206300.9,170228.3,161904.5,180389.5,0.0
203211.4,189614.5,187084.4,210543.4,207576.5,170358.9,162187.3,181116.6,0.0
203404.8,189639.5,187004.9,210377.0,207820.5,170273.8,162018.0,180894.7,0.0
201945.5,189049.5,186270.0,209649.2,206779.3,170056.4,161587.1,179995.3,0.0
200394.5,188496.7,185709.6,209206.0,205569.6,169976.8,161417.5,179473.2,0.0
201554.0,189005.1,186401.4,209940.8,206293.1,170238.0,161909.0,180390.9,0.0
203211.7,189619.3,187073.3,210537.3,207568.1,170372.5,162197.7,181124.5,0.0
203410.5,189643.8,186995.2,210373.2,207811.2,170286.8,162029.9,180904.2,0.0
201960.5,189060.5,186266.0,209652.5,206780.0,170076.2,161608.1,180016.7,0.0
200395.8,188500.0,185696.5,209196.5,205564.4,169984.5,161430.4,179484.0,0.0
201532.6,188990.2,186374.1,209915.0,206269.6,170229.3,161908.1,180384.4,0.0
203202.5,189615.7,187059.1,210519.3,207553.5,170375.4,162204.1,181127.9,0.0
203406.3,189643.2,186982.8,210355.3,207801.1,170287.4,162034.2,180909.0,0.0
201955.8,189055.0,186251.0,209628.9,206769.4,170065.0,161602.3,180012.7,0.0
200392.3,188494.7,185680.5,209172.6,205550.3,169978.6,161422.1,179478.6,0.0
201525.7,188986.2,186353.8,209888.2,206250.2,170226.3,161898.2,180376.7,0.0
203188.9,189604.8,187031.2,210488.6,207527.6,170363.3,162189.5,181114.8,0.0
203399.2,189637.7,186962.6,210333.4,207780.6,170278.9,162024.8,180903.8,0.0
201960.5,189055.2,186239.2,209614.0,206753.2,170063.2,161597.3,180012.7,0.0
200399.4,188503.3,185680.0,209165.7,205539.9,169989.9,161429.3,179488.1,0.0
201529.0,188994.9,186351.7,209879.0,206235.3,170233.8,161903.2,180382.3,0.0
203201.9,189619.1,187035.6,210486.9,207522.9,170376.8,162200.3,181129.0,0.0
203424.8,189657.7,186974.0,210338.3,207786.0,170301.7,162046.4,180927.9,0.0
201989.0,189075.5,186245.7,209615.8,206761.9,170082.5,161620.8,180035.6,0.0
200411.2,188508.5,185666.0,209151.4,205535.8,169986.9,161437.5,179490.0,0.0
201523.3,188989.4,186328.5,209856.9,206224.5,170224.7,161905.4,180379.0,0.0
203198.2,189612.5,187006.9,210464.2,207512.5,170367.3,162203.4,181123.9,0.0
203420.0,189649.1,186939.0,210313.5,207777.7,170288.8,162046.3,180919.6,0.0
201976.1,189060.3,186202.5,209586.9,206749.9,170066.2,161614.7,180022.4,0.0
200394.3,188492.5,185617.5,209118.9,205518.5,169975.6,161428.2,179474.4,0.0
201511.4,188979.4,186285.3,209829.8,206210.3,170225.4,161905.0,180370.0,0.0
203189.0,189605.8,186971.8,210442.4,207503.3,170373.0,162207.6,181124.2,0.0
203416.8,189646.3,186906.0,210292.8,207776.4,170292.2,162047.0,180920.6,0.0
201986.4,189066.6,186179.8,209573.4,206761.2,170077.8,161620.9,180031.3,0.0
200404.5,188504.0,185607.0,209114.5,205538.3,169998.2,161444.1,179490.2,0.0
201506.3,188984.4,186266.6,209819.0,206218.9,170239.7,161911.5,180373.7,0.0
203185.7,189607.1,186949.4,210427.2,207512.2,170377.4,162209.7,181124.8,0.0
203418.5,189649.5,186884.8,210277.1,207786.4,170297.1,162052.1,180923.5,0.0
201996.4,189070.2,186156.9,209555.4,206774.0,170075.2,161622.3,180031.2,0.0
200405.1,188496.6,185567.2,209079.2,205535.9,169979.3,161429.3,179473.5,0.0
201498.7,188976.0,186230.3,209788.0,206211.5,170227.9,161906.6,180368.0,0.0
203186.3,189604.8,186925.2,210409.2,207508.2,170371.1,162211.4,181128.1,0.0
203418.7,189640.8,186862.3,210259.4,207776.7,170285.0,162047.5,180923.5,0.0
201998.7,189064.6,186143.2,209540.4,206766.7,170072.0,161623.3,180037.3,0.0
200399.0,188489.2,185557.0,209063.8,205524.7,169981.9,161433.6,179480.0,0.0
201486.1,188963.4,186213.6,209764.1,206193.6,170225.1,161903.0,180359.5,0.0
203170.8,189592.5,186906.5,210378.6,207486.9,170368.2,162205.1,181115.0,0.0
203414.1,189638.5,186848.7,210236.2,207765.3,170286.9,162045.3,180919.2,0.0
201997.3,189060.9,186128.1,209521.5,206754.1,170070.1,161618.2,180031.5,0.0
200403.3,188491.1,185545.5,209050.4,205515.3,169981.3,161433.5,179476.7,0.0
201506.0,188983.9,186219.4,209768.4,206196.5,170244.1,161923.5,180376.4,0.0
203183.3,189605.5,186902.0,210379.4,207484.6,170385.5,162222.1,181131.2,0.0
203423.6,189648.8,186839.2,210231.8,207763.9,170300.5,162061.6,180933.6,0.0
202003.2,189067.5,186111.6,209512.1,206753.4,170075.2,161627.1,180043.9,0.0
200396.3,188490.2,185517.1,209032.2,205509.0,169981.4,161433.3,179481.1,0.0
201473.8,188963.8,186165.8,209727.0,206170.0,170225.1,161903.2,180357.2,0.0
203175.5,189604.8,186864.6,210352.2,207478.7,170376.5,162215.9,181126.4,0.0
203434.4,189663.2,186816.5,210218.9,207776.2,170304.4,162067.9,180940.6,0.0
202020.8,189086.7,186092.6,209498.3,206769.9,170083.6,161637.5,180049.6,0.0
200408.7,188507.8,185500.4,209018.1,205521.3,169987.8,161444.1,179484.6,0.0
201476.0,188977.1,186150.3,209715.3,206176.8,170229.5,161910.1,180359.6,0.0
203172.5,189610.0,186844.5,210335.4,207477.5,170373.1,162213.3,181121.0,0.0
203414.8,189647.6,186783.3,210189.2,207757.3,170287.2,162049.8,180923.6,0.0
202008.2,189072.9,186063.6,209472.8,206757.6,170068.6,161621.3,180038.4,0.0
200400.4,188498.4,185469.7,208990.9,205510.6,169977.7,161428.5,179469.7,0.0
201471.6,188971.8,186121.7,209684.9,206168.7,170222.8,161898.6,180341.6,0.0
203174.0,189610.7,186827.9,210318.6,207478.6,170381.2,162216.3,181118.0,0.0
203436.6,189662.5,186783.0,210182.9,207779.0,170301.4,162066.2,180935.7,0.0
202032.6,189088.6,186064.1,209463.8,206785.5,170077.9,161636.5,180049.9,0.0
200409.2,188506.0,185459.3,208971.1,205522.8,169982.6,161437.4,179473.6,0.0
201464.0,188968.3,186104.5,209663.5,206166.2,170227.1,161906.6,180344.7,0.0
203158.1,189599.0,186801.7,210287.4,207468.8,170371.5,162214.9,181116.3,0.0
203428.7,189658.6,186758.1,210155.8,207770.9,170294.9,162066.7,180935.6,0.0
202036.0,189093.9,186047.5,209446.3,206780.3,170080.6,161641.4,180057.5,0.0
200401.2,188501.4,185438.3,208952.7,205515.0,169983.6,161436.7,179474.8,0.0
201442.7,188955.0,186075.4,209639.3,206149.1,170223.6,161900.4,180336.6,0.0
203155.4,189598.3,186776.5,210267.1,207458.1,170371.6,162213.7,181111.4,0.0
203419.9,189648.8,186723.3,210131.7,207757.4,170290.6,162058.9,180926.3,0.0
202021.9,189075.7,186007.2,209420.3,206770.5,170073.2,161632.5,180045.9,0.0
200387.9,188485.4,185395.8,208922.2,205502.3,169973.5,161428.0,179461.2,0.0
201446.2,188962.2,186045.1,209619.4,206145.5,170227.5,161904.7,180335.8,0.0
203156.1,189601.9,186750.0,210250.5,207454.2,170377.8,162219.5,181114.8,0.0
203422.6,189651.5,186700.6,210117.7,207753.9,170294.9,162066.5,180935.4,0.0
202024.5,189080.8,185986.5,209409.8,206769.4,170079.2,161643.6,180059.0,0.0
200396.2,188500.7,185382.3,208919.0,205515.8,169982.9,161445.1,179480.8,0.0
201430.6,188953.1,186015.6,209601.5,206147.6,170218.2,161904.5,180341.1,0.0
203127.3,189578.5,186709.7,210222.9,207446.5,170360.7,162210.9,181109.1,0.0
203408.2,189641.1,186675.4,210096.3,207761.2,170286.6,162066.4,180935.5,0.0
202040.2,189090.3,185979.4,209398.0,206795.2,170080.1,161650.0,180067.8,0.0
200395.4,188495.3,185365.2,208897.5,205527.3,169978.3,161442.0,179475.8,0.0
201416.9,188944.8,185998.2,209578.4,206151.4,170214.8,161900.1,180328.5,0.0
203142.4,189597.3,186719.7,210223.6,207473.0,170376.9,162225.7,181118.2,0.0
203432.4,189660.1,186684.5,210099.3,207787.5,170302.3,162081.5,180947.5,0.0
202050.3,189088.3,185973.2,209383.5,206801.4,170077.5,161646.3,180062.0,0.0
200399.4,188487.5,185356.1,208873.1,205517.4,169969.7,161431.5,179461.5,0.0
201421.0,188938.8,185992.4,209555.7,206130.3,170215.5,161899.0,180319.8,0.0
203149.7,189593.0,186718.7,210206.6,207454.4,170382.8,162233.5,181123.2,0.0
203440.0,189654.1,186683.1,210078.6,207766.1,170300.5,162081.2,180950.6,0.0
202056.0,189081.2,185962.9,209356.6,206772.3,170070.9,161642.8,180060.8,0.0
200396.9,188476.2,185336.8,208842.5,205482.6,169966.2,161429.0,179457.1,0.0
201418.4,188932.2,185972.2,209525.8,206096.4,170215.6,161895.2,180316.5,0.0
203144.3,189581.1,186689.2,210171.6,207413.7,170376.5,162219.5,181112.0,0.0
203431.0,189641.7,186650.6,210048.8,207732.7,170299.7,162070.3,180941.7,0.0
202059.4,189082.5,185940.1,209344.0,206763.8,170081.7,161642.7,180064.7,0.0
200406.6,188488.5,185314.6,208836.6,205491.0,169979.9,161432.7,179465.3,0.0
201407.4,188933.4,185934.4,209513.0,206099.7,170221.9,161895.8,180313.9,0.0
203129.9,189582.6,186651.9,210161.8,207423.9,170381.0,162224.0,181110.4,0.0
203430.5,189656.8,186624.7,210050.3,207758.7,170313.3,162086.2,180951.7,0.0
202060.9,189096.1,185918.3,209346.3,206794.3,170092.7,161659.4,180077.4,0.0
200383.5,188478.5,185282.5,208824.7,205503.3,169976.4,161435.0,179463.3,0.0
201384.0,188921.7,185904.8,209498.7,206107.0,170213.1,161896.9,180312.2,0.0
203110.1,189568.1,186623.6,210142.5,207430.1,170369.8,162219.1,181108.1,0.0
203423.6,189648.7,186610.1,210035.7,207774.1,170304.6,162085.0,180957.7,0.0
202060.1,189091.3,185910.1,209331.6,206809.6,170088.2,161661.5,180086.0,0.0
200390.0,188480.6,185279.3,208810.6,205513.9,169975.4,161439.6,179470.4,0.0
201380.2,188918.6,185903.0,209481.4,206103.9,170214.2,161897.4,180313.0,0.0
203117.4,189571.8,186630.7,210132.1,207429.2,170374.8,162226.1,181113.9,0.0
203421.4,189635.8,186601.0,210010.4,207753.9,170297.6,162077.2,180946.9,0.0
202057.3,189071.7,185897.0,209304.4,206782.7,170082.3,161650.2,180073.1,0.0
200385.3,188463.1,185265.5,208786.4,205486.7,169973.8,161432.9,179464.4,0.0
201372.6,188908.5,185886.5,209459.3,206075.3,170215.0,161891.2,180310.2,0.0
203101.5,189557.0,186605.8,210106.5,207395.4,170367.8,162212.3,181107.0,0.0
203410.5,189626.9,186577.7,209990.1,207728.1,170291.9,162068.3,180945.3,0.0
202061.4,189078.8,185880.6,209290.3,206775.9,170079.6,161650.1,180079.8,0.0
200374.1,188463.3,185237.0,208762.8,205475.7,169964.0,161421.0,179454.7,0.0
201341.8,188896.3,185843.5,209426.1,206053.3,170201.9,161874.9,180288.5,0.0
203086.7,189556.5,186574.6,210087.0,207392.3,170369.9,162214.5,181100.7,0.0
203405.4,189633.5,186552.9,209976.7,207745.0,170302.1,162077.3,180948.8,0.0
202048.0,189078.3,185851.5,209273.4,206792.7,170083.3,161649.3,180078.3,0.0
200365.6,188468.9,185216.9,208752.6,205499.3,169976.4,161428.2,179459.8,0.0
201327.7,188898.5,185824.4,209414.2,206073.4,170213.7,161881.1,180292.6,0.0
203061.0,189548.1,186549.3,210065.7,207400.2,170373.0,162209.8,181096.2,0.0
203380.2,189623.3,186531.7,209956.9,207742.4,170300.7,162072.2,180942.1,0.0
202032.0,189070.5,185833.4,209256.4,206787.3,170083.5,161650.0,180075.4,0.0
200341.5,188449.5,185189.9,208721.4,205480.2,169966.2,161421.4,179448.5,0.0
201309.1,188886.0,185806.5,209382.8,206054.4,170209.7,161882.2,180286.1,0.0
203057.2,189547.2,186543.1,210045.8,207384.2,170373.0,162218.2,181102.2,0.0
203387.3,189627.1,186533.1,209945.6,207730.2,170305.4,162085.2,180954.9,0.0
202046.5,189074.3,185837.6,209244.6,206776.4,170086.0,161662.2,180087.8,0.0
200357.7,188456.8,185196.8,208713.4,205467.8,169972.4,161432.7,179460.4,0.0
201297.9,188870.4,185796.3,209364.7,206014.8,170201.0,161879.3,180281.2,0.0
203052.1,189534.3,186536.3,210030.3,207344.5,170368.0,162217.2,181099.4,0.0
203399.5,189629.4,186533.7,209938.6,207702.8,170312.8,162091.4,180959.0,0.0
202075.1,189091.2,185845.6,209248.4,206762.8,170100.6,161672.8,180097.7,0.0
200373.1,188466.3,185193.2,208710.4,205452.0,169982.0,161436.4,179460.3,0.0
201312.5,188881.9,185787.0,209363.7,206005.0,170210.4,161878.7,180280.6,0.0
203068.6,189547.2,186517.6,210026.1,207339.1,170376.2,162215.0,181094.2,0.0
203404.7,189633.4,186499.4,209922.9,207694.5,170308.5,162083.0,180948.6,0.0
202072.7,189089.5,185805.0,209231.2,206758.2,170101.7,161667.0,180090.2,0.0
200370.6,188470.2,185151.5,208696.9,205451.6,169991.5,161439.4,179457.8,0.0
201305.5,188891.6,185745.6,209351.2,206009.9,170225.9,161888.0,180280.6,0.0
203061.2,189561.2,186480.1,210017.4,207355.7,170389.5,162225.5,181099.8,0.0
203410.2,189654.7,186474.8,209926.0,207733.0,170333.1,162103.7,180966.7,0.0
202077.1,189105.8,185784.0,209233.2,206801.0,170117.9,161685.6,180106.9,0.0
200366.5,188477.4,185127.7,208686.5,205484.0,169988.3,161441.5,179459.7,0.0
201294.5,188893.4,185724.0,209333.6,206030.1,170217.3,161881.8,180275.1,0.0
203055.9,189562.1,186473.4,210009.0,207374.0,170392.8,162230.8,181105.6,0.0
203406.0,189647.7,186469.5,209911.0,207736.9,170322.4,162100.4,180966.3,0.0
202083.6,189101.9,185788.7,209216.8,206796.9,170109.6,161680.9,180108.5,0.0
200380.7,188479.0,185144.5,208676.4,205471.8,169991.1,161443.3,179464.8,0.0
201313.3,188896.2,185747.6,209327.8,206007.8,170221.8,161889.9,180281.3,0.0
203072.6,189554.3,186486.1,209990.5,207331.3,170381.5,162224.7,181102.0,0.0
203415.5,189634.4,186473.5,209888.7,207682.0,170310.6,162090.3,180959.3,0.0
202082.5,189082.9,185777.2,209190.9,206733.0,170092.4,161668.4,180094.8,0.0
200382.3,188468.8,185127.7,208651.6,205417.1,169980.1,161441.4,179459.2,0.0
201302.7,188885.7,185721.6,209301.2,205952.4,170220.5,161893.3,180277.8,0.0
203054.4,189542.4,186452.9,209967.4,207285.3,170380.1,162229.1,181100.5,0.0
203392.3,189618.0,186428.8,209861.8,207645.1,170303.4,162088.3,180956.0,0.0
202072.0,189076.5,185736.2,209170.0,206721.4,170090.4,161670.4,180100.2,0.0
200358.0,188451.9,185071.0,208622.3,205405.8,169969.2,161432.3,179452.7,0.0
201264.0,188863.7,185652.7,209265.3,205941.7,170202.2,161878.1,180262.3,0.0
203018.6,189526.5,186388.9,209936.9,207284.0,170364.7,162215.7,181087.4,0.0
203387.2,189629.6,186399.2,209858.6,207674.1,170310.5,162095.8,180968.5,0.0
202066.0,189084.6,185712.5,209166.3,206746.8,170095.8,161670.8,180106.7,0.0
200348.1,188462.3,185056.5,208619.8,205424.3,169978.4,161433.3,179457.2,0.0
201253.6,188875.3,185646.8,209262.2,205951.7,170215.6,161883.3,180266.4,0.0
203017.3,189539.6,186390.4,209932.6,207287.5,170384.2,162229.2,181093.3,0.0
203382.7,189631.8,186393.3,209841.1,207664.6,170316.0,162102.4,180963.0,0.0
202076.1,189092.0,185712.0,209149.0,206740.6,170097.0,161680.3,180108.0,0.0
200351.9,188459.5,185051.4,208597.0,205410.1,169976.8,161439.1,179456.5,0.0
201263.4,188878.2,185646.3,209245.8,205936.1,170217.1,161893.4,180271.4,0.0
203025.0,189540.7,186393.5,209921.9,207269.0,170380.1,162235.7,181103.0,0.0
203380.1,189625.8,186390.0,209829.3,207632.4,170309.9,162101.9,180968.5,0.0
202073.7,189084.1,185704.1,209133.9,206701.9,170088.8,161674.7,180104.2,0.0
200345.0,188447.7,185038.5,208574.9,205367.8,169965.9,161426.6,179442.8,0.0
201242.0,188856.3,185626.6,209215.9,205884.1,170203.4,161875.0,180249.8,0.0
203028.1,189538.0,186383.6,209902.2,207235.4,170379.8,162230.7,181092.7,0.0
203400.4,189634.6,186384.8,209815.7,207614.5,170314.0,162103.2,180965.5,0.0
202098.8,189099.8,185700.2,209130.0,206696.7,170098.0,161683.4,180112.8,0.0
200364.4,188464.9,185029.4,208573.9,205365.1,169976.4,161437.5,179453.6,0.0
201240.0,188863.0,185599.6,209202.8,205869.5,170206.8,161875.1,180249.2,0.0
203012.8,189535.8,186350.3,209887.2,207217.8,170383.1,162228.1,181090.0,0.0
203396.3,189640.9,186360.4,209809.3,207613.9,170330.0,162116.3,180975.9,0.0
202106.4,189110.0,185684.4,209129.5,206708.9,170123.7,161705.9,180133.3,0.0
200371.2,188474.6,185010.7,208572.0,205374.6,169999.2,161460.1,179472.4,0.0
201252.2,188877.9,185587.9,209207.3,205883.5,170230.3,161901.4,180271.4,0.0
203020.7,189541.7,186332.0,209883.4,207228.0,170393.4,162244.2,181104.4,0.0
203399.3,189637.0,186335.2,209797.9,207617.5,170325.7,162115.8,180981.9,0.0
202110.6,189103.1,185655.6,209111.8,206709.4,170107.8,161695.6,180130.9,0.0
200361.3,188458.5,184978.0,208547.4,205366.3,169984.1,161445.2,179460.0,0.0
201233.1,188858.3,185556.2,209183.0,205868.6,170220.5,161889.0,180255.1,0.0
203018.8,189536.5,186313.2,209871.9,207221.6,170391.7,162241.0,181100.7,0.0
203409.0,189642.3,186324.7,209791.3,207620.5,170327.5,162118.0,180984.8,0.0
202125.8,189114.9,185652.6,209109.2,206716.0,170119.5,161704.0,180136.6,0.0
200379.5,188473.1,184978.8,208543.5,205369.5,169991.4,161453.6,179464.0,0.0
201236.9,188865.4,185544.1,209165.7,205857.8,170217.0,161887.4,180245.2,0.0
203009.6,189533.6,186291.3,209845.4,207195.8,170388.3,162238.0,181085.9,0.0
203404.8,189639.7,186302.5,209767.6,207595.1,170324.7,162118.8,180974.1,0.0
202127.6,189112.2,185626.0,209084.4,206696.9,170105.2,161698.3,180126.7,0.0
200383.9,188476.3,184953.5,208521.6,205361.2,169985.3,161451.8,179461.8,0.0
201233.9,188863.4,185516.3,209143.6,205848.0,170215.8,161885.9,180247.1,0.0
203008.1,189529.8,186268.0,209828.4,207195.6,170384.9,162240.0,181094.1,0.0
203408.1,189640.9,186290.6,209760.9,207604.2,170325.7,162124.5,180990.5,0.0
202134.7,189119.5,185620.3,209083.1,206709.8,170112.1,161702.7,180144.2,0.0
200379.0,188474.2,184939.7,208512.3,205362.7,169978.9,161443.8,179465.1,0.0
201217.3,188856.3,185499.5,209129.3,205836.8,170206.7,161875.6,180240.1,0.0
203010.0,189540.8,186264.2,209821.7,207198.1,170388.7,162238.7,181093.0,0.0
203416.9,189654.7,186286.8,209752.0,207610.9,170335.0,162126.2,180988.6,0.0
202134.8,189117.1,185610.8,209067.0,206706.5,170115.1,161698.9,180136.2,0.0
200374.3,188464.9,184925.7,208490.7,205350.8,169978.9,161435.2,179453.8,0.0
201213.5,188851.0,185487.7,209110.4,205822.3,170207.7,161870.0,180237.1,0.0
203004.3,189527.1,186248.7,209801.7,207173.3,170376.9,162225.4,181089.7,0.0
203404.4,189628.5,186262.5,209721.8,207573.4,170305.1,162099.7,180973.8,0.0
202130.0,189096.6,185596.4,209042.1,206674.0,170092.7,161683.2,180129.3,0.0
200398.4,188471.3,184937.5,208492.5,205345.1,169986.1,161451.7,179468.7,0.0
201237.6,188860.5,185502.6,209114.0,205821.0,170218.2,161890.9,180251.3,0.0
203012.9,189526.9,186255.8,209795.6,207161.4,170381.0,162238.9,181097.2,0.0
203425.8,189640.8,186281.0,209728.1,207576.7,170323.3,162127.9,180997.8,0.0
202159.6,189116.2,185610.6,209048.9,206678.3,170112.3,161712.5,180153.3,0.0
200392.2,188465.7,184922.7,208469.2,205320.5,169980.1,161450.2,179463.8,0.0
201204.0,188842.4,185472.6,209080.4,205778.9,170206.1,161877.2,180233.8,0.0
202990.3,189521.2,186233.0,209773.8,207132.4,170381.7,162234.4,181087.7,0.0
203408.0,189637.5,186257.9,209708.6,207550.8,170326.2,162120.0,180983.5,0.0
202158.0,189122.1,185595.4,209037.7,206670.8,170117.0,161707.6,180147.6,0.0
200394.4,188475.6,184910.4,208465.0,205318.5,169989.9,161451.8,179463.4,0.0
201194.7,188842.8,185450.7,209066.4,205765.9,170209.5,161877.5,180226.1,0.0
202981.9,189519.7,186212.1,209759.7,207121.1,170381.8,162238.5,181088.1,0.0
203395.4,189631.5,186233.1,209689.6,207539.2,170315.4,162118.0,180987.2,0.0
202145.3,189111.9,185568.7,209013.7,206656.3,170100.0,161702.2,180145.1,0.0
200393.9,188474.5,184893.9,208446.8,205311.6,169985.3,161455.0,179467.7,0.0
201200.9,188849.1,185445.8,209060.0,205763.5,170222.0,161894.2,180243.2,0.0
202998.2,189534.3,186217.4,209765.0,207124.2,170397.9,162257.0,181109.4,0.0
203419.3,189647.8,186239.0,209695.9,207544.2,170328.2,162132.5,181000.0,0.0
202166.5,189125.1,185572.1,209019.8,206660.1,170121.1,161719.3,180162.6,0.0
200392.1,188467.3,184874.3,208429.5,205290.4,169984.6,161451.9,179466.4,0.0
201185.2,188832.5,185412.5,209024.3,205722.0,170203.9,161870.4,180217.1,0.0
202980.9,189512.1,186183.4,209726.3,207076.5,170379.0,162230.2,181080.3,0.0
203418.9,189636.2,186221.8,209670.7,207504.6,170329.6,162125.1,180997.2,0.0
202183.8,189122.5,185566.5,209004.3,206628.4,170115.9,161710.5,180168.3,0.0
200411.8,188468.9,184874.8,208422.1,205267.5,169975.1,161440.3,179466.7,0.0
201190.6,188828.3,185404.9,209018.1,205696.4,170188.5,161858.3,180213.9,0.0
202991.5,189514.9,186173.5,209722.3,207052.5,170371.4,162228.0,181083.6,0.0
203423.6,189631.8,186201.3,209659.0,207478.6,170312.2,162118.4,180991.3,0.0
202188.8,189119.2,185542.7,208990.0,206608.5,170104.7,161712.4,180157.5,0.0
200413.7,188468.4,184855.9,208412.3,205248.1,169984.3,161459.1,179464.9,0.0
201182.9,188826.6,185382.6,209002.3,205667.5,170199.9,161874.4,180212.9,0.0
202986.4,189519.0,186155.0,209709.6,207032.9,170385.9,162243.5,181088.8,0.0
203416.1,189639.1,186182.3,209649.5,207465.8,170326.3,162128.0,180995.6,0.0
202180.0,189125.6,185523.0,208983.5,206601.7,170119.0,161715.5,180163.7,0.0
200400.0,188477.4,184828.9,208398.6,205244.8,169992.9,161455.2,179465.2,0.0
201164.7,188840.7,185355.5,208991.1,205669.4,170204.3,161871.8,180212.2,0.0
202956.6,189520.3,186125.6,209697.3,207032.2,170382.4,162237.7,181080.7,0.0
203397.6,189643.2,186162.1,209645.9,207476.4,170328.8,162135.2,180999.6,0.0
202175.7,189136.9,185505.0,208978.5,206620.2,170115.0,161723.7,180165.1,0.0
200385.5,188472.3,184795.7,208377.1,205247.0,169972.5,161445.7,179449.5,0.0
201148.8,188829.8,185322.6,208966.2,205669.5,170187.9,161864.5,180194.0,0.0
202959.3,189526.3,186107.6,209683.7,207042.6,170377.9,162243.2,181074.0,0.0
203405.7,189651.4,186147.8,209630.9,207487.2,170323.5,162137.9,180991.5,0.0
202180.3,189137.3,185495.4,208965.4,206625.1,170117.0,161729.2,180164.4,0.0
200403.9,188486.3,184802.4,208376.9,205259.7,169983.1,161461.2,179459.4,0.0
201157.0,188836.1,185323.6,208957.6,205664.5,170195.0,161872.0,180193.6,0.0
202963.1,189519.6,186098.3,209664.4,207022.7,170371.8,162238.8,181066.6,0.0
203410.1,189641.4,186132.5,209607.3,207456.8,170314.1,162127.0,180979.8,0.0
202212.6,189151.0,185502.2,208961.5,206616.5,170120.0,161731.7,180170.6,0.0
200422.1,188489.7,184806.3,208370.2,205243.3,169989.1,161464.5,179466.4,0.0
201170.5,188842.4,185327.1,208950.5,205640.6,170202.5,161875.8,180202.0,0.0
202971.6,189522.5,186097.7,209653.7,206992.7,170377.0,162240.2,181071.8,0.0
203422.7,189650.9,186139.7,209603.0,207433.4,170325.9,162140.3,180996.4,0.0
202210.1,189147.9,185492.3,208942.2,206576.4,170117.0,161731.5,180171.3,0.0
200428.2,188496.6,184797.8,208356.1,205211.6,169992.3,161470.2,179467.8,0.0
201168.5,188847.9,185322.3,208943.6,205619.3,170213.9,161889.9,180212.2,0.0
202964.1,189526.2,186089.3,209644.1,206973.5,170382.3,162252.0,181082.3,0.0
203418.0,189652.9,186124.2,209591.8,207415.8,170324.6,162142.1,181000.0,0.0
202216.7,189157.8,185480.4,208938.8,206574.7,170122.4,161738.7,180182.7,0.0
200419.8,188497.6,184772.4,208340.7,205204.7,169984.8,161464.2,179465.4,0.0
201146.8,188844.7,185284.9,208920.3,205604.0,170203.1,161879.1,180198.5,0.0
202961.1,189541.5,186073.0,209645.0,206980.8,170401.4,162263.1,181089.5,0.0
203419.6,189670.9,186113.7,209597.9,207433.5,170343.4,162153.3,181009.4,0.0
202213.9,189168.7,185461.5,208933.2,206585.9,170130.4,161743.6,180182.3,0.0
200410.3,188500.0,184746.9,208326.1,205208.6,169988.1,161465.4,179461.8,0.0
201129.9,188836.6,185251.4,208899.3,205599.5,170201.2,161876.8,180189.4,0.0
202932.8,189517.1,186019.7,209608.5,206959.4,170374.1,162244.2,181065.0,0.0
203390.4,189641.6,186058.5,209556.6,207406.2,170307.9,162130.0,180982.8,0.0
202199.0,189146.2,185420.5,208903.7,206570.4,170103.2,161722.6,180166.2,0.0
200403.1,188484.0,184710.4,208299.4,205197.0,169965.7,161444.7,179447.3,0.0
201133.3,188838.7,185234.1,208889.1,205598.4,170202.0,161876.1,180189.8,0.0
202945.0,189525.1,186014.3,209604.7,206966.6,170379.7,162250.3,181074.7,0.0
203417.3,189661.5,186064.0,209560.7,207429.7,170321.5,162143.4,181001.8,0.0
202219.4,189161.6,185421.2,208900.1,206589.5,170114.0,161733.7,180175.6,0.0
200404.4,188490.8,184709.3,208291.1,205204.0,169975.0,161456.3,179448.6,0.0
201113.7,188831.0,185220.3,208865.5,205583.2,170192.4,161868.8,180177.2,0.0
202927.1,189524.4,186007.7,209587.9,206953.5,170383.0,162253.1,181071.0,0.0
203405.7,189667.0,186066.1,209552.6,207423.8,170335.1,162158.5,181008.7,0.0
202211.2,189167.6,185425.1,208893.4,206585.0,170123.7,161745.3,180189.3,0.0
200393.6,188492.9,184704.4,208278.8,205193.6,169979.8,161458.5,179456.3,0.0
201100.4,188832.5,185210.7,208848.3,205570.9,170197.2,161871.2,180177.7,0.0
202919.8,189526.4,185998.8,209569.6,206938.6,170383.9,162252.8,181067.0,0.0
203400.1,189663.3,186051.5,209530.5,207400.4,170328.2,162154.6,180999.7,0.0
202218.4,189171.1,185415.2,208879.4,206570.3,170123.4,161751.6,180186.7,0.0
200421.3,188510.9,184709.6,208278.8,205201.4,169991.2,161476.3,179467.2,0.0
201121.1,188848.0,185212.7,208849.6,205574.3,170209.7,161883.8,180186.3,0.0
202933.6,189536.5,185992.5,209571.7,206938.7,170392.3,162260.1,181076.6,0.0
203417.4,189677.5,186046.2,209539.8,207410.3,170344.8,162165.0,181018.9,0.0
202230.6,189179.4,185399.5,208881.8,206577.8,170134.1,161754.1,180199.1,0.0
200412.4,188506.1,184678.0,208266.6,205189.7,169987.3,161470.3,179464.1,0.0
201099.9,188838.7,185176.3,208832.1,205558.4,170203.3,161881.0,180179.8,0.0
202916.4,189529.5,185960.1,209554.2,206927.8,170385.4,162258.5,181065.0,0.0
203407.0,189672.5,186017.8,209519.9,207407.1,170332.9,162160.9,181002.5,0.0
202239.3,189188.8,185386.7,208870.6,206595.0,170127.9,161758.4,180192.9,0.0
200424.9,188521.2,184668.5,208261.1,205216.4,169989.6,161478.8,179459.0,0.0
201095.9,188842.5,185159.5,208821.9,205570.3,170196.6,161878.7,180162.9,0.0
202928.5,189544.0,185956.2,209551.0,206949.0,170386.8,162266.3,181066.0,0.0
203421.7,189687.2,186018.3,209516.0,207425.4,170337.0,162170.5,181007.2,0.0
202251.0,189199.4,185391.3,208869.0,206605.4,170134.7,161769.9,180199.0,0.0
200410.3,188507.3,184661.1,208243.0,205200.0,169980.9,161472.7,179450.6,0.0
201089.6,188839.1,185163.9,208807.4,205554.6,170201.0,161884.0,180165.9,0.0
202927.1,189544.3,185971.1,209546.2,206930.3,170398.9,162278.9,181077.6,0.0
203428.2,189690.8,186039.4,209517.8,207409.2,170344.6,162183.3,181027.9,0.0
202259.1,189201.2,185406.0,208858.9,206586.5,170132.5,161771.5,180214.3,0.0
200421.3,188517.0,184674.1,208229.8,205184.4,169981.3,161475.2,179467.9,0.0
201074.3,188831.5,185154.3,208781.1,205523.8,170188.3,161871.6,180167.9,0.0
202910.3,189537.3,185947.6,209514.4,206899.5,170383.6,162263.8,181071.0,0.0
203415.5,189687.3,186015.2,209492.6,207391.0,170345.8,162178.3,181028.5,0.0
202259.3,189208.3,185385.9,208849.0,206584.6,170141.0,161774.6,180220.9,0.0
200425.6,188529.8,184649.5,208222.9,205189.2,169990.1,161481.8,179469.4,0.0
201071.2,188844.9,185128.2,208772.5,205529.0,170198.5,161879.3,180166.5,0.0
202902.4,189549.6,185928.1,209512.2,206917.8,170390.1,162269.6,181078.5,0.0
203410.1,189704.5,185993.3,209490.0,207411.9,170348.1,162182.6,181034.3,0.0
202237.2,189207.3,185350.4,208834.1,206592.0,170128.2,161765.5,180216.9,0.0
200398.8,188519.5,184606.4,208196.8,205188.9,169968.6,161457.2,179456.0,0.0
201037.5,188828.5,185083.9,208743.6,205523.9,170179.9,161855.1,180150.4,0.0
202875.7,189537.8,185891.5,209488.2,206910.2,170382.0,162255.0,181069.0,0.0
203389.5,189692.3,185963.0,209464.4,207403.5,170334.4,162165.1,181018.8,0.0
202230.3,189204.6,185335.0,208814.4,206592.5,170127.5,161761.5,180207.9,0.0
200390.8,188518.9,184606.0,208189.0,205194.3,169972.9,161466.7,179457.5,0.0
201027.8,188827.0,185084.0,208733.4,205514.8,170173.8,161860.3,180145.3,0.0
202863.2,189530.5,185887.2,209472.6,206884.8,170368.4,162251.4,181055.5,0.0
203375.0,189679.7,185959.1,209449.2,207370.9,170321.5,162159.7,181009.4,0.0
202227.8,189195.8,185332.8,208801.9,206564.9,170114.4,161755.6,180201.9,0.0
200396.5,188517.8,184603.9,208173.1,205172.0,169966.1,161461.2,179450.4,0.0
201022.9,188823.8,185076.3,208714.4,205491.0,170174.0,161855.6,180134.4,0.0
202864.5,189534.3,185881.0,209462.0,206876.2,170375.8,162256.4,181053.9,0.0
203398.4,189704.2,185963.9,209455.2,207391.9,170344.3,162179.9,181022.3,0.0
202245.6,189219.9,185334.1,208811.7,206593.4,170136.8,161769.0,180215.7,0.0
200390.6,188525.9,184586.9,208174.4,205190.3,169981.4,161464.8,179454.9,0.0
201011.4,188830.6,185057.2,208714.9,205508.4,170191.6,161864.9,180143.5,0.0
202854.3,189539.4,185860.2,209455.9,206897.9,170385.4,162260.9,181058.4,0.0
203375.8,189694.2,185929.4,209434.3,207403.8,170335.9,162171.6,181015.9,0.0
202231.7,189213.7,185302.6,208791.5,206611.3,170128.4,161768.8,180214.3,0.0
200386.2,188524.6,184559.5,208154.2,205210.8,169971.1,161461.1,179451.3,0.0
200999.2,188824.3,185027.6,208691.9,205521.0,170179.8,161853.6,180132.5,0.0
202832.9,189525.2,185831.4,209434.3,206894.7,170371.6,162250.5,181046.5,0.0
203373.0,189691.8,185915.0,209421.7,207409.5,170329.3,162167.0,181011.4,0.0
202241.5,189219.9,185297.4,208783.7,206628.5,170120.8,161763.9,180213.5,0.0
200393.6,188531.7,184559.2,208150.9,205227.7,169967.4,161463.0,179453.8,0.0
200994.8,188824.7,185024.5,208684.7,205525.5,170176.9,161856.4,180128.0,0.0
202838.2,189531.8,185833.4,209427.2,206900.8,170371.5,162250.4,181043.1,0.0
203372.4,189689.7,185911.0,209407.6,207400.8,170322.2,162157.9,181000.3,0.0
202245.9,189216.8,185296.9,208770.8,206611.2,170120.8,161758.1,180203.6,0.0
200390.4,188521.7,184553.3,208129.0,205197.3,169963.8,161451.7,179437.4,0.0
200990.3,188821.6,185021.3,208666.6,205497.3,170174.8,161852.2,180120.9,0.0
202834.6,189534.2,185835.0,209416.7,206881.8,170377.2,162257.4,181048.3,0.0
203365.2,189696.5,185917.4,209404.7,207389.0,170334.5,162173.0,181016.8,0.0
202233.3,189219.2,185296.3,208763.3,206600.8,170129.4,161771.0,180217.8,0.0
200386.8,188532.9,184557.6,208128.4,205196.5,169981.4,161473.6,179455.7,0.0
200971.9,188823.3,185012.2,208657.3,205484.3,170183.3,161858.8,180125.8,0.0
202802.8,189525.9,185813.2,209402.2,206857.0,170374.8,162252.8,181044.8,0.0
203337.2,189686.6,185887.9,209384.5,207371.1,170322.5,162166.1,181010.9,0.0
202219.0,189223.6,185276.6,208756.2,206600.8,170130.5,161774.4,180223.8,0.0
200355.3,188527.0,184526.4,208112.7,205187.5,169973.6,161464.8,179449.7,0.0
200940.2,188818.3,184975.1,208637.1,205472.4,170176.6,161850.0,180115.8,0.0
202782.4,189522.5,185776.3,209383.4,206853.3,170367.0,162244.0,181036.5,0.0
203331.8,189690.8,185860.4,209376.3,207377.5,170321.3,162161.0,181008.7,0.0
202223.7,189227.0,185248.7,208745.5,206608.0,170119.8,161766.6,180216.2,0.0
200371.4,188536.7,184501.2,208104.8,205201.0,169968.1,161463.0,179446.2,0.0
200941.4,188819.0,184946.7,208623.2,205480.3,170170.9,161847.7,180107.3,0.0
202791.0,189527.9,185754.1,209371.8,206869.0,170366.3,162251.0,181035.7,0.0
203341.7,189696.1,185838.0,209367.6,207394.1,170321.3,162171.1,181012.4,0.0
202233.7,189234.2,185231.5,208741.3,206625.3,170125.5,161781.9,180226.6,0.0
200378.7,188542.2,184486.9,208098.1,205218.3,169970.0,161476.3,179452.6,0.0
200943.0,188824.2,184935.1,208615.3,205490.5,170172.0,161854.6,180108.1,0.0
202783.9,189525.6,185746.1,209362.6,206866.1,170366.2,162249.5,181030.5,0.0
203336.3,189691.0,185837.1,209357.5,207386.1,170322.2,162169.1,181004.0,0.0
202229.7,189223.5,185230.3,208725.8,206610.3,170122.4,161770.4,180212.9,0.0
200370.4,188528.4,184483.6,208077.9,205188.8,169965.3,161458.1,179435.2,0.0
200921.7,188803.0,184923.5,208587.7,205441.2,170164.0,161833.4,180085.2,0.0
202766.5,189506.4,185734.0,209338.5,206814.6,170359.5,162231.9,181012.8,0.0
203333.8,189684.2,185833.8,209344.1,207349.5,170323.7,162161.4,181000.5,0.0
202234.7,189225.5,185230.3,208716.6,206586.3,170125.5,161770.6,180215.6,0.0
200374.1,188533.8,184479.9,208069.7,205172.6,169973.2,161463.5,179439.5,0.0
200926.0,188815.0,184920.3,208586.6,205434.9,170178.9,161850.4,180094.1,0.0
202771.9,189520.9,185726.1,209335.5,206813.2,170372.9,162253.4,181023.9,0.0
203338.8,189697.9,185818.1,209337.1,207350.0,170334.6,162181.0,181011.2,0.0
202251.9,189248.3,185216.3,208716.5,206603.5,170141.1,161793.4,180234.8,0.0
200372.8,188542.0,184453.1,208060.9,205180.2,169977.2,161474.0,179443.9,0.0
200904.2,188809.0,184883.6,208568.1,205427.7,170169.8,161846.2,180084.3,0.0
202757.9,189524.0,185705.1,209329.1,206816.9,170374.8,162254.2,181024.9,0.0
203328.4,189700.3,185802.8,209333.8,207358.3,170335.4,162177.7,181011.9,0.0
202230.5,189235.3,185194.4,208703.0,206593.3,170130.2,161779.3,180221.0,0.0
200355.9,188531.9,184435.3,208044.9,205165.9,169965.6,161460.3,179430.5,0.0
200893.3,188805.5,184874.3,208553.8,205414.6,170164.4,161840.0,180075.4,0.0
202741.8,189505.1,185683.2,209299.6,206784.8,170350.4,162234.2,181003.0,0.0
203321.9,189684.0,185783.9,209304.9,207324.1,170313.9,162162.3,180993.8,0.0
202247.6,189236.0,185193.3,208688.6,206579.6,170123.3,161777.5,180219.6,0.0
200390.8,188548.4,184449.2,208045.0,205171.0,169973.3,161474.2,179446.2,0.0
200904.4,188801.0,184866.6,208537.4,205397.7,170160.6,161840.5,180075.8,0.0
202755.9,189508.3,185684.4,209297.2,206776.3,170358.2,162246.6,181012.0,0.0
203343.6,189695.4,185790.3,209310.1,207322.4,170324.2,162178.5,181009.6,0.0
202265.0,189245.0,185194.1,208693.1,206581.9,170132.7,161793.9,180235.5,0.0
200384.1,188540.9,184430.0,208031.5,205158.4,169966.1,161470.9,179438.6,0.0
200901.3,188810.4,184854.0,208533.8,205393.9,170169.6,161846.4,180073.2,0.0
202758.1,189526.3,185672.7,209297.5,206782.3,170372.9,162259.3,181015.9,0.0
203333.1,189700.3,185765.9,209301.3,207327.1,170326.5,162175.9,181003.0,0.0
202248.6,189241.3,185162.4,208677.1,206580.7,170128.3,161782.8,180222.4,0.0
200368.0,188536.9,184403.2,208020.1,205164.5,169971.9,161471.4,179437.0,0.0
200876.6,188801.2,184825.8,208518.5,205397.0,170170.6,161847.6,180070.9,0.0
202745.5,189529.8,185651.5,209285.9,206791.3,170375.5,162261.7,181016.0,0.0
203326.4,189700.4,185743.5,209287.7,207332.0,170326.5,162177.0,181001.3,0.0
202257.2,189247.6,185147.8,208669.6,206596.1,170127.3,161784.9,180227.8,0.0
200376.2,188545.8,184386.3,208010.6,205176.3,169966.3,161469.0,179436.4,0.0
200879.6,188808.1,184810.6,208506.2,205402.9,170165.3,161844.9,180066.4,0.0
202735.3,189518.2,185634.1,209269.9,206789.2,170370.9,162255.8,181010.3,0.0
203318.5,189690.1,185732.5,209273.7,207331.3,170318.7,162174.3,180998.1,0.0
202257.5,189244.3,185145.1,208656.3,206598.3,170121.3,161785.6,180224.6,0.0
200387.0,188553.0,184393.7,208004.6,205184.5,169971.9,161477.4,179438.7,0.0
200877.6,188809.7,184815.0,208501.9,205405.3,170172.2,161854.0,180068.6,0.0
202737.0,189523.0,185638.3,209265.0,206785.9,170368.9,162261.0,181012.8,0.0
203322.3,189698.0,185741.9,209273.0,207332.9,170326.7,162185.1,181008.8,0.0
202257.5,189249.9,185150.7,208655.0,206593.6,170128.3,161792.8,180235.8,0.0
200365.9,188539.3,184380.9,207990.4,205163.6,169965.2,161470.0,179434.8,0.0
200838.8,188784.5,184784.3,208471.4,205363.6,170153.8,161828.8,180045.4,0.0
202697.8,189496.6,185608.5,209238.5,206743.1,170356.2,162241.2,180994.4,0.0
203301.0,189684.0,185721.2,209258.7,207305.8,170320.8,162175.7,181001.7,0.0
202249.1,189242.2,185135.8,208654.8,206582.2,170136.4,161797.0,180239.6,0.0
200361.0,188533.0,184361.5,207984.0,205152.9,169970.2,161470.3,179434.8,0.0
200835.4,188783.0,184767.8,208467.2,205357.6,170163.3,161833.9,180051.6,0.0
202706.5,189509.4,185596.8,209242.6,206753.8,170370.7,162255.3,181012.0,0.0
203322.3,189709.3,185713.4,209270.0,207332.0,170343.8,162199.2,181028.9,0.0
202263.3,189256.8,185114.6,208648.5,206604.0,170143.0,161804.5,180250.6,0.0
200364.1,188541.4,184335.4,207972.2,205166.6,169973.2,161474.5,179439.7,0.0
200833.0,188792.8,184739.2,208456.2,205368.5,170164.1,161838.3,180051.4,0.0
202701.6,189512.4,185566.2,209227.2,206762.5,170368.1,162254.7,181003.3,0.0
203318.0,189708.0,185684.5,209254.0,207339.8,170336.7,162192.4,181013.6,0.0
202267.8,189265.0,185100.3,208645.0,206623.9,170142.7,161803.3,180244.3,0.0
200374.3,188554.8,184324.8,207970.5,205193.0,169975.8,161472.3,179433.2,0.0
200826.2,188792.7,184721.2,208442.4,205380.1,170160.8,161830.0,180037.8,0.0
202694.2,189513.4,185554.4,209215.0,206773.9,170366.2,162249.1,180992.2,0.0
203316.3,189716.0,185681.1,209245.8,207358.6,170339.3,162192.2,181013.0,0.0
202272.3,189275.9,185098.6,208637.9,206643.6,170146.4,161808.3,180254.1,0.0
200393.0,188577.4,184338.1,207974.1,205224.0,169986.6,161491.5,179457.1,0.0
200827.0,188804.6,184722.8,208433.7,205395.0,170163.2,161839.0,180044.0,0.0
202691.5,189520.4,185548.8,209203.5,206778.0,170363.8,162253.1,180995.0,0.0
203314.4,189717.2,185672.1,209233.0,207355.5,170335.1,162197.6,181014.6,0.0
202295.2,189297.0,185109.7,208641.0,206656.9,170154.2,161823.8,180265.0,0.0
200395.1,188579.4,184334.6,207962.3,205216.1,169984.0,161488.2,179449.8,0.0
200826.0,188804.8,184722.7,208424.5,205382.9,170167.7,161839.7,180041.8,0.0
202699.6,189529.3,185557.8,209201.5,206772.6,170376.8,162261.7,181003.9,0.0
203323.5,189724.8,185679.3,209228.5,207348.7,170342.7,162199.1,181021.8,0.0
202283.7,189283.3,185095.5,208617.0,206628.8,170143.5,161808.3,180252.9,0.0
200384.7,188570.9,184320.5,207940.2,205187.8,169976.4,161479.1,179440.8,0.0
200815.7,188802.4,184710.9,208408.8,205359.3,170165.5,161836.6,180040.5,0.0
202696.8,189531.2,185555.2,209196.5,206757.8,170384.1,162270.0,181012.5,0.0
203325.3,189727.3,185675.4,209220.5,207336.8,170342.9,162202.9,181028.5,0.0
202293.8,189288.1,185090.0,208609.8,206623.6,170140.5,161808.0,180261.0,0.0
200399.0,188580.7,184319.6,207941.7,205188.9,169981.4,161483.1,179452.4,0.0
200831.6,188820.0,184717.6,208418.6,205364.6,170180.6,161851.0,180055.2,0.0
202700.2,189539.8,185550.3,209195.2,206755.2,170387.5,162274.8,181015.4,0.0
203318.1,189725.0,185664.8,209216.9,207327.3,170346.2,162207.1,181030.2,0.0
202293.5,189288.4,185083.7,208607.2,206618.5,170148.0,161818.9,180269.3,0.0
200401.4,188584.5,184313.5,207937.8,205190.0,169984.5,161491.2,179459.8,0.0
200817.4,188813.8,184699.5,208401.9,205353.9,170170.2,161843.9,180047.7,0.0
202686.8,189530.6,185527.5,209176.9,206742.6,170376.0,162265.4,181008.1,0.0
203327.8,189732.3,185656.2,209213.0,207338.6,170348.3,162212.8,181038.5,0.0
202302.4,189296.8,185075.7,208608.5,206638.3,170155.1,161830.0,180280.1,0.0
200396.2,188580.5,184293.3,207926.0,205199.6,169981.8,161493.2,179456.4,0.0
200794.1,188797.7,184669.4,208382.2,205352.5,170166.2,161844.0,180036.5,0.0
202665.0,189518.6,185502.8,209164.4,206741.8,170376.5,162271.1,181004.6,0.0
203311.8,189722.7,185632.4,209200.0,207339.1,170342.0,162211.4,181034.9,0.0
202294.4,189288.1,185052.6,208593.5,206639.5,170144.2,161826.1,180276.4,0.0
200383.8,188565.4,184264.1,207905.9,205196.5,169967.0,161485.5,179448.7,0.0
200793.2,188799.3,184652.2,208372.5,205361.7,170165.8,161844.8,180037.7,0.0
202670.5,189526.6,185491.0,209158.5,206757.8,170381.2,162274.2,181009.0,0.0
203312.5,189726.4,185618.9,209193.6,207349.5,170347.2,162214.2,181034.8,0.0
202301.1,189295.7,185044.6,208591.0,206652.1,170148.5,161827.7,180275.1,0.0
200392.3,188578.2,184261.0,207906.0,205209.5,169979.0,161491.3,179449.3,0.0
200777.8,188793.5,184632.1,208353.0,205349.4,170161.4,161840.0,180024.2,0.0
202660.7,189525.9,185479.8,209145.2,206747.6,170382.5,162275.8,181001.8,0.0
203309.1,189729.1,185610.4,209180.2,207342.9,170347.0,162216.5,181029.4,0.0
202309.5,189305.8,185042.6,208581.4,206658.5,170152.7,161835.5,180276.0,0.0
200405.9,188593.1,184262.1,207898.6,205223.5,169986.7,161503.4,179453.6,0.0
200779.7,188799.6,184625.0,208340.0,205350.7,170167.3,161843.9,180017.7,0.0
202670.1,189531.9,185472.5,209131.8,206754.8,170383.2,162276.9,180995.3,0.0
203319.3,189729.1,185601.9,209167.0,207349.8,170342.6,162214.4,181022.5,0.0
202318.6,189297.2,185030.6,208562.7,206656.1,170136.3,161820.8,180261.7,0.0
200411.9,188580.9,184249.2,207876.2,205212.8,169963.8,161482.6,179435.3,0.0
200810.7,188820.9,184640.2,208345.5,205362.3,170173.1,161854.4,180027.7,0.0
202686.2,189544.0,185479.3,209129.7,206752.0,170382.6,162285.4,181000.8,0.0
203336.4,189744.9,185610.5,209167.2,207349.6,170343.4,162224.2,181032.1,0.0
202341.6,189319.2,185044.8,208570.2,206665.5,170147.8,161838.0,180281.1,0.0
200422.4,188593.4,184251.8,207874.3,205210.3,169970.6,161493.1,179442.4,0.0
200781.5,188799.9,184611.0,208313.6,205327.5,170151.7,161835.8,180003.2,0.0
202659.3,189528.5,185453.2,209101.7,206719.7,170363.9,162264.6,180978.5,0.0
203328.7,189745.8,185598.5,209155.9,207333.5,170341.6,162219.3,181029.7,0.0
202344.4,189328.0,185037.8,208566.8,206657.9,170155.2,161843.5,180289.4,0.0
200418.7,188595.5,184238.8,207867.6,205202.1,169974.4,161493.1,179447.1,0.0
200771.7,188801.5,184596.4,208310.7,205317.3,170160.2,161841.0,180009.5,0.0
202647.3,189521.7,185433.9,209096.9,206702.8,170370.7,162272.3,180985.0,0.0
203331.2,189746.8,185584.9,209154.8,207331.5,170354.8,162234.3,181040.7,0.0
202341.9,189323.9,185013.8,208557.7,206657.2,170155.0,161844.7,180289.0,0.0
200411.0,188589.2,184210.2,207854.2,205201.8,169967.2,161490.6,179440.1,0.0
200758.2,188794.6,184567.4,208293.3,205317.8,170154.7,161837.9,180000.9,0.0
202647.5,189530.6,185419.9,209091.9,206723.1,170377.6,162283.1,180993.6,0.0
203314.7,189738.3,185558.5,209138.8,207336.9,170348.7,162233.3,181042.8,0.0
202331.0,189315.2,184989.0,208539.6,206663.9,170146.9,161845.7,180293.7,0.0
200407.9,188583.7,184187.7,207836.0,205209.4,169961.1,161492.5,179450.4,0.0
200737.7,188771.0,184530.6,208263.4,205305.5,170135.7,161827.2,180000.7,0.0
202627.2,189504.5,185380.5,209059.4,206702.1,170353.1,162264.5,180986.5,0.0
203300.8,189715.5,185521.4,209106.8,207315.0,170317.3,162209.2,181025.6,0.0
202325.0,189297.0,184964.6,208519.3,206646.3,170125.0,161828.9,180283.5,0.0
200417.8,188586.4,184189.1,207834.9,205210.1,169964.8,161496.6,179453.8,0.0
200736.4,188772.8,184531.4,208256.0,205300.3,170141.4,161827.4,179993.0,0.0
202635.2,189513.5,185384.8,209055.4,206696.5,170355.5,162263.2,180978.3,0.0
203328.6,189742.0,185541.8,209120.5,207325.7,170336.6,162226.2,181038.3,0.0
202353.6,189322.2,184982.7,208528.7,206660.8,170141.0,161844.0,180293.7,0.0
200431.3,188596.7,184185.6,207828.7,205210.2,169963.6,161493.3,179445.6,0.0
200753.4,188792.8,184533.2,208260.1,205304.0,170146.2,161832.9,179994.8,0.0
202630.9,189516.9,185380.2,209052.8,206691.3,170360.4,162269.0,180976.8,0.0
203304.9,189726.7,185520.3,209098.3,207300.6,170324.3,162214.9,181021.1,0.0
202344.5,189318.8,184968.4,208513.8,206641.5,170135.5,161841.9,180284.3,0.0
200417.1,188593.4,184175.8,207816.6,205195.5,169963.0,161498.6,179440.6,0.0
200730.2,188788.7,184517.8,208241.5,205281.7,170144.6,161835.7,179982.6,0.0
202620.2,189521.6,185367.8,209040.0,206675.2,170359.0,162274.3,180971.0,0.0
203312.2,189743.0,185520.3,209098.9,207301.9,170331.4,162232.2,181032.0,0.0
202351.4,189331.7,184964.2,208514.6,206648.4,170137.9,161852.7,180294.8,0.0
200413.7,188594.2,184159.9,207810.5,205192.1,169955.2,161492.0,179439.5,0.0
200726.5,188787.6,184501.3,208232.8,205277.9,170138.5,161827.6,179976.3,0.0
202623.0,189528.6,185355.8,209035.3,206682.7,170361.8,162272.6,180970.5,0.0
203322.3,189755.6,185512.2,209100.4,207325.6,170345.2,162236.0,181035.2,0.0
202368.2,189350.5,184964.1,208523.5,206683.2,170159.2,161867.0,180306.2,0.0
200435.6,188617.3,184157.2,207815.2,205229.2,169969.2,161507.8,179450.8,0.0
200730.2,188797.2,184482.5,208227.2,205300.5,170142.7,161834.4,179975.1,0.0
202613.6,189526.7,185330.0,209026.0,206694.7,170360.4,162274.9,180966.3,0.0
203320.9,189762.0,185494.7,209095.5,207341.1,170345.4,162241.1,181035.8,0.0
202369.2,189350.3,184944.3,208512.2,206694.4,170152.3,161863.7,180302.0,0.0
200441.0,188619.2,184143.2,207806.6,205243.3,169971.6,161508.5,179451.6,0.0
200716.5,188789.5,184464.4,208213.2,205299.2,170141.9,161832.4,179975.1,0.0
202601.2,189521.3,185319.5,209017.0,206690.7,170363.6,162277.8,180969.3,0.0
203309.4,189752.7,185482.3,209083.2,207334.5,170341.0,162234.7,181034.9,0.0
202359.8,189340.9,184928.6,208495.5,206683.5,170144.3,161851.6,180297.4,0.0
200431.0,188612.5,184127.5,207786.2,205227.7,169963.5,161498.2,179444.4,0.0
200717.3,188796.1,184463.7,208203.2,205298.4,170147.6,161835.0,179976.2,0.0
202595.4,189519.2,185313.9,209000.8,206683.1,170357.7,162270.2,180959.8,0.0
203302.9,189745.0,185481.3,209071.6,207326.7,170332.0,162228.7,181028.1,0.0
202364.6,189341.2,184936.6,208491.6,206684.8,170141.9,161855.3,180297.8,0.0
200435.5,188609.9,184131.7,207777.1,205229.7,169954.4,161496.5,179438.9,0.0
200697.8,188773.1,184450.0,208178.3,205276.5,170119.4,161811.0,179952.4,0.0
202591.2,189512.9,185310.7,208989.8,206672.8,170346.6,162263.9,180957.0,0.0
203315.1,189756.0,185487.2,209070.9,207327.2,170335.3,162240.7,181041.6,0.0
202368.6,189345.9,184938.0,208489.4,206681.5,170144.2,161864.4,180309.5,0.0
200432.8,188612.8,184133.1,207781.3,205224.6,169962.0,161513.7,179452.2,0.0
200691.0,188780.0,184445.4,208173.3,205262.5,170120.7,161828.3,179956.4,0.0
202578.6,189513.3,185302.6,208977.6,206649.9,170345.0,162276.0,180952.8,0.0
203300.4,189749.4,185471.8,209050.6,207296.4,170326.0,162239.6,181028.5,0.0
202371.9,189352.5,184930.2,208475.3,206661.8,170137.6,161863.7,180304.6,0.0
200437.0,188620.0,184123.9,207762.4,205204.6,169953.7,161502.9,179444.1,0.0
200683.1,188778.9,184440.2,208160.3,205242.9,170127.0,161822.7,179953.4,0.0
202581.4,189520.9,185305.3,208973.8,206635.3,170357.5,162280.9,180960.1,0.0
203308.4,189757.6,185477.9,209052.4,207285.5,170340.1,162249.9,181042.7,0.0
202388.3,189364.3,184941.1,208483.0,206657.9,170152.5,161878.5,180321.3,0.0
200454.8,188631.1,184130.5,207767.9,205199.0,169967.4,161518.5,179456.1,0.0
200691.0,188787.9,184433.7,208158.8,205226.0,170135.9,161836.9,179960.4,0.0
202578.4,189522.7,185285.9,208966.1,206617.4,170353.2,162284.0,180962.1,0.0
203302.5,189760.2,185452.4,209043.0,207272.9,170331.5,162248.5,181040.5,0.0
202382.8,189369.4,184913.1,208472.2,206650.0,170143.7,161876.8,180317.6,0.0
200445.5,188641.2,184104.4,207760.0,205200.9,169963.5,161518.0,179457.9,0.0
200662.5,188788.8,184399.2,208145.2,205221.1,170128.4,161826.3,179950.6,0.0
202550.7,189526.1,185256.7,208957.2,206615.6,170356.2,162280.0,180953.4,0.0
203287.6,189769.7,185435.4,209040.1,207286.0,170341.0,162254.1,181040.7,0.0
202373.8,189378.7,184902.3,208468.0,206672.1,170150.3,161881.0,180320.3,0.0
200433.1,188643.5,184089.4,207744.5,205217.5,169961.9,161511.0,179449.4,0.0
200659.0,188800.8,184391.3,208131.4,205241.5,170134.2,161828.3,179946.0,0.0
202557.8,189543.6,185261.8,208951.6,206642.2,170368.1,162290.2,180959.5,0.0
203296.9,189784.6,185437.6,209032.7,207302.8,170350.5,162258.9,181046.3,0.0
202390.0,189393.8,184904.0,208462.6,206683.2,170163.6,161888.4,180329.1,0.0
200446.8,188655.0,184092.2,207742.6,205224.4,169973.7,161521.4,179459.8,0.0
200659.2,188802.8,184388.6,208122.4,205237.0,170139.2,161831.4,179950.2,0.0
202552.8,189539.9,185249.8,208934.2,206631.0,170366.4,162288.7,180958.7,0.0
203294.1,189781.3,185425.0,209015.5,207294.8,170344.3,162258.1,181040.0,0.0
202381.1,189380.4,184884.6,208438.1,206674.8,170145.2,161878.1,180315.6,0.0
200432.3,188637.1,184063.1,207711.2,205213.3,169957.2,161506.1,179442.6,0.0
200651.0,188796.4,184359.6,208099.6,205230.4,170134.9,161827.4,179940.8,0.0
202553.2,189543.8,185230.3,208925.7,206633.0,170376.4,162293.7,180960.7,0.0
203288.3,189778.8,185403.5,209005.3,207295.7,170347.8,162255.2,181044.8,0.0
202378.8,189381.3,184865.7,208434.9,206684.0,170150.3,161876.7,180325.8,0.0
200444.0,188652.3,184054.1,207719.2,205236.0,169965.6,161511.1,179456.0,0.0
200643.4,188798.1,184350.0,208103.5,205245.9,170134.0,161823.2,179943.1,0.0
202537.3,189536.4,185216.6,208917.6,206636.8,170362.9,162279.9,180950.9,0.0
203279.6,189776.0,185391.1,208995.3,207304.0,170340.3,162244.4,181034.5,0.0
202369.0,189376.9,184855.7,208424.8,206687.8,170151.0,161871.5,180316.5,0.0
200431.9,188642.6,184047.5,207707.3,205234.0,169968.9,161515.0,179454.4,0.0
200625.0,188785.4,184338.7,208078.6,205230.8,170128.5,161820.6,179932.4,0.0
202512.7,189515.1,185203.2,208887.2,206612.9,170345.9,162264.6,180929.1,0.0
203267.5,189764.1,185394.5,208976.7,207281.2,170327.1,162238.5,181026.1,0.0
202371.2,189371.2,184869.3,208408.9,206665.3,170134.5,161864.6,180308.5,0.0
200430.4,188634.7,184062.3,207689.7,205200.0,169946.5,161498.4,179436.2,0.0
200610.4,188774.4,184355.0,208064.5,205186.5,170123.2,161815.7,179918.9,0.0
202498.0,189511.1,185221.6,208878.7,206564.7,170352.9,162274.7,180927.9,0.0
203255.9,189760.5,185405.3,208968.1,207229.5,170335.5,162246.7,181023.3,0.0
202373.1,189378.9,184882.7,208411.1,206623.3,170151.9,161881.1,180321.6,0.0
200434.4,188646.9,184070.3,207693.2,205165.9,169966.8,161516.1,179454.5,0.0
200601.3,188777.8,184346.7,208057.0,205148.0,170126.8,161820.9,179926.5,0.0
202484.6,189508.7,185206.3,208872.6,206531.6,170351.2,162274.5,180936.8,0.0
203247.7,189765.3,185389.1,208968.4,207215.4,170336.5,162252.0,181040.2,0.0
202375.2,189400.0,184872.0,208421.7,206634.3,170160.7,161896.5,180343.8,0.0
200423.0,188656.0,184048.5,207694.0,205173.8,169968.6,161523.7,179463.0,0.0
200578.6,188778.7,184312.8,208053.3,205154.4,170127.9,161822.4,179925.9,0.0
202465.3,189514.5,185166.3,208868.1,206542.2,170347.9,162273.1,180933.0,0.0
203235.3,189774.1,185355.0,208967.6,207238.6,170338.0,162256.0,181036.5,0.0
202350.7,189389.2,184824.3,208404.5,206652.6,170152.6,161889.0,180328.2,0.0
200407.9,188654.8,184008.8,207684.5,205203.2,169973.7,161528.9,179458.9,0.0
200579.4,188794.7,184288.9,208052.9,205190.2,170141.8,161835.0,179927.2,0.0
202471.3,189528.4,185151.0,208872.1,206580.3,170361.8,162283.3,180936.1,0.0
203244.1,189783.2,185337.2,208967.9,207266.8,170345.0,162259.0,181039.6,0.0
202376.4,189405.7,184818.8,208411.8,206681.2,170164.8,161899.9,180339.1,0.0
200431.0,188663.0,184001.3,207685.4,205221.1,169981.3,161533.0,179460.0,0.0
200573.3,188777.1,184267.7,208037.3,205183.4,170127.3,161820.6,179913.2,0.0
202470.0,189516.2,185137.6,208853.3,206568.0,170349.0,162274.3,180927.0,0.0
203255.3,189782.6,185345.4,208960.1,207268.5,170345.5,162267.3,181044.2,0.0
202387.8,189409.2,184834.0,208407.5,206685.3,170168.0,161904.3,180346.0,0.0
200445.2,188669.9,184017.8,207678.9,205222.6,169977.7,161531.7,179464.9,0.0
200590.8,188789.9,184286.0,208029.6,205176.7,170132.8,161824.5,179916.7,0.0
202476.1,189515.5,185149.7,208844.6,206547.7,170350.3,162274.3,180926.5,0.0
203245.3,189763.3,185343.5,208941.3,207228.4,170335.3,162252.5,181032.1,0.0
202386.9,189394.3,184837.4,208392.8,206647.5,170155.7,161895.4,180332.5,0.0
200451.0,188664.3,184032.4,207676.1,205197.6,169978.0,161535.0,179460.6,0.0
200581.8,188779.6,184293.1,208021.9,205142.0,170139.2,161831.8,179910.8,0.0
202480.3,189521.3,185163.5,208846.5,206525.5,170368.8,162299.1,180934.1,0.0
203259.3,189779.1,185359.1,208950.5,207220.4,170351.9,162277.9,181046.2,0.0
202384.2,189396.7,184833.4,208390.5,206630.9,170157.0,161901.4,180335.8,0.0
200433.6,188657.0,184005.2,207657.6,205169.2,169962.5,161524.3,179448.8,0.0
200556.0,188770.9,184256.3,208002.6,205115.4,170123.8,161820.6,179895.3,0.0
202461.9,189522.3,185133.8,208838.2,206511.4,170368.8,162298.5,180929.0,0.0
203255.5,189792.1,185338.1,208952.8,207222.9,170362.1,162289.0,181056.2,0.0
202390.4,189414.3,184818.3,208395.3,206645.6,170170.5,161917.2,180353.8,0.0
200423.5,188657.3,183981.1,207649.4,205171.9,169965.0,161528.1,179454.5,0.0
200539.1,188769.7,184230.8,207987.5,205114.5,170119.7,161819.8,179897.4,0.0
202432.1,189505.7,185099.6,208811.9,206498.8,170349.0,162282.4,180922.1,0.0
203223.0,189768.0,185305.5,208922.1,207201.0,170342.1,162271.6,181042.3,0.0
202382.7,189409.2,184806.1,208382.7,206640.8,170171.8,161918.8,180356.5,0.0
200432.4,188664.3,183979.9,207650.2,205177.3,169975.2,161536.6,179463.3,0.0
200538.0,188767.5,184230.5,207988.9,205107.7,170129.0,161822.4,179895.3,0.0
202442.4,189513.6,185109.0,208822.3,206495.1,170365.5,162291.6,180923.8,0.0
203235.8,189776.7,185312.2,208928.7,207192.1,170355.3,162277.2,181042.2,0.0
202381.1,189402.8,184799.0,208373.6,206617.7,170165.4,161910.8,180345.4,0.0
200433.6,188664.2,183982.9,207644.8,205163.5,169979.5,161544.4,179468.3,0.0
200538.3,188771.1,184227.4,207977.3,205090.0,170126.6,161826.0,179897.7,0.0
202436.9,189509.8,185097.5,208801.8,206469.2,170354.1,162286.1,180919.1,0.0
203242.0,189783.8,185311.5,208921.2,207184.4,170352.8,162280.2,181047.7,0.0
202405.2,189421.2,184806.3,208379.4,206627.3,170175.8,161926.1,180357.9,0.0
200456.0,188677.2,183978.6,207643.6,205172.3,169973.5,161544.9,179468.4,0.0
200535.0,188769.0,184210.8,207968.3,205087.8,170116.5,161819.3,179884.8,0.0
202425.4,189508.5,185078.4,208794.9,206468.3,170353.5,162286.9,180908.3,0.0
203229.8,189780.7,185288.7,208912.8,207185.8,170342.5,162274.9,181037.4,0.0
202387.3,189413.5,184785.7,208369.7,206627.8,170159.4,161914.0,180346.2,0.0
200457.0,188690.0,183971.9,207642.7,205183.8,169983.1,161551.5,179466.7,0.0
200531.7,188780.8,184200.5,207962.9,205090.7,170130.7,161825.4,179881.9,0.0
202422.9,189517.0,185074.5,208789.4,206470.9,170358.5,162290.0,180907.3,0.0
203232.7,189791.8,185292.5,208909.9,207187.3,170351.1,162278.0,181038.3,0.0
202393.6,189423.1,184782.9,208363.5,206623.1,170163.2,161912.8,180345.1,0.0
200446.3,188680.7,183960.1,207629.3,205161.0,169972.5,161540.6,179457.4,0.0
200531.3,188781.3,184201.8,207959.4,205075.8,170125.3,161826.9,179885.0,0.0
202429.0,189523.0,185079.0,208790.7,206453.7,170359.6,162293.9,180913.6,0.0
203231.5,189784.9,185284.7,208901.4,207159.9,170341.0,162277.3,181038.2,0.0
202406.0,189423.4,184783.7,208361.0,206607.7,170161.9,161922.0,180359.0,0.0
200457.3,188683.9,183957.8,207622.1,205153.3,169974.1,161546.2,179467.1,0.0
200514.0,188767.2,184178.7,207934.7,205049.9,170118.2,161816.3,179874.9,0.0
202403.4,189500.6,185046.0,208759.6,206423.1,170342.9,162274.1,180898.9,0.0
203214.1,189769.7,185258.1,208874.7,207143.7,170325.0,162257.1,181027.2,0.0
202397.4,189419.5,184769.5,208344.0,206606.8,170153.6,161910.0,180354.3,0.0
200464.8,188695.9,183958.3,207622.8,205168.5,169979.6,161551.8,179474.9,0.0
200516.3,188779.5,184180.3,207937.3,205062.3,170131.0,161831.8,179885.0,0.0
202412.6,189518.1,185052.9,208769.0,206441.0,170364.4,162299.0,180912.0,0.0
203223.0,189784.5,185260.3,208886.1,207157.2,170349.5,162286.1,181041.2,0.0
202393.2,189422.5,184753.6,208340.9,206607.0,170162.3,161923.5,180355.5,0.0
200432.8,188674.3,183918.8,207594.5,205144.4,169958.5,161531.3,179452.8,0.0
200481.7,188758.3,184144.8,207912.5,205036.4,170111.0,161809.2,179862.2,0.0
202381.0,189500.2,185020.9,208745.9,206413.1,170350.9,162283.2,180893.9,0.0
203224.9,189795.2,185253.4,208884.6,207156.7,170359.4,162293.3,181049.2,0.0
202408.0,189436.3,184752.7,208342.9,206612.5,170173.3,161930.6,180361.4,0.0
200450.6,188685.8,183919.5,207598.4,205150.7,169972.2,161542.6,179458.4,0.0
200495.9,188769.5,184141.6,207911.8,205042.6,170119.6,161817.1,179870.6,0.0
202387.6,189506.0,185012.2,208740.9,206415.0,170347.8,162281.1,180896.1,0.0
203218.6,189785.4,185235.7,208869.7,207149.4,170346.5,162281.5,181038.5,0.0
202406.9,189428.9,184742.5,208335.8,206612.9,170166.6,161922.1,180360.1,0.0
200451.5,188681.0,183907.3,207588.9,205146.9,169959.5,161532.0,179453.3,0.0
200488.5,188758.7,184119.3,207891.5,205027.0,170099.7,161801.5,179851.4,0.0
202383.3,189496.6,184996.1,208724.5,206404.4,170338.5,162275.5,180887.0,0.0
203214.4,189777.0,185222.1,208857.3,207142.5,170336.9,162275.3,181035.8,0.0
202411.0,189431.0,184732.6,208327.3,206611.9,170158.4,161920.4,180359.9,0.0
200461.5,188693.2,183910.6,207590.5,205161.1,169973.7,161545.5,179466.7,0.0
200493.1,188776.7,184128.2,207899.0,205038.5,170124.8,161822.6,179866.6,0.0
202393.5,189522.0,185013.4,208743.7,206417.3,170368.0,162301.5,180904.7,0.0
203223.5,189797.7,185235.1,208868.5,207140.9,170359.7,162295.4,181045.7,0.0
202416.9,189440.7,184739.8,208331.5,206600.4,170176.6,161933.9,180366.9,0.0
200469.3,188698.3,183912.0,207590.9,205146.3,169973.3,161541.2,179464.5,0.0
200486.8,188768.7,184120.5,207891.2,205013.3,170114.6,161806.3,179854.0,0.0
202391.8,189516.5,185002.8,208730.2,206392.6,170354.4,162284.9,180895.5,0.0
203223.0,189790.7,185224.3,208855.4,207123.1,170345.3,162281.6,181040.9,0.0
202429.6,189447.9,184739.5,208327.8,206597.5,170174.8,161936.5,180375.1,0.0
200482.3,188709.3,183914.5,207588.3,205146.9,169987.5,161561.3,179479.7,0.0
200476.3,188763.0,184107.8,207872.9,204993.9,170112.1,161813.5,179857.3,0.0
202376.8,189504.5,184984.9,208707.9,206368.2,170340.3,162280.6,180893.6,0.0
203220.5,189784.7,185210.5,208840.2,207109.1,170333.1,162274.9,181040.6,0.0
202421.9,189432.2,184717.4,208306.7,206576.2,170148.9,161919.3,180364.5,0.0
200478.3,188697.2,183895.5,207571.9,205125.4,169959.2,161542.6,179470.7,0.0
200485.0,188768.4,184107.4,207876.2,204990.5,170111.8,161816.5,179863.7,0.0
202390.1,189515.7,184991.1,208719.1,206365.4,170350.2,162294.6,180903.9,0.0
203245.3,189807.1,185226.4,208860.6,207115.6,170352.3,162300.0,181060.8,0.0
202454.1,189458.2,184732.8,208326.2,206591.8,170170.9,161942.4,180384.8,0.0
200486.7,188700.0,183885.0,207566.8,205122.8,169964.5,161545.4,179464.5,0.0
200471.9,188756.4,184078.3,207855.7,204974.3,170098.1,161801.1,179836.8,0.0
202376.4,189503.7,184960.8,208696.2,206352.9,170336.0,162276.4,180875.1,0.0
203231.9,189795.3,185194.0,208836.5,207106.6,170335.9,162281.5,181035.5,0.0
202441.4,189448.9,184708.9,208306.1,206589.8,170161.7,161933.1,180369.3,0.0
200491.2,188710.2,183878.8,207559.0,205141.2,169963.5,161546.7,179464.3,0.0
200484.0,188778.3,184077.7,207849.9,204997.1,170110.5,161815.0,179844.6,0.0
202380.8,189519.3,184957.7,208690.3,206371.7,170351.1,162290.5,180883.5,0.0
203227.8,189799.5,185184.9,208828.2,207113.3,170350.0,162290.3,181040.2,0.0
202444.9,189454.2,184703.7,208304.3,206597.5,170172.7,161942.4,180376.2,0.0
200494.6,188710.1,183874.3,207560.5,205146.6,169971.7,161555.6,179469.7,0.0
200469.0,188762.6,184066.3,207843.7,204987.3,170110.5,161814.7,179841.6,0.0
202375.3,189512.7,184952.8,208690.1,206360.2,170353.3,162296.5,180888.3,0.0
203229.5,189795.4,185181.8,208825.8,207103.3,170342.3,162291.2,181042.3,0.0
202445.7,189445.4,184693.2,208295.7,206585.5,170158.1,161931.6,180368.4,0.0
200495.8,188702.6,183861.6,207548.4,205137.0,169959.0,161541.2,179460.1,0.0
200473.7,188763.5,184056.0,207832.7,204982.8,170102.2,161800.8,179833.7,0.0
202367.6,189505.3,184938.1,208676.3,206353.9,170347.8,162283.3,180878.6,0.0
203228.7,189795.3,185174.6,208817.8,207107.6,170343.7,162289.9,181040.1,0.0
202444.8,189446.0,184687.2,208285.7,206593.7,170159.0,161933.2,180369.3,0.0
200485.9,188698.4,183849.1,207531.6,205140.4,169955.9,161542.0,179454.6,0.0
200454.3,188754.5,184037.1,207816.3,204977.9,170099.2,161803.7,179823.5,0.0
202361.6,189509.4,184931.5,208670.1,206361.3,170350.4,162293.8,180880.8,0.0
203219.9,189794.1,185165.5,208809.7,207112.4,170343.4,162293.7,181041.0,0.0
202449.8,189453.3,184685.2,208285.5,206605.9,170164.5,161942.7,180374.9,0.0
200487.1,188703.5,183842.1,207526.8,205143.9,169959.6,161544.6,179455.1,0.0
200437.8,188751.4,184021.0,207802.8,204965.6,170099.2,161799.2,179817.4,0.0
202340.3,189502.1,184912.6,208656.4,206343.5,170349.2,162289.2,180875.8,0.0
203209.9,189794.4,185153.6,208800.3,207102.2,170344.6,162292.5,181040.9,0.0
202437.4,189449.0,184671.5,208275.0,206594.1,170157.0,161935.2,180372.6,0.0
200476.5,188697.3,183828.9,207517.3,205129.4,169952.3,161540.5,179456.7,0.0
200435.3,188754.0,184015.0,207799.2,204959.1,170096.2,161801.8,179824.5,0.0
202335.6,189500.4,184902.9,208648.7,206333.7,170346.5,162288.1,180875.6,0.0
203206.0,189787.2,185138.9,208790.7,207091.5,170335.4,162288.8,181038.6,0.0
202444.0,189446.2,184657.9,208267.9,206585.1,170152.0,161936.6,180377.8,0.0
200485.2,188695.5,183818.4,207509.2,205119.1,169948.1,161542.7,179460.8,0.0
200424.8,188737.3,183993.0,207779.1,204929.6,170084.8,161793.5,179813.9,0.0
202336.7,189493.7,184892.4,208638.6,206313.9,170338.8,162286.6,180872.2,0.0
203219.4,189793.2,185141.5,208795.5,207078.6,170348.6,162302.8,181048.5,0.0
202466.5,189459.2,184669.0,208280.5,206577.3,170164.4,161950.9,180392.2,0.0
200502.7,188704.3,183827.3,207521.6,205115.2,169955.4,161549.4,179466.7,0.0
200447.1,188759.0,184008.5,207793.3,204931.9,170102.0,161810.0,179822.3,0.0
202334.3,189493.7,184887.7,208630.3,206289.7,170345.3,162290.0,180861.2,0.0
203210.8,189786.9,185131.7,208775.7,207051.3,170338.1,162292.9,181029.7,0.0
202469.2,189463.5,184669.0,208268.4,206570.2,170164.0,161951.2,180386.4,0.0
200513.8,188718.3,183829.6,207513.1,205117.1,169964.1,161561.1,179474.0,0.0
200423.5,188747.1,183984.9,207765.8,204911.2,170090.5,161798.8,179810.7,0.0
202311.0,189485.2,184864.5,208607.1,206273.6,170328.4,162276.3,180855.9,0.0
203195.3,189782.7,185111.7,208762.6,207044.9,170328.4,162288.5,181035.1,0.0
202452.4,189454.4,184644.5,208255.6,206560.4,170159.2,161948.1,180388.3,0.0
200498.6,188709.4,183806.3,207504.8,205109.5,169960.0,161554.1,179473.3,0.0
200402.4,188730.8,183960.0,207754.4,204904.8,170086.0,161794.4,179805.4,0.0
202314.1,189489.7,184855.0,208610.3,206291.0,170339.2,162290.0,180868.1,0.0
203206.7,189795.0,185102.7,208764.3,207070.6,170343.8,162305.4,181049.9,0.0
202468.9,189469.0,184640.0,208258.2,206597.7,170174.5,161965.1,180406.1,0.0
200510.7,188717.5,183797.4,207500.9,205144.4,169969.6,161566.3,179485.0,0.0
200408.7,188741.3,183949.3,207748.8,204925.2,170098.0,161804.5,179813.9,0.0
202301.5,189486.2,184834.8,208595.8,206292.1,170341.6,162292.7,180865.3,0.0
203187.9,189780.9,185079.3,208743.7,207059.7,170331.8,162296.3,181035.1,0.0
202443.0,189447.7,184611.7,208232.5,206574.6,170157.7,161952.5,180388.5,0.0
200501.3,188715.3,183783.0,207484.2,205131.2,169966.7,161570.0,179483.1,0.0
200398.2,188739.1,183935.1,207731.0,204910.8,170085.7,161799.7,179805.6,0.0
202282.2,189472.6,184811.7,208571.1,206266.9,170320.7,162276.3,180844.2,0.0
203183.9,189777.4,185067.5,208731.5,207049.0,170324.9,162293.3,181031.8,0.0
202466.4,189459.8,184609.2,208223.8,206578.0,170148.6,161948.0,180387.5,0.0
200500.3,188702.1,183760.9,207457.2,205116.0,169938.6,161541.3,179460.4,0.0
200375.4,188715.2,183909.6,207703.7,204884.5,170066.8,161778.1,179783.7,0.0
202271.1,189460.3,184797.0,208555.5,206246.5,170311.3,162264.6,180835.9,0.0
203174.1,189764.3,185051.1,208714.4,207020.8,170313.8,162279.6,181020.9,0.0
202459.1,189449.5,184601.4,208217.5,206554.0,170149.2,161947.7,180386.5,0.0
200502.6,188700.4,183762.6,207461.0,205103.4,169951.4,161553.5,179464.1,0.0
200378.5,188718.6,183907.6,207701.9,204874.1,170084.8,161793.5,179784.3,0.0
202276.8,189470.2,184797.8,208553.9,206237.2,170332.7,162287.0,180842.5,0.0
203186.8,189781.0,185064.0,208726.0,207027.3,170339.8,162307.6,181036.5,0.0
202457.1,189453.3,184602.7,208219.7,206554.5,170162.1,161961.0,180390.0,0.0
200493.8,188703.7,183757.6,207458.7,205099.1,169956.0,161554.6,179462.0,0.0
200367.8,188727.2,183908.9,207708.2,204872.9,170096.6,161799.4,179788.9,0.0
202275.8,189487.5,184805.0,208566.6,206248.6,170350.1,162303.4,180854.0,0.0
203193.9,189802.0,185065.8,208735.0,207045.5,170353.0,162325.3,181051.5,0.0
202461.3,189468.4,184593.0,208215.8,206572.1,170169.3,161973.8,180402.7,0.0
200503.7,188721.2,183753.9,207458.2,205123.5,169966.1,161573.3,179484.1,0.0
200369.1,188735.2,183890.7,207692.5,204883.3,170082.6,161797.4,179791.5,0.0
202247.4,189464.4,184767.0,208529.8,206230.3,170317.8,162273.0,180830.8,0.0
203192.0,189797.8,185047.8,208713.4,207045.4,170336.5,162307.7,181041.0,0.0
202478.7,189476.1,184589.3,208209.5,206582.2,170165.1,161966.9,180400.3,0.0
200510.6,188713.0,183737.7,207438.4,205113.1,169949.2,161551.1,179461.5,0.0
200382.0,188736.9,183887.8,207681.6,204876.5,170089.5,161790.3,179780.1,0.0
202279.9,189488.0,184780.5,208535.0,206235.4,170343.5,162286.1,180838.7,0.0
203207.1,189806.1,185054.9,208713.6,207033.4,170354.2,162310.7,181043.2,0.0
202482.5,189472.3,184590.4,208202.8,206556.6,170163.4,161953.3,180391.9,0.0
200511.4,188709.8,183739.0,207433.9,205091.6,169952.3,161542.8,179454.9,0.0
200372.5,188728.1,183879.9,207670.8,204843.4,170083.5,161780.0,179767.0,0.0
202258.4,189465.5,184768.1,208519.3,206194.0,170324.4,162265.3,180822.4,0.0
203175.5,189773.1,185033.2,208688.7,206985.3,170329.6,162288.5,181020.2,0.0
202474.7,189463.5,184582.2,208188.7,206530.4,170160.4,161955.7,180388.4,0.0
200521.9,188722.3,183745.3,207431.2,205083.7,169959.9,161560.6,179467.9,0.0
200355.8,188720.5,183871.4,207655.1,204816.1,170081.8,161784.4,179766.9,0.0
202248.1,189463.5,184763.8,208510.7,206170.3,170330.0,162277.3,180829.2,0.0
203177.2,189780.5,185035.7,208686.1,206971.4,170338.0,162304.0,181035.8,0.0
202483.2,189471.8,184588.8,208190.4,206520.4,170171.6,161971.1,180406.3,0.0
200536.2,188730.7,183751.1,207435.6,205073.9,169973.8,161575.5,179485.7,0.0
200372.0,188737.1,183879.9,207662.8,204812.4,170096.6,161800.7,179787.0,0.0
202262.1,189482.3,184768.3,208517.3,206163.9,170336.9,162289.4,180849.4,0.0
203189.1,189795.4,185034.2,208691.6,206965.3,170342.8,162312.2,181048.7,0.0
202478.9,189473.6,184569.9,208179.4,206504.9,170162.4,161957.7,180395.8,0.0
200527.6,188732.8,183726.7,207417.1,205060.0,169956.3,161556.3,179464.0,0.0
200353.8,188733.8,183849.5,207643.1,204795.6,170077.3,161779.3,179758.5,0.0
202233.1,189470.3,184728.6,208492.3,206143.5,170320.8,162266.8,180812.8,0.0
203156.6,189782.1,184994.8,208664.2,206940.6,170329.3,162293.3,181018.7,0.0
202467.0,189477.3,184551.1,208173.7,206502.8,170165.8,161966.9,180397.9,0.0
200510.6,188730.3,183704.8,207410.6,205061.7,169964.3,161567.5,179472.8,0.0
200327.6,188728.8,183819.3,207624.6,204791.8,170080.2,161782.3,179758.0,0.0
202211.0,189468.9,184710.8,208478.2,206143.9,170325.4,162270.8,180817.0,0.0
203152.6,189792.3,184992.3,208663.2,206960.4,170336.7,162301.6,181033.1,0.0
202452.2,189473.3,184538.6,208161.9,206507.9,170159.5,161959.4,180394.9,0.0
200490.8,188719.5,183694.8,207396.0,205054.8,169951.9,161554.0,179462.3,0.0
200305.8,188718.5,183817.3,207614.4,204786.8,170076.5,161778.2,179755.3,0.0
202190.2,189456.9,184703.3,208462.3,206131.6,170315.9,162265.8,180810.3,0.0
203135.3,189781.1,184984.5,208649.1,206946.0,170329.6,162297.5,181028.9,0.0
202457.9,189478.3,184546.4,208161.7,206512.6,170167.2,161972.0,180413.5,0.0
200500.6,188724.3,183699.0,207390.1,205058.3,169957.1,161567.2,179478.3,0.0
200308.5,188720.6,183817.5,207607.7,204775.9,170082.4,161791.2,179764.7,0.0
202186.6,189456.3,184706.2,208461.9,206118.0,170324.8,162281.6,180824.5,0.0
203123.4,189768.9,184974.8,208637.3,206920.5,170324.2,162301.1,181027.9,0.0
202450.0,189469.0,184537.0,208150.9,206492.7,170152.8,161964.6,180405.3,0.0
200503.1,188727.2,183696.3,207390.4,205055.5,169952.8,161562.8,179477.9,0.0
200299.3,188715.8,183807.1,207601.8,204769.1,170074.6,161781.8,179755.6,0.0
202172.5,189447.1,184690.0,208451.9,206110.0,170317.3,162267.7,180808.5,0.0
203120.7,189772.6,184972.2,208640.0,206931.1,170327.7,162296.4,181023.9,0.0
202450.2,189477.0,184536.7,208154.9,206507.3,170165.4,161965.7,180406.7,0.0
200492.9,188727.8,183686.5,207383.6,205063.0,169955.5,161556.9,179470.1,0.0
200269.9,188703.8,183781.7,207578.1,204764.9,170062.5,161760.8,179733.8,0.0
202157.1,189449.6,184672.0,208435.9,206118.2,170310.6,162257.4,180797.8,0.0
203130.9,189795.6,184972.2,208640.4,206956.4,170332.9,162303.7,181032.4,0.0
202456.8,189492.2,184531.7,208149.6,206527.3,170158.5,161968.3,180408.5,0.0
200494.6,188737.1,183679.2,207373.3,205074.6,169944.0,161557.8,179465.1,0.0
200269.9,188713.8,183780.9,207569.0,204768.0,170056.3,161765.8,179727.5,0.0
202158.0,189458.0,184680.0,208427.6,206119.8,170305.5,162260.8,180793.3,0.0
203126.1,189794.1,184976.7,208626.4,206953.3,170329.2,162304.3,181026.3,0.0
202455.2,189489.4,184536.8,208134.6,206522.7,170157.9,161964.8,180403.5,0.0
200500.0,188742.0,183692.0,207365.5,205075.9,169951.1,161554.1,179463.8,0.0
200276.1,188729.7,183798.3,207571.1,204772.8,170076.0,161773.3,179732.6,0.0
202159.6,189475.8,184689.3,208429.0,206117.2,170326.9,162271.3,180800.1,0.0
203108.6,189790.5,184963.8,208610.0,206927.9,170324.7,162290.4,181014.5,0.0
202441.6,189483.9,184524.3,208121.0,206497.1,170154.4,161957.0,180394.6,0.0
200492.3,188734.8,183675.9,207352.1,205050.4,169941.9,161551.2,179459.3,0.0
200258.8,188715.3,183773.2,207552.0,204741.9,170062.0,161767.0,179726.9,0.0
202138.9,189454.7,184663.6,208411.8,206087.9,170308.8,162262.6,180795.4,0.0
203106.2,189786.5,184953.9,208610.0,206921.4,170323.8,162297.3,181025.3,0.0
202461.1,189503.8,184530.6,208137.6,206520.6,170170.9,161979.7,180422.8,0.0
200510.6,188754.9,183677.5,207365.9,205077.5,169962.0,161568.3,179480.8,0.0
200257.0,188719.8,183756.9,207553.0,204754.3,170073.7,161767.6,179729.4,0.0
202133.4,189459.8,184642.3,208413.1,206102.0,170321.0,162265.3,180796.2,0.0
203099.0,189789.0,184929.0,208609.7,206940.9,170333.9,162301.8,181028.5,0.0
202445.2,189495.5,184493.9,208128.5,206536.2,170165.0,161973.5,180418.8,0.0
200491.0,188745.1,183642.0,207355.3,205098.6,169953.6,161565.2,179477.6,0.0
200234.1,188712.8,183726.8,207541.6,204777.1,170069.6,161772.5,179725.6,0.0
202106.9,189452.6,184613.8,208398.6,206117.9,170315.5,162266.9,180788.5,0.0
203088.5,189794.1,184913.6,208601.2,206962.3,170335.2,162309.8,181026.2,0.0
202439.1,189496.2,184483.8,208118.1,206547.5,170162.8,161970.9,180410.4,0.0
200495.3,188748.7,183644.4,207348.6,205102.1,169953.1,161561.0,179473.4,0.0
200242.8,188720.3,183739.4,207536.3,204772.6,170072.0,161769.7,179726.5,0.0
202126.8,189462.3,184640.0,208395.7,206110.0,170324.7,162269.6,180791.3,0.0
203103.4,189789.4,184933.7,208588.1,206936.3,170326.4,162297.7,181016.3,0.0
202471.6,189503.1,184517.5,208118.4,206527.4,170168.6,161977.2,180414.9,0.0
200533.0,188758.3,183679.2,207353.3,205083.1,169958.1,161569.1,179477.7,0.0
200262.3,188720.7,183761.4,207536.3,204737.2,170071.6,161774.6,179719.9,0.0
202132.3,189457.4,184649.6,208395.7,206064.4,170320.1,162276.4,180789.1,0.0
203112.2,189789.8,184943.1,208598.4,206905.2,170331.7,162314.3,181027.9,0.0
202483.2,189508.7,184522.4,208130.4,206512.1,170174.4,161992.1,180428.5,0.0
200534.4,188759.9,183667.1,207358.0,205068.1,169962.1,161581.1,179489.3,0.0
200249.4,188715.5,183732.3,207530.3,204718.4,170068.5,161776.6,179722.1,0.0
202116.3,189451.9,184620.4,208391.0,206055.2,170319.0,162278.0,180790.7,0.0
203101.5,189790.5,184919.0,208598.5,206905.0,170337.6,162326.5,181034.7,0.0
202466.5,189499.7,184488.0,208118.1,206505.6,170169.7,161996.4,180424.6,0.0
200517.5,188750.9,183639.8,207346.5,205073.5,169962.9,161583.3,179486.2,0.0
200222.7,188701.9,183706.8,207519.5,204728.5,170071.3,161778.2,179718.6,0.0
202091.1,189436.9,184591.4,208372.9,206060.5,170316.0,162274.4,180782.4,0.0
203083.1,189777.8,184890.6,208573.8,206907.8,170326.7,162311.8,181021.6,0.0
202464.3,189501.6,184480.2,208111.7,206521.7,170172.8,161990.3,180424.7,0.0
200520.3,188754.3,183631.1,207338.7,205078.3,169962.9,161575.8,179478.2,0.0
200214.8,188694.7,183689.8,207500.3,204711.2,170062.8,161763.2,179696.6,0.0
202086.8,189432.0,184584.9,208360.4,206043.6,170315.6,162264.3,180768.7,0.0
203095.2,189784.3,184896.7,208573.2,206903.6,170339.9,162312.9,181023.2,0.0
202483.7,189512.0,184487.1,208107.8,206523.8,170183.7,161995.2,180429.8,0.0
200526.5,188755.4,183628.8,207325.0,205076.0,169967.9,161575.6,179478.8,0.0
200219.4,188699.2,183686.9,207487.0,204709.4,170071.5,161766.7,179699.5,0.0
202095.6,189441.0,184578.6,208349.0,206043.5,170321.5,162271.0,180771.1,0.0
203086.9,189776.0,184878.1,208557.2,206896.5,170334.8,162314.3,181019.7,0.0
202475.2,189501.0,184464.6,208095.1,206519.5,170175.9,161996.6,180430.8,0.0
200530.7,188758.6,183615.8,207328.9,205087.2,169971.3,161590.0,179490.0,0.0
200211.5,188698.1,183667.6,207489.5,204714.6,170069.2,161773.0,179701.1,0.0
202078.4,189435.3,184555.6,208350.6,206048.1,170314.7,162268.8,180767.5,0.0
203078.7,189781.6,184860.4,208563.3,206908.0,170330.0,162314.3,181020.0,0.0
202464.4,189503.3,184446.0,208101.2,206531.3,170172.3,161995.6,180428.9,0.0
200513.3,188751.3,183590.0,207322.8,205090.2,169959.7,161576.9,179477.0,0.0
200193.9,188693.9,183644.9,207479.1,204719.1,170061.0,161762.8,179691.5,0.0
202061.0,189433.0,184539.9,208342.7,206051.4,170313.2,162268.7,180766.9,0.0
203069.9,189781.2,184854.1,208559.1,206914.4,170332.8,162316.8,181021.8,0.0
202456.7,189496.7,184438.8,208086.1,206529.5,170161.5,161984.1,180418.6,0.0
200509.9,188746.1,183588.4,207308.9,205089.1,169948.0,161570.0,179472.7,0.0
200177.2,188678.4,183637.7,207459.9,204706.5,170047.2,161756.7,179681.9,0.0
202041.3,189411.9,184526.5,208319.1,206028.2,170293.0,162257.0,180750.1,0.0
203065.3,189769.6,184850.6,208545.2,206902.0,170319.0,162317.4,181017.7,0.0
202471.0,189502.0,184450.5,208089.9,206532.8,170168.7,162003.8,180434.3,0.0
200524.1,188752.7,183600.1,207312.5,205093.5,169956.6,161587.6,179486.9,0.0
200183.4,188684.6,183646.7,207460.5,204702.5,170055.5,161768.4,179693.3,0.0
202053.9,189422.5,184546.6,208330.4,206029.5,170319.4,162281.9,180775.2,0.0
203080.8,189780.5,184867.5,208555.2,206899.2,170334.9,162329.2,181038.1,0.0
202477.7,189501.5,184450.9,208087.5,206522.9,170161.0,161990.6,180434.6,0.0
200527.4,188747.3,183591.0,207305.9,205074.8,169948.0,161568.3,179475.0,0.0
200186.8,188680.4,183636.2,207458.0,204682.2,170053.8,161755.6,179680.8,0.0
202051.2,189416.5,184530.3,208328.1,206009.3,170306.5,162265.8,180758.4,0.0
203068.9,189767.9,184844.4,208546.8,206876.0,170326.7,162318.6,181017.7,0.0
202477.0,189496.5,184436.1,208084.1,206509.3,170166.1,162001.9,180431.0,0.0
200532.5,188748.2,183580.1,207301.2,205074.0,169948.2,161579.3,179478.4,0.0
200170.5,188671.6,183611.4,207439.2,204671.5,170043.5,161750.3,179668.8,0.0
202033.0,189407.4,184503.4,208305.8,205998.3,170297.4,162256.0,180744.5,0.0
203064.1,189767.5,184828.0,208534.9,206884.4,170325.8,162316.3,181016.3,0.0
202471.0,189494.5,184421.2,208074.0,206523.7,170158.8,161990.8,180422.0,0.0
200520.5,188739.1,183562.6,207290.7,205083.0,169939.3,161565.0,179462.4,0.0
200163.3,188670.3,183602.3,207436.2,204689.5,170042.6,161751.3,179662.7,0.0
202032.7,189417.9,184506.0,208309.6,206026.1,170309.7,162275.3,180752.2,0.0
203068.6,189781.8,184835.3,208539.9,206916.3,170340.3,162339.2,181026.0,0.0
202468.2,189497.1,184415.0,208064.3,206545.9,170161.2,161999.3,180420.3,0.0
200517.1,188740.2,183555.4,207279.0,205105.1,169940.7,161575.5,179464.9,0.0
