EEG 1, EEG 2, EEG 3, EEG 4, EEG 5, EEG 6, EEG 7, EEG 8, TRIG
375274.700,407890.500,750000.100,750000.100,750000.100,338382.200,750000.100,366259.100,0.000
338967.900,369212.100,750000.100,750000.100,750000.100,306812.500,750000.100,332213.500,0.000
324447.800,353957.900,750000.100,750000.100,750000.100,294514.900,750000.100,318805.900,0.000
313219.700,342096.900,750000.100,750000.100,750000.100,284962.000,750000.100,308370.800,0.000
303108.000,331506.300,750000.100,720163.100,750000.100,276347.400,750000.100,298876.100,0.000
293714.700,321859.900,750000.100,682196.800,750000.100,268407.600,750000.100,289928.000,0.000
285490.600,313442.600,750000.100,650317.400,750000.100,261457.900,750000.100,281970.300,0.000
278719.900,306360.200,750000.100,623414.900,750000.100,255658.900,750000.100,275348.600,0.000
272925.300,300154.300,750000.100,600282.300,750000.100,250612.900,750000.100,269702.100,0.000
267325.200,294228.400,750000.100,579831.600,750000.100,245749.900,750000.100,264278.600,0.000
261736.200,288482.300,750000.100,561531.600,750000.100,240980.100,750000.100,258844.000,0.000
256706.900,283324.400,750000.100,545349.300,750000.100,236689.300,750000.100,253874.900,0.000
252621.500,278993.000,750000.100,531181.100,750000.100,233124.500,750000.100,249788.800,0.000
249122.200,275150.300,750000.100,518560.800,750000.100,230007.500,750000.100,246333.800,0.000
245549.100,271308.600,750000.100,506918.400,750000.100,226853.900,750000.100,242863.300,0.000
241771.000,267416.600,750000.100,496071.000,750000.100,223598.100,750000.100,239179.500,0.000
238353.900,263908.600,750000.100,486267.500,750000.100,220664.500,750000.100,235780.700,0.000
235669.700,261023.600,750000.100,477587.900,750000.100,218295.100,750000.100,233073.600,0.000
233404.300,258464.700,750000.100,469723.700,750000.100,216228.600,750000.100,230834.200,0.000
230951.600,255786.500,750000.100,462250.600,750000.100,214029.900,750000.100,228469.300,0.000
228217.800,252969.600,750000.100,455092.800,750000.100,211663.300,750000.100,225813.300,0.000
225719.200,250410.700,750000.100,448536.700,750000.100,209513.600,750000.100,223329.000,0.000
223856.600,248386.700,750000.100,442741.900,750000.100,207853.400,750000.100,221442.000,0.000
222352.000,246631.700,750000.100,437465.800,750000.100,206445.500,750000.100,219949.000,0.000
220613.600,244698.900,750000.100,432327.800,750000.100,204862.600,750000.100,218278.600,0.000
218546.300,242576.600,750000.100,427290.000,750000.100,203072.300,750000.100,216278.000,0.000
216660.300,240663.800,750000.100,422649.300,750000.100,201451.600,750000.100,214392.900,0.000
215330.800,239203.300,750000.100,418572.400,750000.100,200248.700,750000.100,213027.400,0.000
214315.500,237969.900,750000.100,414861.300,750000.100,199266.100,750000.100,212014.100,0.000
213058.500,236552.400,750000.100,411176.700,750000.100,198107.000,750000.100,210816.900,0.000
211449.200,234914.300,750000.100,407470.400,750000.100,196722.300,750000.100,209269.000,0.000
209981.500,233444.300,750000.100,404053.800,750000.100,195474.600,750000.100,207807.400,0.000
209023.800,232388.500,750000.100,401100.200,750000.100,194610.500,750000.100,206822.000,0.000
208353.900,231533.100,750000.100,398422.800,750000.100,193940.600,750000.100,206156.000,0.000
207429.200,230471.300,750000.100,395694.800,750000.100,193076.100,750000.100,205285.900,0.000
206136.100,229169.000,750000.100,392884.900,750000.100,191970.600,750000.100,204052.400,0.000
204970.100,228019.000,750000.100,390296.200,750000.100,190985.000,750000.100,202880.300,0.000
204287.000,227251.900,750000.100,388103.500,750000.100,190362.300,750000.100,202158.400,0.000
203861.200,226657.200,750000.100,386130.500,750000.100,189911.300,750000.100,201733.100,0.000
203176.100,225851.500,750000.100,384071.200,750000.100,189258.000,750000.100,201102.800,0.000
202114.200,224793.500,750000.100,381881.400,750000.100,188347.600,750000.100,200093.900,0.000
201165.200,223874.000,750000.100,379869.600,750000.100,187540.700,750000.100,199127.100,0.000
200678.900,223320.100,750000.100,378213.600,750000.100,187085.500,750000.100,198593.400,0.000
200430.200,222920.100,750000.100,376739.600,750000.100,186789.300,750000.100,198338.600,0.000
199921.100,222305.400,750000.100,375156.000,749980.100,186295.800,750000.100,197878.300,0.000
199044.600,221445.000,748030.300,373431.900,747984.900,185560.100,748354.300,197052.700,0.000
198272.600,220716.800,746146.100,371860.300,746100.900,184924.400,746463.800,196267.000,0.000
197942.000,220335.200,744370.400,370610.600,744325.900,184618.600,744687.800,195894.800,0.000
197838.000,220090.500,742683.800,369516.900,742639.300,184461.200,743005.900,195786.900,0.000
197456.500,219615.300,741069.300,368279.000,741025.100,184083.300,741393.400,195451.400,0.000
196704.900,218892.800,739527.900,366882.300,739484.800,183455.100,739848.300,194746.600,0.000
196037.200,218280.900,738072.800,365608.500,738029.700,182913.500,738385.100,194068.000,0.000
195806.600,218011.700,736707.100,364643.400,736663.800,182698.800,737018.600,193798.800,0.000
195805.800,217885.800,735412.200,363829.700,735368.900,182636.800,735729.900,193796.000,0.000
195527.100,217526.100,734167.800,362858.300,734125.400,182354.900,734488.200,193561.900,0.000
194873.500,216911.700,732980.200,361715.000,732937.800,181816.500,733294.900,192954.800,0.000
194302.800,216401.900,731862.300,360686.900,731819.300,181361.000,732167.100,192374.500,0.000
194165.400,216230.300,730816.400,359950.900,730773.900,181228.900,731121.100,192194.100,0.000
194245.000,216188.800,729824.600,359345.900,729782.600,181235.700,730137.900,192265.600,0.000
194063.800,215928.900,728874.100,358592.800,728832.100,181034.200,729190.100,192121.200,0.000
193493.300,215397.900,727959.900,357648.100,727917.600,180567.200,728268.700,191595.600,0.000
192986.800,214959.000,727102.600,356798.300,727060.400,180176.000,727398.100,191081.100,0.000
192910.700,214860.300,726303.700,356230.600,726261.500,180097.000,726598.000,190958.300,0.000
193056.600,214893.500,725549.200,355794.100,725507.100,180163.000,725855.600,191098.000,0.000
192924.400,214689.800,724822.300,355192.400,724780.200,180012.700,725132.800,191011.400,0.000
192409.900,214223.300,724122.100,354394.300,724080.100,179601.000,724423.200,190539.900,0.000
191965.200,213852.100,723464.300,353685.000,723422.200,179258.400,723741.900,190078.900,0.000
191935.200,213801.500,722859.100,353249.600,722816.800,179222.500,723134.300,190006.600,0.000
192120.800,213880.400,722286.300,352936.900,722244.400,179328.800,722583.600,190188.500,0.000
192048.100,213738.900,721735.100,352462.300,721693.700,179231.000,722039.700,190154.600,0.000
191590.600,213332.000,721204.400,351788.000,721162.800,178868.100,721492.900,189738.100,0.000
191199.200,213016.100,720707.800,351198.100,720666.100,178573.800,720934.400,189327.200,0.000
191209.300,213009.100,720251.100,350868.700,720209.800,178576.000,720462.400,189289.400,0.000
191438.900,213135.500,719821.300,350659.600,719779.900,178720.400,720101.400,189509.600,0.000
191403.600,213039.200,719403.800,350281.700,719361.900,178657.600,719699.800,189518.000,0.000
190973.600,212662.900,719000.100,349692.500,718958.200,178321.600,719256.200,189137.200,0.000
190605.000,212371.400,718623.400,349184.400,718582.100,178046.100,718704.800,188752.700,0.000
190649.800,212404.700,718280.800,348941.900,718239.600,178080.700,718334.300,188749.400,0.000
190913.500,212568.800,717959.500,348809.100,717917.900,178253.900,718190.900,188998.400,0.000
190903.200,212495.200,717643.400,348499.600,717601.600,178209.700,717924.100,189025.700,0.000
190507.300,212154.400,717336.200,347987.500,717294.300,177902.500,717519.300,188671.900,0.000
190164.400,211893.900,717053.600,347545.300,717012.500,177655.300,716954.300,188316.200,0.000
190227.200,211945.900,716798.700,347361.000,716757.400,177703.200,716664.800,188335.700,0.000
190505.500,212125.900,716558.800,347286.700,716517.300,177890.200,716681.400,188602.200,0.000
190525.800,212087.600,716322.900,347042.700,716281.100,177876.300,716564.400,188662.200,0.000
190162.900,211781.500,716093.700,346593.300,716052.100,177598.900,716152.500,188342.000,0.000
189837.200,211536.500,715879.800,346200.300,715839.100,177365.800,715589.100,188001.100,0.000
189913.500,211604.400,715692.700,346062.100,715651.700,177431.500,715362.300,188035.000,0.000
190207.400,211805.200,715516.400,346035.300,715474.400,177637.100,715480.100,188321.000,0.000
190227.400,211768.800,715334.600,345827.600,715293.100,177624.700,715447.600,188381.300,0.000
189870.800,211474.400,715157.700,345416.200,715116.600,177354.800,715024.100,188067.600,0.000
189567.800,211255.400,714997.300,345072.300,714956.100,177139.300,714492.300,187743.800,0.000
189663.300,211342.400,714861.100,344976.800,714819.800,177223.500,714313.800,187792.300,0.000
189979.100,211560.900,714734.400,344987.900,714693.200,177444.500,714480.800,188091.900,0.000
190027.300,211553.900,714604.400,344823.800,714563.100,177458.400,714518.000,188182.300,0.000
189682.600,211271.100,714471.900,344443.300,714430.400,177199.100,714143.100,187885.500,0.000
189371.900,211045.900,714348.400,344116.400,714307.100,176981.100,713638.600,187567.200,0.000
189457.300,211129.000,714241.400,344039.100,714200.400,177058.300,713477.800,187611.900,0.000
189779.000,211357.300,714144.400,344080.800,714102.900,177285.700,713669.900,187914.700,0.000
189834.700,211353.200,714041.900,343940.500,714000.600,177297.800,713733.900,188003.900,0.000
189512.000,211088.100,713941.100,343597.100,713899.800,177048.100,713392.400,187724.300,0.000
189216.400,210880.100,713850.100,343300.800,713809.000,176840.000,712911.300,187418.600,0.000
189318.700,210977.800,713774.400,343252.400,713733.800,176925.300,712790.300,187478.800,0.000
189649.600,211212.900,713705.300,343322.400,713664.900,177162.900,713029.000,187797.800,0.000
189726.200,211231.400,713635.000,343222.100,713593.900,177202.000,713139.900,187911.900,0.000
189400.600,210963.900,713554.700,342893.300,713513.600,176959.700,712812.200,187627.700,0.000
189109.500,210756.900,713482.300,342617.100,713441.300,176755.900,712346.200,187319.600,0.000
189219.200,210863.000,713428.000,342590.800,713386.900,176846.500,712244.200,187381.200,0.000
189551.400,211105.500,713377.300,342672.500,713336.100,177082.400,712502.400,187699.600,0.000
189620.100,211119.900,713319.900,342576.200,713278.700,177114.500,712617.100,187805.000,0.000
189299.400,210856.600,713257.100,342260.600,713216.100,176872.900,712293.600,187526.300,0.000
189012.000,210658.300,713201.600,341999.800,713160.300,176674.700,711834.200,187223.900,0.000
189127.800,210773.000,713165.000,341991.400,713123.700,176776.700,711756.200,187297.000,0.000
189471.500,211022.700,713131.800,342092.500,713090.300,177025.600,712048.400,187631.500,0.000
189544.400,211037.100,713083.600,342009.300,713042.100,177058.500,712175.000,187739.500,0.000
189229.900,210779.700,713032.200,341712.200,712990.600,176822.200,711859.400,187466.700,0.000
188947.200,210582.700,712989.800,341465.000,712948.400,176622.700,711407.700,187166.400,0.000
189061.300,210694.300,712958.800,341463.600,712917.300,176717.400,711324.000,187229.000,0.000
189404.600,210946.000,712933.000,341575.300,712891.100,176966.700,711617.700,187557.400,0.000
189489.500,210975.000,712900.600,341508.600,712858.900,177008.500,711772.100,187680.100,0.000
189177.700,210718.600,712859.400,341218.500,712818.000,176771.400,711465.700,187411.900,0.000
188894.600,210520.000,712824.100,340979.300,712782.700,176574.700,711013.800,187115.000,0.000
189004.800,210628.900,712801.600,340985.000,712760.000,176670.400,710932.100,187172.500,0.000
189359.700,210891.700,712786.400,341112.800,712744.700,176928.900,711252.500,187510.400,0.000
189441.900,210919.200,712759.700,341053.500,712718.100,176970.500,711410.400,187632.200,0.000
189134.300,210671.100,712726.000,340775.500,712684.800,176738.700,711103.300,187365.700,0.000
188850.100,210474.100,712697.400,340542.300,712656.400,176540.700,710647.900,187067.200,0.000
188963.700,210586.400,712681.900,340557.800,712640.400,176638.600,710578.100,187131.800,0.000
189317.500,210853.300,712674.300,340694.200,712632.800,176898.800,710913.600,187469.800,0.000
189404.800,210883.600,712653.900,340646.500,712612.300,176941.600,711083.700,187591.300,0.000
189100.200,210636.900,712622.100,340381.700,712581.100,176709.200,710776.100,187327.600,0.000
188821.800,210444.700,712595.800,340160.000,712554.900,176513.300,710317.300,187032.000,0.000
188939.000,210562.700,712586.300,340184.500,712545.100,176615.700,710254.900,187100.900,0.000
189282.500,210819.800,712582.100,340322.200,712540.800,176870.300,710592.300,187437.000,0.000
189377.000,210858.700,712565.300,340285.300,712524.100,176921.800,710775.300,187567.900,0.000
189075.800,210614.800,712539.900,340026.700,712498.400,176693.300,710470.800,187308.600,0.000
188797.600,210425.200,712521.100,339811.700,712479.700,176503.100,710020.300,187017.600,0.000
188913.500,210544.100,712514.400,339841.200,712473.100,176602.600,709963.800,187087.400,0.000
189263.600,210808.600,712513.600,339984.300,712472.100,176858.100,710312.200,187424.800,0.000
189351.600,210842.000,712500.800,339946.700,712459.300,176904.800,710493.500,187549.700,0.000
189053.100,210601.400,712477.400,339691.500,712435.900,176677.000,710187.900,187289.800,0.000
188776.500,210410.800,712458.800,339482.800,712417.100,176484.000,709733.800,186999.000,0.000
188883.900,210517.800,712452.400,339512.700,712410.800,176580.800,709666.300,187061.200,0.000
189230.400,210772.800,712452.700,339664.400,712411.000,176833.000,710013.100,187394.100,0.000
189328.900,210812.100,712445.300,339641.300,712403.400,176886.000,710212.700,187531.700,0.000
189034.600,210577.100,712424.700,339392.800,712383.600,176661.500,709908.300,187274.200,0.000
188756.600,210389.200,712409.100,339183.800,712367.600,176469.800,709448.900,186980.800,0.000
188865.400,210501.000,712407.600,339218.800,712366.100,176568.600,709388.600,187045.900,0.000
189209.700,210756.000,712406.600,339369.200,712365.100,176820.300,709733.400,187372.900,0.000
189308.200,210796.000,712394.100,339347.200,712353.100,176873.300,709921.500,187502.000,0.000
189013.300,210557.600,712375.600,339101.700,712334.400,176648.300,709612.400,187244.000,0.000
188732.000,210365.100,712362.800,338892.400,712321.200,176447.600,709143.600,186946.300,0.000
188837.100,210472.400,712360.500,338927.700,712318.800,176539.800,709075.700,187008.500,0.000
189189.600,210736.800,712361.800,339089.100,712319.900,176797.900,709434.600,187346.200,0.000
189293.500,210782.700,712354.500,339075.800,712312.900,176855.900,709640.300,187487.000,0.000
188999.500,210544.800,712338.100,338838.100,712296.900,176631.900,709338.800,187233.800,0.000
188719.600,210353.100,712328.300,338640.400,712286.500,176437.800,708872.800,186942.000,0.000
188829.400,210466.100,712328.100,338682.300,712286.800,176533.500,708811.500,187007.800,0.000
189178.100,210725.000,712332.300,338840.000,712290.800,176786.800,709170.000,187339.400,0.000
189281.200,210769.600,712327.000,338828.400,712285.500,176843.300,709379.900,187478.000,0.000
188992.000,210535.000,712312.700,338597.900,712271.300,176628.000,709084.200,187232.200,0.000
188723.200,210353.300,712302.600,338407.200,712261.000,176446.100,708625.300,186946.800,0.000
188836.800,210470.200,712307.300,338451.400,712265.600,176549.900,708568.800,187015.700,0.000
189178.600,210724.400,712310.700,338608.800,712269.200,176799.500,708925.200,187345.500,0.000
189272.200,210760.800,712301.900,338598.000,712260.400,176849.500,709125.600,187480.000,0.000
188978.900,210521.500,712286.500,338366.600,712244.800,176624.800,708815.900,187224.800,0.000
188705.900,210336.500,712279.100,338174.400,712237.800,176435.800,708356.900,186937.900,0.000
188803.500,210436.500,712280.500,338214.100,712239.100,176528.500,708285.500,186994.300,0.000
189156.900,210698.700,712286.000,338381.400,712244.800,176785.300,708648.900,187329.000,0.000
189265.200,210748.300,712282.400,338375.800,712240.900,176844.400,708867.600,187470.400,0.000
188964.100,210502.400,712265.600,338136.600,712224.100,176615.000,708560.900,187210.900,0.000
188677.800,210305.300,712256.600,337940.900,712215.100,176418.600,708089.700,186912.500,0.000
188783.600,210414.800,712261.100,337989.200,712219.500,176516.600,708024.400,186970.900,0.000
189136.900,210678.300,712266.800,338161.000,712225.300,176772.400,708384.700,187304.900,0.000
189254.300,210739.000,712265.400,338169.900,712224.100,176844.200,708609.800,187459.400,0.000
188965.200,210506.100,712250.700,337942.600,712208.900,176624.300,708314.200,187212.000,0.000
188679.500,210308.800,712240.500,337747.700,712198.900,176425.600,707843.900,186914.100,0.000
188786.800,210420.300,712245.300,337802.700,712203.700,176521.800,707787.100,186978.000,0.000
189133.100,210679.800,712252.400,337971.600,712210.400,176773.200,708144.900,187306.600,0.000
189233.300,210723.900,712247.500,337967.700,712205.300,176827.800,708353.300,187445.100,0.000
188935.000,210479.500,712229.700,337736.500,712187.600,176601.000,708040.200,187187.900,0.000
188660.300,210293.200,712222.600,337553.500,712181.000,176413.500,707579.800,186899.400,0.000
188769.500,210407.100,712228.400,337606.500,712186.400,176511.200,707519.800,186961.200,0.000
189114.200,210662.400,712231.100,337776.800,712189.400,176756.400,707870.600,187286.300,0.000
189220.600,210709.300,712225.300,337779.000,712183.300,176813.500,708079.300,187426.000,0.000
188938.900,210480.000,712215.500,337561.000,712173.400,176602.800,707790.000,187185.200,0.000
188656.900,210285.000,712208.400,337372.900,712165.900,176409.100,707327.900,186891.300,0.000
188757.900,210391.200,712213.300,337427.000,712170.900,176503.500,707264.300,186949.900,0.000
189116.700,210662.700,712222.400,337604.900,712180.100,176762.400,707630.900,187288.900,0.000
189234.000,210721.000,712219.400,337617.200,712177.500,176832.400,707853.300,187438.400,0.000
188944.700,210480.500,712204.700,337392.500,712162.600,176611.100,707553.900,187186.600,0.000
188653.300,210272.300,712193.900,337197.400,712151.800,176400.900,707076.800,186881.400,0.000
188752.700,210377.100,712198.100,337250.900,712155.900,176488.700,707004.500,186935.200,0.000
189102.700,210642.200,712205.600,337430.500,712163.400,176747.500,707364.400,187271.300,0.000
189217.300,210697.700,712201.600,337442.000,712159.300,176813.600,707584.300,187420.100,0.000
188926.300,210458.300,712185.600,337223.000,712143.700,176591.600,707285.500,187170.800,0.000
188639.200,210262.700,712178.400,337037.300,712136.400,176394.100,706818.300,186873.300,0.000
188745.800,210375.200,712187.500,337098.200,712145.300,176494.800,706759.000,186933.800,0.000
189109.000,210649.100,712201.100,337286.300,712158.800,176764.700,707133.900,187280.000,0.000
189219.300,210698.100,712197.100,337293.600,712154.900,176826.000,707355.800,187425.500,0.000
188921.200,210452.200,712181.100,337064.700,712139.100,176593.500,707051.000,187165.900,0.000
188631.800,210253.700,712172.800,336875.100,712130.400,176391.000,706581.500,186861.100,0.000
188733.600,210358.700,712177.900,336934.100,712135.800,176481.300,706512.100,186915.000,0.000
189084.900,210623.000,712183.600,337114.300,712141.300,176735.800,706860.200,187245.500,0.000
189205.200,210683.700,712181.900,337129.100,712139.900,176807.500,707088.000,187401.700,0.000
188923.600,210453.600,712170.800,336918.700,712129.100,176592.700,706812.500,187166.400,0.000
188640.200,210261.000,712167.400,336741.900,712125.400,176399.300,706361.000,186875.000,0.000
188735.900,210364.400,712174.800,336798.700,712132.400,176489.900,706292.000,186926.300,0.000
189088.800,210629.400,712184.600,336982.300,712142.200,176744.900,706647.400,187261.300,0.000
189199.800,210682.300,712181.900,336996.300,712139.700,176806.800,706864.400,187409.600,0.000
188915.000,210452.700,712170.800,336784.600,712127.900,176592.300,706581.100,187168.300,0.000
188626.000,210253.900,712163.400,336596.800,712120.300,176390.100,706121.500,186867.400,0.000
188728.000,210360.100,712169.200,336653.900,712126.900,176478.300,706054.000,186920.300,0.000
189081.100,210626.900,712179.600,336838.800,712137.200,176738.000,706411.900,187256.000,0.000
189196.700,210682.100,712175.000,336855.600,712133.300,176807.000,706626.400,187405.300,0.000
188911.400,210447.800,712161.500,336644.000,712119.800,176591.600,706342.300,187165.900,0.000
188620.500,210248.000,712154.300,336460.200,712112.700,176392.700,705885.600,186868.100,0.000
188717.000,210350.100,712160.900,336517.300,712119.400,176482.900,705816.100,186919.800,0.000
189064.400,210610.500,712167.900,336698.600,712126.500,176736.800,706161.400,187250.600,0.000
189180.300,210666.800,712165.300,336716.600,712123.500,176802.000,706374.200,187400.500,0.000
188902.900,210442.900,712152.200,336511.100,712110.600,176592.500,706095.100,187163.100,0.000
188612.200,210243.600,712140.800,336327.600,712099.400,176388.300,705631.900,186859.800,0.000
188702.400,210340.800,712146.600,336380.800,712104.800,176470.500,705549.800,186904.300,0.000
189055.700,210606.500,712157.100,336570.700,712115.300,176730.300,705904.700,187244.800,0.000
189182.600,210670.500,712157.800,336597.300,712116.100,176804.400,706140.600,187405.700,0.000
188899.000,210434.800,712146.900,336387.300,712104.800,176587.300,705862.900,187162.500,0.000
188603.700,210229.200,712139.800,336202.300,712097.800,176383.400,705400.400,186855.000,0.000
188696.700,210331.900,712145.300,336259.500,712103.800,176468.500,705324.700,186902.400,0.000
189055.000,210602.500,712155.400,336446.900,712113.900,176726.600,705676.900,187241.100,0.000
189174.800,210657.100,712154.800,336467.600,712113.000,176796.900,705901.100,187397.300,0.000
188896.500,210429.500,712142.600,336264.400,712100.300,176584.300,705628.300,187161.100,0.000
188613.200,210236.400,712139.100,336092.000,712097.400,176390.900,705189.000,186867.400,0.000
188703.400,210336.500,712145.000,336149.900,712103.400,176476.100,705114.300,186909.700,0.000
189059.700,210608.500,712155.100,336340.500,712113.500,176735.400,705462.900,187246.200,0.000
189188.200,210674.600,712154.900,336367.500,712113.100,176810.500,705691.900,187407.000,0.000
188904.000,210437.800,712141.100,336157.200,712099.500,176592.500,705415.600,187163.600,0.000
188604.800,210227.700,712129.600,335968.600,712087.900,176383.300,704952.800,186852.900,0.000
188691.300,210323.100,712133.900,336024.100,712092.600,176463.800,704868.100,186893.300,0.000
189041.900,210585.700,712142.100,336215.800,712100.300,176718.600,705204.400,187221.900,0.000
189171.000,210651.400,712141.300,336247.700,712099.500,176795.400,705429.100,187383.700,0.000
188900.200,210426.300,712129.900,336047.000,712087.800,176588.500,705166.600,187155.300,0.000
188606.500,210221.800,712122.900,335863.700,712080.700,176385.300,704716.800,186852.400,0.000
188693.700,210321.900,712128.900,335919.400,712086.600,176468.700,704640.900,186897.100,0.000
189047.800,210592.300,712139.900,336109.500,712097.600,176726.600,704985.300,187232.200,0.000
189179.500,210658.200,712140.300,336145.600,712098.300,176805.300,705214.400,187398.200,0.000
188896.800,210424.200,712128.900,335940.100,712086.800,176591.000,704944.600,187161.000,0.000
188599.900,210216.700,712119.200,335754.400,712076.600,176381.700,704492.300,186853.000,0.000
188689.100,210313.800,712124.400,335813.300,712081.300,176460.500,704414.400,186892.900,0.000
189041.700,210576.300,712137.100,336008.300,712094.200,176714.800,704754.200,187225.200,0.000
189177.400,210647.800,712136.700,336046.400,712094.300,176794.100,704982.200,187392.900,0.000
188899.300,210423.400,712123.600,335842.100,712081.300,176584.400,704718.400,187158.200,0.000
188608.000,210224.900,712116.900,335662.100,712074.700,176384.200,704277.500,186856.900,0.000
188693.000,210321.700,712127.800,335719.300,712085.300,176466.000,704207.000,186901.800,0.000
189042.800,210587.600,712138.100,335911.600,712095.400,176723.300,704549.000,187234.700,0.000
189177.800,210659.800,712138.900,335952.400,712096.900,176809.700,704785.500,187403.900,0.000
188897.700,210429.400,712126.400,335753.300,712084.500,176599.900,704525.100,187172.100,0.000
188601.600,210225.900,712118.000,335569.500,712075.800,176390.400,704076.600,186864.700,0.000
188680.600,210317.000,712122.700,335627.600,712080.800,176468.600,703993.100,186901.500,0.000
189026.100,210579.500,712132.300,335816.000,712090.100,176723.900,704322.600,187229.800,0.000
189157.100,210647.600,712130.100,335845.400,712087.800,176801.900,704543.200,187389.400,0.000
188881.700,210423.500,712120.300,335647.400,712077.800,176596.500,704291.800,187161.400,0.000
188582.800,210214.800,712113.000,335464.900,712070.600,176385.900,703849.400,186854.400,0.000
188663.700,210304.700,712119.000,335522.200,712076.900,176461.000,703764.200,186889.300,0.000
189020.200,210573.500,712127.900,335715.600,712085.800,176720.800,704095.900,187218.000,0.000
189155.600,210643.700,712125.200,335752.600,712083.200,176800.900,704318.500,187381.000,0.000
188887.600,210423.600,712114.600,335560.100,712072.400,176594.600,704068.600,187154.600,0.000
188594.600,210223.000,712108.900,335382.000,712066.400,176389.800,703631.900,186851.600,0.000
188673.400,210313.900,712115.600,335439.300,712073.100,176466.700,703545.000,186886.500,0.000
189020.300,210575.400,712126.000,335633.400,712083.300,176725.800,703871.900,187215.800,0.000
189154.700,210647.700,712122.900,335668.500,712080.700,176808.500,704096.400,187382.500,0.000
188879.300,210420.200,712109.700,335468.700,712067.300,176597.800,703845.800,187154.100,0.000
188577.500,210209.700,712104.100,335286.000,712061.700,176387.300,703406.800,186848.500,0.000
188659.800,210305.400,712114.200,335346.400,712071.600,176466.900,703328.700,186888.200,0.000
189014.100,210571.800,712125.200,335538.900,712082.700,176723.500,703659.900,187219.200,0.000
189150.000,210640.300,712125.400,335574.400,712083.100,176800.600,703889.600,187389.200,0.000
188872.200,210412.600,712110.900,335373.600,712068.500,176582.500,703636.200,187159.500,0.000
188559.100,210193.800,712097.800,335182.200,712055.200,176361.900,703177.500,186841.100,0.000
188644.500,210292.800,712105.400,335242.100,712063.100,176443.100,703092.900,186875.800,0.000
188999.600,210558.800,712116.700,335440.500,712074.400,176703.400,703425.400,187207.000,0.000
189136.800,210628.600,712113.800,335476.500,712071.400,176784.700,703649.100,187374.100,0.000
188862.900,210400.800,712100.500,335278.600,712058.200,176573.500,703393.700,187143.500,0.000
188566.600,210192.200,712095.300,335098.600,712052.900,176367.000,702956.900,186837.700,0.000
188646.100,210281.700,712103.800,335160.000,712061.100,176446.300,702871.000,186872.100,0.000
189001.600,210554.400,712114.900,335360.700,712072.000,176710.000,703199.400,187204.100,0.000
189143.700,210630.900,712113.600,335405.300,712071.400,176796.300,703430.800,187377.900,0.000
188874.900,210406.200,712102.500,335210.400,712060.300,176587.600,703184.500,187150.800,0.000
188574.300,210196.100,712095.300,335027.700,712052.600,176375.900,702745.700,186841.000,0.000
188647.500,210283.200,712101.300,335084.800,712058.800,176449.200,702656.900,186871.100,0.000
188994.100,210545.200,712111.900,335278.700,712069.600,176702.700,702976.600,187199.700,0.000
189136.800,210621.300,712110.200,335321.600,712067.300,176787.000,703202.400,187373.600,0.000
188872.600,210403.200,712100.300,335132.100,712057.800,176585.100,702964.300,187155.600,0.000
188569.300,210194.800,712092.800,334948.000,712050.500,176376.200,702526.800,186848.200,0.000
188643.500,210284.200,712097.900,335001.300,712055.400,176450.800,702436.600,186877.000,0.000
188993.700,210551.100,712109.900,335197.900,712067.300,176713.100,702764.800,187210.000,0.000
189130.700,210626.400,712108.200,335240.800,712065.300,176797.400,702988.900,187378.300,0.000
188865.200,210407.400,712098.600,335050.700,712056.300,176595.700,702752.200,187156.900,0.000
188565.000,210197.200,712092.900,334868.100,712050.400,176383.400,702316.500,186846.600,0.000
188636.800,210279.900,712098.100,334917.300,712055.400,176446.700,702221.900,186870.900,0.000
188988.300,210545.800,712107.500,335114.700,712064.600,176702.400,702541.800,187198.500,0.000
189129.600,210622.300,712104.400,335159.400,712061.600,176788.100,702765.200,187365.200,0.000
188868.800,210403.300,712093.600,334972.700,712051.100,176587.400,702529.400,187147.400,0.000
188558.300,210183.600,712082.900,334784.900,712040.400,176364.300,702081.600,186829.100,0.000
188630.800,210273.700,712089.600,334843.300,712047.400,176435.400,701986.900,186856.400,0.000
188986.300,210547.200,712100.800,335045.800,712058.600,176699.300,702312.900,187190.600,0.000
189143.700,210636.000,712101.500,335102.800,712058.800,176797.800,702552.000,187374.500,0.000
188882.500,210418.300,712090.500,334915.900,712047.800,176597.900,702318.300,187157.700,0.000
188573.500,210202.200,712081.900,334732.400,712039.300,176383.100,701876.300,186846.700,0.000
188637.600,210281.600,712086.100,334783.800,712043.600,176449.500,701774.700,186868.100,0.000
188992.800,210552.500,712097.600,334985.200,712055.600,176713.700,702101.700,187199.400,0.000
189147.700,210642.300,712100.300,335041.000,712057.900,176813.500,702349.900,187384.300,0.000
188884.000,210424.000,712091.100,334851.600,712048.500,176612.000,702124.300,187168.600,0.000
188578.400,210206.500,712085.300,334667.200,712043.000,176395.100,701687.800,186854.500,0.000
188641.200,210283.300,712090.800,334715.400,712048.800,176454.900,701584.100,186870.800,0.000
188989.300,210548.800,712100.600,334913.600,712058.800,176709.200,701904.400,187200.400,0.000
189132.500,210623.900,712097.900,334957.800,712055.400,176793.400,702132.400,187373.200,0.000
188868.200,210402.200,712085.800,334769.300,712043.600,176587.200,701894.800,187153.100,0.000
188561.700,210186.700,712077.400,334588.000,712035.100,176372.200,701460.600,186845.300,0.000
188626.700,210270.600,712085.200,334641.600,712042.900,176439.400,701362.100,186866.800,0.000
188981.100,210540.000,712098.100,334844.200,712055.800,176704.100,701686.100,187198.700,0.000
189130.100,210623.500,712097.800,334893.400,712055.600,176797.700,701924.000,187379.600,0.000
188870.700,210409.600,712087.600,334708.300,712045.300,176596.800,701697.800,187166.700,0.000
188570.100,210199.000,712083.600,334529.100,712040.600,176384.700,701272.000,186861.600,0.000
188634.900,210276.100,712090.500,334578.400,712047.600,176447.900,701172.300,186879.000,0.000
188981.000,210535.600,712100.300,334775.100,712057.600,176704.700,701486.400,187201.000,0.000
189130.500,210617.500,712097.400,334823.500,712054.600,176793.900,701714.400,187373.700,0.000
188875.100,210405.900,712086.300,334642.600,712043.300,176599.300,701488.700,187161.500,0.000
188565.600,210188.000,712077.800,334458.800,712035.100,176379.200,701048.900,186845.200,0.000
188623.600,210262.700,712081.800,334509.900,712039.200,176439.600,700940.900,186859.500,0.000
188975.900,210531.000,712094.300,334711.800,712051.600,176701.400,701257.300,187190.100,0.000
189135.000,210624.400,712095.900,334769.200,712053.800,176801.500,701501.600,187377.500,0.000
188873.400,210409.600,712084.500,334584.100,712042.400,176601.200,701276.700,187163.400,0.000
188559.800,210189.400,712078.100,334399.100,712035.300,176385.300,700840.900,186847.900,0.000
188622.600,210271.500,712082.400,334450.900,712039.800,176450.800,700735.000,186864.200,0.000
188971.600,210538.200,712091.500,334649.600,712049.100,176705.500,701044.600,187189.600,0.000
189129.600,210624.900,712093.800,334709.300,712050.800,176804.500,701287.600,187377.200,0.000
188873.000,210405.700,712082.600,334527.600,712040.000,176604.200,701064.800,187162.700,0.000
188573.500,210193.700,712076.800,334350.000,712034.400,176390.900,700637.900,186854.300,0.000
188625.000,210264.000,712080.700,334395.300,712038.300,176446.900,700524.100,186862.300,0.000
188967.000,210528.700,712090.300,334593.800,712047.800,176701.000,700834.900,187184.200,0.000
189126.300,210620.200,712090.800,334651.000,712048.500,176797.700,701075.800,187368.300,0.000
188868.900,210404.500,712079.900,334467.600,712037.800,176598.500,700855.300,187156.800,0.000
188560.200,210189.900,712077.200,334287.900,712034.500,176385.700,700430.800,186849.200,0.000
188615.500,210267.800,712084.800,334335.900,712042.100,176445.400,700324.400,186862.500,0.000
188961.100,210530.700,712094.900,334530.600,712052.500,176697.800,700632.400,187183.700,0.000
189121.700,210621.900,712095.700,334589.700,712053.100,176796.500,700879.100,187376.100,0.000
188866.800,210407.700,712085.800,334410.100,712042.900,176601.000,700662.500,187169.100,0.000
188557.400,210191.700,712079.300,334226.800,712036.300,176385.600,700228.800,186854.000,0.000
188607.400,210261.600,712081.300,334271.100,712038.200,176441.200,700113.100,186859.800,0.000
188954.800,210525.800,712090.100,334471.000,712047.100,176697.700,700418.700,187180.900,0.000
189112.000,210613.500,712089.500,334531.700,712046.700,176793.700,700657.800,187368.500,0.000
188866.700,210407.800,712080.700,334357.900,712037.300,176604.400,700448.800,187166.800,0.000
188558.500,210190.100,712072.900,334171.500,712029.500,176384.100,700014.600,186848.100,0.000
188606.500,210258.700,712074.100,334214.000,712031.100,176431.100,699888.300,186845.600,0.000
188957.900,210528.000,712088.300,334419.500,712045.100,176691.800,700204.000,187176.600,0.000
189118.800,210617.600,712091.600,334482.300,712048.200,176793.500,700455.700,187370.900,0.000
188867.000,210400.300,712080.200,334300.400,712037.000,176597.500,700238.400,187162.600,0.000
188562.100,210184.500,712072.800,334120.600,712029.400,176382.300,699805.900,186850.400,0.000
188614.900,210254.900,712078.000,334169.400,712034.700,176437.700,699693.800,186859.800,0.000
188960.000,210519.400,712087.200,334367.400,712043.800,176689.600,699998.400,187177.500,0.000
189119.100,210610.400,712088.000,334426.000,712044.600,176785.400,700240.900,187364.600,0.000
188867.800,210399.100,712076.400,334248.800,712033.600,176591.700,700027.700,187161.300,0.000
188555.400,210176.500,712069.800,334064.600,712026.800,176374.100,699595.900,186844.100,0.000
188607.900,210248.500,712076.200,334110.800,712033.400,176431.100,699482.100,186851.300,0.000
188954.400,210512.900,712086.800,334314.900,712044.300,176686.500,699790.100,187172.100,0.000
189118.300,210606.900,712089.400,334378.900,712046.700,176792.600,700039.500,187363.800,0.000
188862.900,210391.000,712077.400,334195.100,712034.400,176593.400,699818.300,187152.200,0.000
188547.000,210170.200,712068.100,334006.900,712025.400,176373.400,699380.300,186833.400,0.000
188598.500,210242.800,712075.600,334056.200,712033.000,176435.900,699275.800,186848.600,0.000
188947.500,210511.000,712084.900,334258.500,712041.900,176690.500,699583.600,187174.400,0.000
189117.800,210610.500,712087.600,334327.800,712044.400,176796.900,699838.300,187372.200,0.000
188870.100,210400.400,712079.600,334152.400,712036.500,176606.600,699632.100,187169.800,0.000
188548.400,210168.900,712068.600,333960.300,712025.800,176378.000,699190.600,186845.100,0.000
188596.300,210235.400,712073.300,334005.900,712030.300,176429.800,699075.900,186851.700,0.000
188943.200,210500.200,712084.900,334209.900,712042.400,176687.200,699382.800,187174.200,0.000
189107.700,210596.800,712085.200,334277.200,712042.400,176792.600,699630.300,187364.500,0.000
188864.400,210393.400,712074.300,334099.900,712031.100,176598.300,699421.000,187161.500,0.000
188545.500,210168.100,712065.600,333911.100,712022.800,176371.800,698987.200,186839.000,0.000
188591.500,210237.400,712070.200,333957.500,712027.400,176427.200,698865.500,186839.000,0.000
188941.500,210507.800,712081.300,334160.700,712038.100,176688.400,699173.600,187162.700,0.000
189106.300,210601.500,712081.300,334223.200,712038.400,176790.900,699424.400,187355.800,0.000
188859.800,210394.100,712069.600,334051.500,712026.600,176597.900,699219.600,187155.900,0.000
188549.800,210171.900,712063.600,333868.800,712020.800,176375.900,698791.500,186840.300,0.000
188596.700,210240.400,712069.700,333915.900,712026.900,176430.200,698669.300,186840.900,0.000
188945.700,210512.600,712080.200,334123.600,712037.000,176686.700,698973.700,187163.700,0.000
189111.100,210607.000,712080.500,334188.800,712037.400,176789.400,699221.900,187360.100,0.000
188861.600,210397.500,712071.200,334012.100,712027.800,176594.700,699012.900,187158.800,0.000
188546.500,210174.400,712063.100,333829.500,712020.100,176375.600,698579.500,186842.400,0.000
188589.500,210238.300,712065.400,333870.300,712022.600,176427.600,698453.800,186839.000,0.000
188933.000,210505.100,712076.400,334071.700,712033.200,176687.800,698751.600,187157.200,0.000
189107.500,210609.000,712080.300,334144.400,712037.100,176803.000,699011.500,187362.700,0.000
188872.800,210409.300,712073.100,333978.700,712030.100,176620.600,698820.500,187172.000,0.000
188558.400,210184.900,712067.600,333791.600,712024.500,176390.700,698389.900,186852.500,0.000
188602.300,210248.500,712074.400,333834.300,712031.100,176436.700,698271.200,186851.900,0.000
188948.900,210514.600,712083.800,334034.200,712040.800,176687.800,698571.500,187169.000,0.000
189118.000,210612.200,712085.100,334101.400,712042.100,176792.500,698819.400,187362.400,0.000
188873.000,210404.400,712076.200,333930.100,712032.800,176606.900,698621.100,187167.600,0.000
188549.400,210173.000,712067.300,333739.900,712024.100,176379.500,698187.800,186847.500,0.000
188594.100,210237.100,712073.700,333786.000,712030.500,176430.200,698068.400,186850.700,0.000
188943.700,210508.500,712086.600,333992.400,712043.600,176694.700,698380.800,187179.200,0.000
189109.300,210604.800,712088.700,334057.800,712045.300,176801.000,698632.500,187373.800,0.000
188861.800,210394.100,712075.300,333881.600,712032.600,176609.000,698421.800,187168.500,0.000
188535.900,210162.200,712063.100,333688.000,712020.500,176378.000,697974.000,186838.400,0.000
188573.700,210221.900,712067.300,333728.600,712024.300,176422.200,697843.100,186832.800,0.000
188921.700,210490.500,712079.900,333933.300,712037.500,176676.500,698145.400,187154.800,0.000
189094.100,210589.100,712079.100,334000.000,712037.300,176780.400,698395.100,187350.900,0.000
188855.100,210383.800,712069.200,333830.700,712026.900,176593.300,698200.600,187158.200,0.000
188532.200,210156.400,712061.400,333644.400,712019.100,176365.300,697766.300,186835.900,0.000
188567.700,210218.800,712065.800,333685.700,712023.300,176410.800,697636.300,186830.000,0.000
188916.500,210486.300,712078.300,333888.900,712035.800,176667.100,697937.400,187151.300,0.000
189098.100,210594.900,712081.800,333962.800,712039.300,176782.100,698201.000,187358.500,0.000
188855.800,210390.400,712072.300,333790.300,712029.900,176595.000,698005.300,187164.000,0.000
188536.100,210162.700,712064.900,333604.100,712022.400,176374.000,697574.400,186844.200,0.000
188573.100,210220.600,712071.400,333645.800,712029.200,176424.100,697447.400,186836.700,0.000
188920.600,210490.900,712082.600,333850.400,712040.100,176683.000,697747.800,187158.300,0.000
189096.700,210596.400,712084.800,333925.400,712041.600,176798.300,698004.300,187364.000,0.000
188856.700,210390.100,712072.400,333752.300,712029.400,176602.800,697806.600,187165.900,0.000
188526.500,210153.500,712062.400,333556.700,712019.600,176363.500,697360.300,186831.600,0.000
188557.000,210208.600,712066.200,333597.500,712023.600,176406.100,697223.600,186819.800,0.000
188911.000,210482.500,712079.900,333814.300,712037.200,176673.200,697530.500,187148.400,0.000
189101.200,210599.100,712084.900,333901.000,712042.400,176797.800,697800.100,187364.200,0.000
188868.000,210400.600,712073.900,333733.400,712031.700,176612.900,697609.900,187173.300,0.000
188545.000,210168.600,712064.600,333539.700,712022.200,176379.000,697172.800,186844.700,0.000
188568.000,210217.500,712066.800,333570.400,712024.100,176411.000,697025.900,186821.300,0.000
188918.600,210486.700,712078.100,333777.500,712035.300,176670.300,697328.100,187142.600,0.000
189105.900,210598.700,712082.200,333858.100,712039.300,176792.100,697601.100,187355.800,0.000
188868.600,210396.900,712072.200,333691.300,712029.100,176608.000,697414.400,187167.100,0.000
188550.200,210172.800,712067.300,333519.200,712023.900,176388.400,696993.800,186853.700,0.000
188576.800,210227.800,712073.300,333562.200,712029.900,176428.200,696856.200,186838.300,0.000
188919.000,210492.300,712083.300,333766.400,712040.300,176681.200,697149.700,187155.200,0.000
189098.800,210597.900,712085.100,333842.300,712042.200,176798.000,697409.100,187362.800,0.000
188865.900,210399.300,712073.900,333666.800,712031.100,176612.800,697215.400,187171.100,0.000
188543.300,210170.300,712064.500,333470.000,712021.400,176383.600,696776.900,186843.800,0.000
188573.600,210226.500,712068.100,333507.000,712024.900,176426.800,696639.900,186832.300,0.000
188924.800,210499.800,712080.100,333715.600,712037.200,176686.400,696942.100,187157.300,0.000
189109.300,210612.600,712083.500,333795.300,712040.400,176806.800,697209.500,187369.400,0.000
188874.300,210412.500,712073.900,333623.800,712030.800,176624.600,697021.800,187179.100,0.000
188547.300,210177.900,712064.900,333428.700,712021.800,176389.800,696585.700,186851.500,0.000
188573.300,210230.700,712070.800,333465.600,712027.600,176430.600,696451.700,186838.600,0.000
188921.100,210498.800,712081.800,333670.400,712038.800,176685.600,696746.400,187156.900,0.000
189108.300,210608.900,712084.400,333749.200,712041.500,176798.300,697007.600,187364.300,0.000
188872.900,210406.600,712072.900,333584.100,712030.100,176614.200,696820.700,187178.700,0.000
188544.300,210171.700,712062.900,333389.700,712020.500,176383.300,696381.700,186850.400,0.000
188570.900,210225.700,712065.600,333421.300,712023.100,176421.300,696235.300,186826.500,0.000
188918.300,210491.000,712079.100,333626.300,712036.300,176675.400,696529.100,187144.000,0.000
189113.900,210610.800,712084.700,333714.100,712041.700,176801.500,696804.100,187362.300,0.000
188893.000,210421.400,712073.900,333552.500,712031.100,176622.700,696626.300,187182.200,0.000
188567.900,210183.800,712063.700,333360.000,712020.700,176389.100,696185.700,186854.400,0.000
188598.000,210237.500,712069.800,333400.300,712026.500,176427.000,696048.600,186839.200,0.000
188949.400,210508.100,712084.500,333611.400,712041.300,176686.900,696350.800,187161.100,0.000
189139.700,210623.500,712088.000,333695.700,712044.900,176810.100,696621.800,187375.900,0.000
188910.800,210427.500,712076.300,333531.100,712033.100,176629.600,696438.900,187190.400,0.000
188587.600,210194.500,712067.800,333337.500,712024.500,176400.300,696001.400,186864.300,0.000
188614.000,210247.700,712072.800,333370.800,712029.500,176436.600,695857.500,186844.400,0.000
188961.600,210515.800,712082.900,333575.600,712040.100,176693.900,696151.200,187162.200,0.000
189150.600,210628.900,712085.400,333657.800,712042.700,176811.800,696418.800,187377.000,0.000
188919.500,210427.600,712074.900,333491.700,712031.900,176627.800,696233.800,187191.900,0.000
188599.200,210200.200,712069.100,333304.400,712026.200,176402.600,695802.800,186869.600,0.000
188619.800,210249.500,712073.600,333339.300,712030.800,176436.800,695658.200,186848.200,0.000
188962.800,210517.100,712082.600,333542.800,712039.900,176688.800,695946.600,187163.600,0.000
189149.800,210627.800,712086.900,333623.600,712043.900,176810.000,696214.800,187379.000,0.000
188918.200,210425.000,712075.200,333458.000,712032.400,176624.700,696032.400,187194.500,0.000
188596.500,210194.900,712072.000,333270.000,712029.000,176397.600,695612.900,186877.400,0.000
188607.600,210235.000,712075.600,333296.500,712032.900,176429.000,695461.700,186849.200,0.000
188941.400,210495.000,712082.900,333497.100,712040.300,176681.200,695736.900,187155.700,0.000
189132.500,210613.400,712082.700,333580.000,712039.700,176804.500,696003.900,187371.800,0.000
188907.900,210416.400,712072.300,333415.100,712029.100,176626.700,695828.900,187190.000,0.000
188577.900,210177.800,712062.100,333220.400,712019.300,176390.500,695388.600,186857.900,0.000
188597.200,210226.900,712068.600,333253.800,712025.500,176425.000,695239.700,186833.200,0.000
188935.400,210487.900,712076.200,333455.700,712033.300,176674.400,695515.800,187138.400,0.000
189136.100,210613.300,712079.900,333551.500,712036.900,176807.700,695792.600,187365.700,0.000
188906.100,210419.600,712070.200,333387.000,712027.000,176628.300,695616.600,187186.000,0.000
188572.800,210181.100,712061.600,333188.900,712018.900,176394.300,695179.300,186856.400,0.000
188588.500,210226.800,712068.100,333221.000,712025.700,176428.000,695031.800,186830.600,0.000
188932.100,210492.900,712076.400,333428.200,712033.800,176683.700,695321.300,187146.500,0.000
189118.800,210604.200,712074.900,333509.200,712032.100,176803.100,695582.400,187359.000,0.000
188899.000,210415.300,712068.600,333352.500,712025.700,176631.200,695415.200,187188.200,0.000
188570.000,210177.600,712059.200,333159.800,712016.600,176396.500,694979.800,186860.700,0.000
188587.600,210224.000,712064.000,333191.400,712021.600,176430.700,694830.500,186835.400,0.000
188930.000,210493.200,712076.600,333394.200,712033.700,176685.500,695120.000,187152.400,0.000
189117.500,210604.000,712077.700,333472.700,712034.600,176802.800,695386.300,187367.900,0.000
188903.000,210418.500,712069.100,333319.200,712026.300,176634.500,695220.900,187198.800,0.000
188578.600,210188.000,712061.300,333130.300,712018.300,176406.100,694791.800,186877.600,0.000
188582.700,210224.100,712064.800,333153.200,712021.900,176426.300,694629.900,186840.300,0.000
188920.400,210486.900,712078.300,333353.800,712035.400,176675.400,694915.600,187146.600,0.000
189111.300,210598.100,712078.700,333436.200,712036.100,176794.500,695185.800,187360.900,0.000
188898.500,210412.900,712070.600,333285.300,712028.100,176626.300,695027.000,187195.900,0.000
188570.000,210176.800,712061.800,333091.300,712018.900,176390.700,694592.900,186867.400,0.000
188582.600,210218.300,712066.200,333119.100,712023.200,176416.900,694436.800,186836.200,0.000
188931.500,210489.400,712079.300,333329.300,712036.100,176675.400,694731.900,187155.000,0.000
189129.500,210610.800,712082.600,333421.600,712039.500,176806.900,695007.900,187379.400,0.000
188897.400,210408.500,712067.900,333254.800,712024.900,176622.800,694820.600,187193.700,0.000
188561.000,210165.900,712055.800,333054.300,712012.700,176381.600,694370.900,186855.000,0.000
188583.900,210218.600,712059.400,333088.500,712016.100,176420.200,694218.500,186829.700,0.000
188932.500,210491.200,712073.700,333296.900,712030.400,176684.200,694511.600,187149.800,0.000
189130.200,210607.800,712075.500,333383.400,712032.400,176808.000,694780.100,187368.600,0.000
188923.600,210423.700,712063.900,333230.800,712021.200,176634.600,694612.300,187198.900,0.000
188596.300,210188.800,712054.800,333040.200,712012.600,176401.800,694177.100,186872.000,0.000
188607.000,210231.500,712063.500,333068.800,712020.700,176431.200,694022.700,186841.800,0.000
188938.500,210485.700,712074.600,333267.700,712031.800,176676.800,694298.900,187148.600,0.000
189137.300,210606.800,712078.300,333357.900,712035.500,176807.800,694576.600,187375.400,0.000
188929.500,210431.200,712068.400,333206.100,712025.700,176643.400,694420.800,187211.300,0.000
188597.800,210196.800,712061.100,333010.700,712018.200,176405.100,693990.800,186885.100,0.000
188598.600,210228.500,712065.200,333032.700,712022.400,176426.600,693828.300,186848.600,0.000
188928.000,210481.900,712074.400,333228.100,712031.900,176671.400,694102.300,187149.100,0.000
189110.000,210586.900,712071.600,333304.800,712029.100,176785.100,694362.300,187358.500,0.000
188898.300,210404.800,712063.400,333159.800,712020.800,176621.500,694206.400,187197.800,0.000
188577.300,210182.700,712058.100,332981.000,712015.100,176399.400,693785.600,186880.100,0.000
188599.700,210239.300,712068.300,333021.600,712025.500,176440.900,693640.300,186859.800,0.000
188939.200,210500.400,712079.900,333221.700,712037.200,176690.500,693922.200,187166.800,0.000
189139.700,210620.100,712081.800,333306.500,712039.300,176816.100,694200.800,187387.600,0.000
188923.300,210433.300,712071.800,333151.300,712029.400,176645.800,694039.100,187216.800,0.000
188585.900,210190.500,712063.400,332955.600,712020.500,176409.900,693604.500,186882.900,0.000
188587.900,210226.500,712067.900,332979.800,712024.800,176432.600,693444.400,186842.900,0.000
188930.300,210493.600,712081.100,333184.900,712038.200,176686.700,693731.600,187154.400,0.000
189132.800,210617.700,712083.900,333275.200,712040.900,176819.300,694014.100,187380.800,0.000
188912.000,210427.700,712071.600,333117.200,712028.400,176646.400,693847.900,187210.500,0.000
188578.800,210188.600,712059.600,332919.100,712016.600,176407.900,693407.400,186871.900,0.000
188583.600,210225.000,712064.800,332944.500,712021.800,176429.800,693244.200,186830.600,0.000
188928.000,210495.200,712078.800,333155.600,712036.400,176686.000,693533.800,187147.400,0.000
189125.900,210613.000,712079.300,333247.000,712036.600,176814.400,693806.500,187371.100,0.000
188912.800,210427.900,712068.400,333093.700,712025.700,176645.900,693643.600,187203.700,0.000
188578.500,210187.800,712061.900,332899.600,712019.300,176408.300,693207.800,186873.600,0.000
188578.400,210221.900,712063.500,332919.000,712020.900,176427.200,693034.600,186830.600,0.000
188911.600,210479.100,712071.200,333118.500,712028.200,176672.000,693304.400,187135.000,0.000
189116.400,210606.000,712074.100,333215.000,712030.800,176808.200,693585.100,187369.100,0.000
188913.800,210431.200,712067.100,333069.300,712024.300,176652.100,693436.800,187213.900,0.000
188578.500,210190.500,712057.400,332870.700,712014.800,176414.400,693005.900,186881.300,0.000
188574.500,210220.000,712060.600,332891.100,712017.700,176431.100,692837.800,186836.000,0.000
188916.000,210488.700,712075.300,333102.000,712032.600,176689.000,693120.100,187150.800,0.000
189125.500,210620.900,712079.100,333199.800,712036.100,176827.800,693403.800,187384.100,0.000
188919.500,210439.400,712068.700,333048.300,712025.900,176662.700,693251.600,187222.500,0.000
188575.200,210188.900,712057.900,332845.000,712015.200,176419.300,692810.100,186882.900,0.000
188572.700,210219.200,712060.800,332866.600,712018.100,176433.900,692636.200,186838.100,0.000
188915.100,210486.200,712074.100,333078.200,712031.300,176690.500,692918.300,187153.200,0.000
189129.900,210619.300,712076.900,333180.800,712034.300,176833.600,693207.300,187388.500,0.000
188920.300,210435.300,712068.800,333026.600,712025.900,176666.200,693054.100,187224.800,0.000
188580.300,210190.500,712060.300,332825.900,712017.200,176420.400,692617.500,186888.700,0.000
188578.600,210223.900,712063.100,332846.300,712020.300,176433.400,692446.200,186843.100,0.000
188915.200,210487.900,712073.900,333048.800,712030.900,176683.900,692717.300,187147.000,0.000
189125.800,210619.900,712076.400,333142.600,712033.300,176818.200,693001.200,187377.400,0.000
188917.800,210435.100,712064.400,332990.000,712021.300,176646.400,692848.900,187215.100,0.000
188585.300,210196.800,712058.600,332796.900,712015.700,176412.000,692424.400,186887.700,0.000
188577.600,210224.500,712063.900,332816.100,712021.500,176430.700,692253.400,186840.300,0.000
188907.900,210481.100,712074.600,333015.800,712032.400,176680.400,692522.700,187143.400,0.000
189112.400,210607.600,712077.400,333108.600,712034.700,176814.900,692805.500,187373.600,0.000
188909.900,210431.500,712067.900,332962.100,712024.900,176650.800,692662.200,187215.000,0.000
188576.100,210193.900,712061.200,332768.100,712018.300,176412.800,692235.900,186885.500,0.000
188565.000,210219.400,712064.100,332782.700,712021.000,176426.300,692060.800,186833.000,0.000
188902.900,210480.700,712073.900,332987.300,712030.800,176677.500,692332.700,187139.600,0.000
189113.800,210610.900,712076.400,333086.500,712033.300,176815.200,692621.100,187377.500,0.000
188905.400,210429.400,712067.700,332937.500,712024.800,176651.100,692473.000,187218.700,0.000
188567.200,210188.300,712059.900,332735.600,712017.200,176412.100,692042.100,186886.200,0.000
188546.800,210202.300,712061.600,332742.000,712018.700,176415.100,691856.600,186824.300,0.000
188888.800,210468.800,712075.100,332951.600,712032.400,176671.600,692138.300,187135.300,0.000
189102.300,210600.900,712076.400,333053.600,712033.600,176810.600,692423.200,187369.800,0.000
188898.700,210422.100,712065.200,332907.100,712021.600,176647.500,692275.100,187213.000,0.000
188555.200,210172.800,712055.700,332703.300,712012.600,176400.800,691831.700,186872.800,0.000
188544.000,210198.000,712056.500,332721.200,712013.600,176409.200,691646.100,186815.400,0.000
188885.900,210466.500,712068.500,332933.100,712025.700,176662.800,691921.400,187124.900,0.000
189105.600,210604.900,712074.400,333037.800,712031.700,176811.500,692215.400,187368.700,0.000
188905.700,210425.600,712065.800,332889.300,712022.800,176650.900,692073.300,187215.000,0.000
188565.500,210181.000,712058.100,332689.000,712014.900,176405.000,691641.500,186877.400,0.000
188550.100,210204.600,712061.400,332703.400,712018.300,176413.100,691459.100,186821.400,0.000
188889.800,210472.000,712073.600,332911.900,712030.800,176670.800,691733.300,187130.500,0.000
189111.200,210614.200,712077.600,333016.000,712034.400,176818.300,692030.900,187375.000,0.000
188911.000,210438.200,712068.400,332867.900,712025.100,176663.600,691891.800,187223.700,0.000
188570.100,210190.500,712059.000,332667.700,712015.800,176419.500,691456.900,186887.400,0.000
188553.600,210210.100,712060.800,332679.300,712017.800,176419.700,691272.100,186828.400,0.000
188888.800,210470.500,712072.700,332882.800,712029.500,176668.800,691542.100,187132.500,0.000
189106.200,210606.500,712076.400,332988.100,712033.100,176815.300,691835.100,187373.700,0.000
188912.000,210439.500,712068.600,332850.600,712025.600,176667.200,691701.300,187228.100,0.000
188568.600,210191.300,712058.500,332646.800,712015.800,176421.300,691262.000,186887.800,0.000
188549.600,210207.900,712062.100,332653.600,712019.300,176419.500,691076.800,186827.000,0.000
188885.500,210471.500,712077.400,332858.800,712034.600,176668.500,691354.000,187137.200,0.000
189097.600,210603.900,712079.800,332957.200,712036.700,176807.500,691644.000,187374.600,0.000
188890.800,210419.400,712067.300,332805.300,712024.100,176638.400,691494.500,187212.000,0.000
188551.700,210173.100,712057.100,332606.700,712013.900,176395.900,691056.900,186873.900,0.000
188534.600,210191.900,712059.800,332621.400,712016.400,176402.300,690869.500,186815.400,0.000
188863.500,210450.000,712067.200,332825.300,712024.000,176649.100,691129.100,187114.600,0.000
189090.800,210597.200,712071.000,332937.900,712027.900,176801.500,691426.100,187363.300,0.000
188906.000,210431.100,712061.400,332801.700,712018.300,176650.700,691297.200,187221.800,0.000
188563.100,210182.500,712052.400,332597.600,712009.100,176404.300,690862.100,186885.500,0.000
188545.600,210204.200,712058.100,332611.300,712014.900,176412.400,690679.500,186829.900,0.000
188880.800,210467.300,712072.300,332816.200,712028.800,176668.000,690952.200,187136.700,0.000
189101.200,210603.900,712077.700,332919.500,712034.100,176815.200,691250.200,187381.600,0.000
188906.300,210430.200,712070.800,332774.900,712027.200,176658.100,691115.500,187231.300,0.000
188555.800,210175.400,712058.300,332568.000,712014.300,176410.000,690676.400,186886.900,0.000
188525.900,210186.500,712057.600,332575.300,712013.600,176410.300,690481.100,186818.900,0.000
188857.900,210447.900,712070.200,332780.800,712026.500,176660.100,690745.800,187118.500,0.000
189077.700,210586.500,712071.300,332884.200,712027.800,176804.700,691033.600,187356.000,0.000
188884.900,210414.800,712062.300,332743.600,712019.100,176649.600,690899.300,187210.000,0.000
188552.300,210175.000,712056.200,332548.700,712013.000,176411.500,690477.300,186886.300,0.000
188535.700,210194.900,712061.400,332561.300,712018.300,176422.900,690291.800,186829.400,0.000
188868.000,210455.700,712072.200,332762.200,712029.300,176669.000,690551.000,187124.600,0.000
189098.500,210602.100,712077.800,332875.100,712034.900,176809.700,690855.600,187372.600,0.000
188903.500,210430.200,712068.900,332733.300,712026.200,176650.900,690725.000,187227.700,0.000
188554.800,210177.800,712055.300,332526.300,712012.500,176402.300,690284.600,186886.500,0.000
188527.600,210189.400,712058.300,332530.400,712015.600,176401.500,690094.700,186820.300,0.000
188854.300,210446.500,712069.700,332729.900,712026.500,176646.100,690358.300,187113.700,0.000
189078.900,210588.900,712072.400,332836.400,712028.600,176793.500,690649.600,187356.000,0.000
188891.200,210418.300,712062.300,332700.900,712018.900,176641.200,690520.700,187214.700,0.000
188554.000,210174.000,712053.600,332502.300,712010.500,176399.400,690087.000,186877.300,0.000
188533.000,210192.100,712057.800,332510.700,712014.300,176400.500,689891.300,186809.300,0.000
188870.300,210457.500,712072.200,332720.400,712028.600,176656.200,690162.000,187113.300,0.000
189100.100,210604.900,712076.600,332835.400,712033.100,176812.000,690465.600,187364.800,0.000
188913.000,210436.600,712068.300,332695.700,712024.900,176658.500,690342.900,187223.700,0.000
188568.500,210184.700,712061.000,332494.600,712017.800,176413.100,689915.100,186887.700,0.000
188538.000,210194.000,712060.800,332497.500,712017.900,176406.600,689711.200,186814.700,0.000
188865.200,210453.000,712069.500,332700.500,712026.100,176650.800,689964.900,187108.800,0.000
189085.000,210592.100,712072.300,332809.700,712028.900,176801.900,690257.800,187358.700,0.000
188894.800,210423.000,712061.400,332668.500,712018.200,176652.900,690128.800,187221.700,0.000
188557.500,210180.500,712053.800,332468.400,712010.500,176414.500,689703.200,186893.100,0.000
188530.700,210192.800,712058.300,332474.900,712014.800,176416.800,689509.300,186826.800,0.000
188860.000,210450.700,712069.700,332676.800,712026.200,176661.600,689767.400,187122.100,0.000
189088.300,210599.900,712073.800,332787.700,712030.300,176813.300,690069.600,187371.200,0.000
188898.800,210429.400,712065.000,332648.900,712021.600,176660.500,689948.100,187230.800,0.000
188555.800,210179.300,712054.800,332441.300,712011.800,176409.700,689513.800,186890.500,0.000
188535.700,210195.900,712060.900,332451.100,712017.900,176411.200,689324.200,186825.400,0.000
188858.500,210446.300,712069.100,332648.500,712026.200,176650.000,689567.100,187109.800,0.000
189090.600,210595.500,712072.600,332764.800,712029.000,176808.900,689867.100,187361.100,0.000
188911.000,210431.400,712064.600,332628.800,712021.200,176661.300,689747.500,187225.700,0.000
188562.000,210176.300,712055.600,332424.700,712012.300,176414.400,689315.400,186887.700,0.000
188532.100,210191.000,712060.400,332428.200,712016.800,176412.300,689118.600,186817.800,0.000
188862.700,210450.000,712071.700,332628.800,712028.100,176655.700,689377.000,187112.600,0.000
189100.100,210602.300,712075.100,332748.900,712031.500,176813.400,689687.600,187373.000,0.000
188916.200,210434.200,712066.500,332614.900,712023.100,176665.400,689569.300,187240.500,0.000
188576.000,210184.500,712058.600,332414.500,712015.400,176419.500,689137.100,186902.900,0.000
188544.700,210192.800,712062.300,332418.200,712018.500,176416.600,688934.400,186828.500,0.000
188869.800,210447.300,712070.300,332619.700,712026.800,176658.900,689182.400,187117.900,0.000
189102.700,210594.300,712071.600,332735.900,712027.800,176811.700,689481.100,187369.600,0.000
188927.800,210437.900,712063.700,332603.800,712020.300,176670.700,689369.900,187241.000,0.000
188584.700,210188.800,712055.100,332399.900,712012.100,176424.500,688943.200,186905.400,0.000
188550.700,210196.400,712059.200,332401.200,712015.900,176417.200,688742.500,186830.600,0.000
188873.000,210453.000,712071.400,332602.800,712028.100,176664.100,688995.600,187122.300,0.000
189103.500,210602.000,712074.100,332715.900,712030.800,176821.100,689300.000,187376.400,0.000
188924.000,210437.800,712066.700,332582.000,712023.200,176676.400,689189.800,187245.800,0.000
188577.100,210183.200,712059.600,332374.900,712016.400,176429.600,688763.500,186908.300,0.000
188541.600,210191.000,712061.400,332372.300,712018.200,176418.800,688554.100,186827.000,0.000
188863.200,210444.500,712071.100,332571.300,712028.100,176658.400,688798.900,187113.600,0.000
189091.900,210591.300,712071.600,332683.800,712028.600,176810.300,689093.900,187361.700,0.000
188914.200,210434.400,712062.100,332553.100,712019.300,176669.600,688978.200,187233.400,0.000
188571.000,210185.800,712052.800,332351.800,712010.000,176427.500,688550.300,186899.300,0.000
188531.100,210187.200,712054.400,332350.700,712011.800,176417.700,688340.500,186816.700,0.000
188862.100,210449.600,712067.900,332549.600,712024.900,176660.400,688594.900,187108.500,0.000
189097.600,210600.200,712072.100,332666.000,712029.100,176813.800,688898.600,187363.000,0.000
188918.800,210436.800,712062.000,332534.100,712018.800,176669.400,688785.100,187234.600,0.000
188566.900,210176.100,712050.100,332324.900,712007.100,176416.200,688347.800,186891.100,0.000
188524.700,210176.500,712051.800,332324.100,712008.400,176406.400,688136.100,186808.300,0.000
188845.500,210428.700,712064.000,332523.400,712020.900,176650.700,688387.600,187100.300,0.000
189080.800,210582.000,712067.500,332638.700,712024.600,176807.500,688692.700,187354.700,0.000
188911.200,210429.400,712060.300,332511.900,712016.600,176671.700,688590.100,187234.200,0.000
188562.400,210173.700,712048.800,332303.800,712005.100,176422.500,688156.900,186893.300,0.000
188522.800,210175.600,712052.700,332301.100,712008.900,176411.000,687946.900,186809.600,0.000
188857.800,210439.600,712065.800,332508.600,712022.300,176663.200,688203.600,187104.000,0.000
189099.000,210595.900,712071.100,332630.400,712027.600,176829.000,688516.400,187366.300,0.000
188921.500,210436.800,712060.800,332495.500,712017.400,176683.200,688402.300,187235.100,0.000
188576.700,210187.000,712050.200,332291.200,712007.200,176433.000,687971.300,186898.600,0.000
188527.500,210181.600,712051.000,332281.600,712007.600,176410.300,687750.100,186809.300,0.000
188850.700,210436.800,712062.000,332481.000,712018.800,176654.300,687995.300,187097.300,0.000
189098.800,210600.600,712070.300,332609.400,712027.600,176828.300,688314.800,187366.500,0.000
188921.300,210442.000,712060.600,332477.800,712017.000,176686.900,688203.400,187239.100,0.000
188571.100,210183.600,712051.000,332270.200,712007.400,176437.500,687767.900,186900.400,0.000
188525.100,210182.000,712052.500,332265.000,712009.100,176424.200,687552.600,186817.100,0.000
188847.700,210439.100,712063.500,332462.400,712019.700,176663.600,687800.600,187104.900,0.000
189092.000,210596.500,712067.300,332582.300,712023.700,176823.400,688113.900,187368.600,0.000
188923.800,210440.900,712060.800,332453.700,712017.600,176680.700,688012.800,187245.100,0.000
188580.900,210190.500,712054.600,332249.800,712011.400,176434.500,687592.000,186911.800,0.000
188532.800,210188.000,712060.800,332245.500,712017.300,176417.400,687382.400,186828.000,0.000
188847.000,210437.000,712069.100,332439.500,712025.900,176650.900,687619.000,187108.200,0.000
189086.300,210594.900,712069.100,332558.500,712025.900,176809.400,687919.900,187362.400,0.000
188915.500,210438.200,712056.300,332430.200,712012.700,176666.900,687805.300,187233.300,0.000
188571.000,210188.100,712046.700,332227.800,712003.600,176421.100,687376.400,186897.800,0.000
188518.100,210180.700,712047.800,332223.800,712004.500,176403.900,687155.800,186810.000,0.000
188842.400,210437.500,712059.800,332425.100,712016.400,176650.700,687405.300,187101.800,0.000
189084.200,210594.800,712063.500,332544.900,712020.300,176813.300,687717.400,187364.700,0.000
188916.400,210439.900,712054.100,332418.700,712010.900,176675.000,687615.300,187245.000,0.000
188569.600,210185.800,712044.000,332211.300,712000.800,176427.500,687185.200,186904.300,0.000
188520.200,210182.900,712047.900,332205.200,712004.700,176412.900,686971.300,186817.500,0.000
188836.800,210431.900,712058.600,332401.600,712014.700,176649.800,687212.000,187100.500,0.000
189084.600,210591.700,712064.800,332527.600,712021.400,176814.700,687528.900,187366.100,0.000
188911.200,210434.000,712053.600,332393.800,712010.900,176671.200,687424.800,187242.500,0.000
188560.000,210176.100,712044.700,332185.700,712001.600,176419.700,686996.600,186904.300,0.000
188507.400,210172.200,712045.200,332177.300,712002.200,176398.900,686772.300,186809.000,0.000
188838.400,210438.600,712058.100,332385.100,712014.700,176649.000,687019.400,187100.600,0.000
189094.500,210609.800,712066.100,332521.000,712022.400,176825.600,687345.600,187376.300,0.000
188927.300,210453.600,712056.300,332393.100,712013.000,176686.800,687243.900,187253.200,0.000
188583.900,210199.800,712049.200,332188.200,712005.800,176441.800,686822.200,186918.500,0.000
188530.500,210188.400,712052.800,332178.500,712009.400,176422.400,686602.400,186827.300,0.000
188842.800,210435.300,712061.500,332370.500,712017.800,176656.800,686834.900,187104.000,0.000
189091.400,210600.900,712067.200,332496.600,712023.800,176822.800,687148.400,187369.800,0.000
188929.800,210453.500,712059.400,332371.400,712015.900,176688.500,687056.200,187254.500,0.000
188583.700,210197.900,712050.700,332166.600,712007.200,176437.300,686635.200,186918.900,0.000
188529.300,210187.400,712054.300,332155.700,712011.100,176414.500,686417.600,186827.000,0.000
188842.700,210436.900,712063.400,332351.700,712020.300,176649.600,686646.600,187103.400,0.000
189097.000,210606.700,712068.100,332485.200,712025.100,176823.600,686963.600,187372.700,0.000
188933.100,210455.400,712058.500,332360.400,712015.100,176688.200,686868.100,187251.800,0.000
188586.400,210200.600,712049.300,332157.500,712006.000,176439.000,686442.800,186915.000,0.000
188532.400,210192.000,712054.900,332151.000,712011.400,176420.000,686224.600,186826.000,0.000
188846.000,210438.200,712065.200,332346.000,712021.600,176654.900,686459.600,187104.500,0.000
189089.400,210598.100,712067.300,332466.100,712024.100,176817.000,686771.800,187366.100,0.000
188925.100,210446.700,712056.100,332341.500,712013.000,176683.800,686675.400,187249.300,0.000
188577.900,210194.800,712047.100,332135.700,712003.900,176438.600,686246.900,186913.000,0.000
188520.300,210185.500,712046.900,332124.200,712004.100,176415.600,686015.500,186813.900,0.000
188834.800,210437.000,712060.100,332322.900,712016.800,176657.700,686252.600,187096.200,0.000
189085.400,210597.500,712065.400,332448.400,712022.200,176825.800,686569.600,187365.100,0.000
188925.800,210445.000,712054.400,332327.400,712011.100,176693.800,686479.400,187255.600,0.000
188577.000,210188.100,712044.700,332119.000,712002.000,176437.000,686052.900,186917.000,0.000
188518.000,210175.500,712045.400,332106.100,712003.500,176407.400,685823.400,186816.600,0.000
188835.800,210431.000,712058.900,332306.800,712016.000,176649.500,686063.600,187100.000,0.000
189082.200,210591.300,712063.400,332430.200,712019.800,176818.300,686380.600,187366.900,0.000
188917.200,210440.900,712054.200,332304.400,712010.500,176685.600,686290.100,187253.900,0.000
188567.800,210185.800,712042.700,332096.100,711999.900,176433.100,685897.100,186915.000,0.000
188512.200,210176.500,712043.900,332086.800,712002.000,176408.700,685763.700,186817.200,0.000
188828.800,210427.300,712056.900,332286.500,712014.600,176647.100,685958.700,187095.700,0.000
189085.700,210595.500,712065.100,332415.300,712022.100,176820.600,686274.900,187367.100,0.000
188935.600,210455.400,712060.300,332299.000,712017.200,176695.800,686197.700,187263.900,0.000
188583.500,210195.300,712047.700,332090.900,712005.400,176440.100,685862.900,186926.000,0.000
188518.300,210179.100,712048.600,332070.600,712006.200,176407.200,685806.600,186817.000,0.000
188826.800,210424.200,712059.200,332264.300,712016.100,176641.500,685956.600,187088.500,0.000
189091.200,210602.000,712067.400,332404.000,712023.700,176821.300,686265.200,187366.900,0.000
188938.000,210455.000,712060.100,332286.800,712017.300,176698.100,686185.400,187263.900,0.000
188581.900,210191.800,712047.200,332071.700,712004.800,176445.000,685863.800,186921.300,0.000
188506.800,210169.100,712046.100,332047.100,712003.500,176407.800,685806.600,186808.100,0.000
188820.000,210421.800,712058.600,332243.900,712015.700,176642.200,685958.200,187085.000,0.000
189080.700,210595.200,712066.800,332379.500,712023.600,176820.500,686267.700,187366.400,0.000
188921.800,210446.000,712056.900,332255.500,712013.900,176690.200,686182.300,187257.500,0.000
188575.800,210190.300,712046.600,332048.800,712004.200,176439.500,685869.400,186923.500,0.000
188510.000,210172.400,712050.300,332034.000,712008.500,176408.800,685795.800,186817.500,0.000
188821.600,210421.800,712062.300,332230.200,712020.100,176642.000,685945.800,187091.400,0.000
189075.100,210587.400,712065.400,332357.400,712022.200,176809.400,686243.900,187356.700,0.000
188920.600,210438.700,712052.900,332235.800,712009.600,176679.300,686153.400,187245.400,0.000
188565.300,210176.100,712038.300,332023.500,711995.800,176422.000,685833.300,186901.900,0.000
188496.400,210156.000,712040.400,332006.000,711998.600,176390.200,685787.100,186795.100,0.000
188808.700,210405.500,712053.200,332202.300,712011.200,176629.000,685940.300,187073.500,0.000
189065.000,210577.400,712062.100,332337.200,712019.100,176808.400,686247.900,187352.600,0.000
188919.200,210439.300,712053.900,332222.800,712011.000,176686.300,686171.900,187251.600,0.000
188569.900,210181.000,712042.800,332013.500,712000.400,176435.800,685854.300,186912.200,0.000
188502.500,210160.600,712044.400,331995.000,712002.100,176403.900,685812.900,186803.000,0.000
188817.300,210413.400,712056.900,332192.600,712014.800,176643.700,685965.300,187078.800,0.000
189073.500,210582.200,712064.400,332323.200,712021.500,176818.000,686260.600,187352.600,0.000
188922.200,210439.400,712057.300,332208.100,712014.300,176696.500,686182.800,187257.700,0.000
188572.700,210183.600,712045.900,331996.800,712003.500,176445.800,685864.400,186921.500,0.000
188500.300,210162.000,712046.800,331974.200,712004.500,176409.400,685815.400,186803.600,0.000
188811.400,210410.100,712057.600,332171.100,712015.400,176641.800,685961.100,187072.000,0.000
189066.600,210578.900,712062.100,332300.400,712018.900,176813.600,686256.800,187347.500,0.000
188923.800,210440.400,712054.800,332184.700,712011.600,176691.300,686184.600,187255.100,0.000
188569.300,210177.600,712046.300,331974.800,712003.600,176437.200,685866.200,186918.600,0.000
188497.300,210159.100,712048.800,331958.900,712006.200,176404.300,685806.400,186807.000,0.000
188808.700,210411.600,712062.600,332160.100,712019.900,176644.500,685961.100,187084.600,0.000
189058.600,210571.700,712064.400,332282.300,712021.000,176808.800,686250.800,187348.700,0.000
188912.700,210433.100,712052.500,332166.300,712009.100,176683.400,686168.900,187245.900,0.000
188560.600,210175.000,712040.800,331957.000,711998.300,176428.400,685849.800,186906.500,0.000
188478.000,210144.600,712040.300,331931.100,711997.900,176387.700,685799.900,186787.500,0.000
188792.600,210401.000,712055.400,332134.100,712013.100,176630.600,685956.100,187069.200,0.000
189057.000,210577.900,712064.600,332273.700,712021.200,176811.400,686262.300,187354.100,0.000
188910.300,210438.900,712055.600,332160.000,712012.400,176686.700,686186.300,187255.400,0.000
188557.800,210181.400,712042.100,331949.500,711999.600,176436.000,685855.800,186917.700,0.000
188484.900,210159.300,712043.100,331928.500,712000.800,176401.600,685796.000,186804.300,0.000
188791.200,210404.800,712056.300,332119.900,712013.800,176631.500,685942.500,187072.500,0.000
189054.300,210580.200,712062.100,332256.400,712018.800,176810.400,686249.900,187352.200,0.000
188915.100,210446.800,712054.400,332146.700,712010.800,176695.600,686181.600,187262.800,0.000
188553.400,210177.300,712040.700,331927.500,711998.300,176432.600,685848.300,186917.300,0.000
188473.600,210144.900,712042.400,331903.200,712000.000,176391.000,685787.400,186795.400,0.000
188787.000,210393.400,712056.700,332101.000,712014.300,176627.500,685934.900,187067.400,0.000
189052.900,210570.200,712065.900,332237.300,712022.400,176809.100,686250.000,187348.100,0.000
188919.700,210444.600,712060.100,332133.700,712016.800,176694.900,686188.900,187262.800,0.000
188570.000,210188.800,712049.100,331926.200,712006.400,176442.400,685870.400,186926.500,0.000
188490.000,210159.500,712050.500,331900.900,712008.000,176401.000,685813.900,186807.200,0.000
188797.300,210402.200,712060.600,332095.000,712018.000,176632.900,685953.300,187073.400,0.000
189059.600,210574.700,712065.300,332231.500,712022.300,176812.600,686253.900,187349.700,0.000
188925.700,210446.500,712058.500,332124.300,712015.100,176700.500,686189.300,187263.700,0.000
188574.300,210185.400,712050.000,331914.100,712007.300,176448.500,685863.400,186926.700,0.000
188495.400,210158.700,712052.300,331892.000,712009.900,176410.500,685788.000,186806.900,0.000
188806.400,210408.600,712063.300,332085.200,712020.600,176644.800,685927.900,187073.700,0.000
189075.400,210589.500,712070.800,332223.100,712027.600,176828.200,686242.700,187354.600,0.000
188937.300,210459.400,712065.400,332115.900,712022.000,176715.900,686185.300,187268.400,0.000
188580.400,210191.300,712053.200,331903.500,712010.300,176457.500,685869.100,186926.800,0.000
188496.600,210159.100,712052.800,331877.400,712010.000,176413.500,685812.700,186803.000,0.000
188805.300,210407.700,712066.400,332073.300,712023.600,176646.200,685955.800,187072.900,0.000
189068.300,210582.700,712073.900,332209.700,712030.600,176822.100,686259.600,187354.200,0.000
188922.600,210443.300,712064.100,332094.000,712021.000,176699.700,686192.000,187262.300,0.000
188570.900,210182.700,712050.900,331881.000,712008.400,176441.000,685863.100,186920.100,0.000
188484.400,210149.000,712049.100,331850.200,712006.800,176393.500,685798.100,186789.800,0.000
188779.600,210383.700,712056.800,332039.800,712014.300,176618.000,685920.700,187045.900,0.000
189051.600,210565.600,712061.900,332182.600,712018.300,176804.500,686218.300,187329.100,0.000
188925.400,210442.000,712054.100,332077.800,712011.200,176694.000,686161.800,187246.000,0.000
188573.100,210181.900,712044.600,331869.400,712002.000,176443.700,685851.100,186911.400,0.000
188492.800,210152.100,712046.100,331846.300,712003.100,176405.000,685784.800,186793.600,0.000
188801.500,210399.800,712058.300,332042.200,712015.100,176638.700,685920.300,187061.800,0.000
189075.600,210583.000,712065.400,332180.400,712022.100,176823.100,686233.200,187344.600,0.000
188940.200,210452.300,712058.100,332069.000,712014.600,176704.700,686172.900,187257.200,0.000
188579.700,210186.500,712046.700,331853.200,712003.800,176442.200,685853.900,186915.500,0.000
188490.000,210149.300,712046.800,331822.400,712004.400,176396.300,685790.700,186787.600,0.000
188802.300,210402.000,712061.600,332022.000,712019.100,176634.800,685932.900,187060.100,0.000
189078.200,210585.700,712070.900,332166.100,712027.400,176822.100,686241.700,187346.300,0.000
188945.800,210455.600,712062.300,332062.300,712019.100,176712.700,686183.800,187264.600,0.000
188587.000,210187.700,712047.800,331848.700,712005.100,176451.600,685860.200,186923.000,0.000
188510.200,210163.400,712050.400,331824.800,712007.800,176408.800,685794.400,186803.200,0.000
188816.600,210407.400,712062.000,332016.900,712019.900,176636.700,685928.100,187066.000,0.000
189088.300,210586.200,712069.900,332158.400,712026.900,176817.600,686238.400,187348.500,0.000
188955.100,210454.000,712061.200,332053.900,712018.000,176704.900,686179.300,187263.300,0.000
188597.100,210190.700,712048.000,331843.000,712005.800,176448.800,685857.300,186926.000,0.000
188510.200,210162.100,712049.900,331810.500,712007.600,176405.400,685800.800,186797.800,0.000
188818.700,210412.700,712062.900,332006.200,712020.500,176640.800,685938.500,187062.900,0.000
189091.000,210595.400,712071.100,332152.900,712027.800,176830.200,686248.600,187356.300,0.000
188953.200,210461.700,712063.100,332042.300,712019.900,176716.000,686188.100,187270.300,0.000
188601.700,210202.800,712050.000,331831.300,712007.500,176460.600,685867.400,186932.300,0.000
188512.900,210169.200,712050.600,331804.300,712008.100,176412.200,685813.500,186806.000,0.000
188811.300,210409.000,712062.600,331997.000,712020.100,176638.500,685946.300,187068.100,0.000
189085.600,210593.000,712071.000,332141.900,712027.800,176827.400,686256.000,187358.000,0.000
188956.400,210463.600,712062.900,332034.200,712020.100,176716.100,686199.500,187275.500,0.000
188607.500,210202.700,712050.800,331822.800,712008.400,176461.500,685872.400,186937.800,0.000
188514.000,210162.600,712051.800,331787.800,712009.700,176409.200,685791.800,186802.800,0.000
188809.500,210403.400,712060.400,331976.100,712018.300,176633.200,685913.000,187057.400,0.000
189076.200,210585.600,712063.900,332117.900,712021.100,176814.600,686216.000,187339.200,0.000
188950.600,210462.600,712056.600,332015.200,712013.100,176708.300,686166.100,187261.900,0.000
188599.800,210200.400,712047.500,331802.000,712004.700,176456.000,685855.600,186924.100,0.000
188508.900,210160.100,712051.100,331771.700,712008.500,176404.100,685791.400,186792.000,0.000
188811.700,210404.600,712062.900,331965.800,712019.900,176632.200,685925.400,187058.400,0.000
189080.800,210586.600,712067.500,332105.300,712023.900,176815.400,686229.300,187343.500,0.000
188964.100,210471.500,712063.700,332007.300,712020.300,176717.600,686188.600,187274.000,0.000
188607.600,210206.400,712052.100,331792.800,712009.500,176463.700,685869.800,186936.400,0.000
188507.800,210164.000,712051.800,331756.400,712009.400,176408.600,685790.000,186801.900,0.000
188810.900,210409.700,712066.100,331952.400,712024.100,176640.800,685925.400,187068.100,0.000
189089.900,210599.100,712074.700,332100.800,712031.500,176833.500,686247.300,187362.700,0.000
188964.400,210473.100,712067.300,331997.500,712024.000,176724.800,686199.300,187284.000,0.000
188604.900,210204.200,712053.100,331781.000,712010.200,176461.900,685864.600,186936.800,0.000
188509.500,210162.400,712051.600,331745.600,712008.900,176404.800,685787.800,186797.200,0.000
188806.500,210401.100,712059.800,331932.100,712017.000,176629.100,685910.700,187054.100,0.000
189088.900,210596.200,712068.900,332083.600,712025.100,176828.500,686225.400,187353.800,0.000
188968.100,210478.600,712063.500,331985.300,712019.800,176729.700,686184.400,187285.400,0.000
188611.200,210213.800,712054.600,331771.600,712011.900,176475.400,685864.600,186951.100,0.000
188501.000,210162.800,712055.000,331730.400,712012.400,176417.400,685800.400,186811.300,0.000
188797.000,210407.300,712063.800,331915.700,712021.200,176639.900,685931.600,187066.300,0.000
189076.500,210597.000,712072.600,332060.600,712029.000,176830.800,686243.600,187360.000,0.000
188961.100,210481.800,712066.000,331961.700,712022.400,176728.900,686201.400,187288.000,0.000
188601.400,210210.500,712053.400,331745.600,712010.800,176463.000,685869.600,186943.100,0.000
188493.100,210157.200,712051.600,331705.500,712008.900,176400.300,685786.400,186799.900,0.000
188787.300,210395.500,712064.600,331897.000,712021.900,176629.400,685917.500,187060.700,0.000
189079.300,210597.200,712075.800,332052.500,712032.400,176829.800,686242.900,187363.700,0.000
188966.000,210481.300,712069.800,331956.800,712026.300,176728.200,686204.300,187293.200,0.000
188603.500,210207.900,712052.700,331734.500,712010.000,176462.300,685868.500,186944.700,0.000
188498.800,210158.600,712052.100,331694.400,712009.900,176400.700,685789.900,186802.400,0.000
188799.000,210402.700,712065.100,331888.000,712023.000,176632.200,685918.800,187062.700,0.000
189075.500,210589.500,712073.900,332033.900,712030.800,176826.800,686233.600,187358.700,0.000
188951.000,210467.000,712063.400,331930.200,712020.400,176717.000,686182.400,187280.500,0.000
188587.000,210195.100,712046.600,331712.000,712004.100,176450.600,685859.200,186932.000,0.000
188480.500,210141.400,712045.300,331669.300,712003.300,176391.300,685778.400,186788.700,0.000
188782.300,210386.800,712059.800,331864.100,712017.600,176624.500,685909.600,187053.400,0.000
189069.900,210583.500,712070.300,332021.800,712027.200,176822.700,686232.600,187355.100,0.000
188959.300,210474.700,712067.200,331930.900,712023.900,176733.800,686205.800,187294.800,0.000
188601.300,210211.000,712055.800,331713.000,712013.300,176478.900,685882.900,186955.300,0.000
188491.300,210157.500,712051.600,331666.800,712008.900,176414.300,685802.900,186804.700,0.000
188774.300,210385.700,712059.400,331846.600,712017.400,176623.800,685912.100,187046.900,0.000
189049.400,210571.800,712065.400,331990.000,712022.100,176812.000,686214.600,187337.800,0.000
188939.800,210458.200,712058.300,331896.400,712015.100,176717.300,686178.900,187274.000,0.000
188597.600,210207.300,712050.500,331694.600,712007.600,176474.500,685874.500,186948.600,0.000
188505.500,210173.000,712054.600,331663.200,712012.000,176429.800,685803.300,186814.800,0.000
188792.500,210403.900,712064.900,331847.500,712022.600,176653.700,685917.800,187066.300,0.000
189068.200,210587.500,712072.300,331992.100,712029.000,176841.500,686228.600,187356.000,0.000
188952.000,210466.600,712064.400,331892.600,712021.000,176735.200,686188.400,187282.900,0.000
188595.900,210200.500,712051.500,331676.100,712008.800,176475.400,685877.300,186943.800,0.000
188488.500,210150.400,712051.100,331633.800,712008.500,176412.200,685809.500,186797.700,0.000
188783.700,210388.100,712062.100,331823.300,712019.100,176634.100,685933.600,187051.200,0.000
189064.400,210576.600,712069.200,331969.300,712025.300,176825.400,686242.400,187344.000,0.000
188954.000,210467.900,712065.600,331875.100,712022.100,176730.000,686216.300,187284.300,0.000
188602.300,210207.800,712055.800,331663.300,712013.400,176473.600,685888.900,186950.900,0.000
188497.500,210158.100,712056.300,331625.900,712014.300,176414.400,685807.800,186807.800,0.000
188783.600,210384.500,712064.800,331810.600,712023.000,176631.500,685925.300,187054.700,0.000
189060.600,210571.200,712070.300,331956.300,712027.600,176821.000,686231.800,187342.600,0.000
188949.500,210459.800,712061.700,331861.200,712018.900,176725.100,686191.800,187276.600,0.000
188592.900,210198.600,712047.800,331649.800,712005.600,176470.500,685868.800,186942.200,0.000
188485.600,210151.200,712048.000,331611.900,712005.800,176412.600,685804.800,186801.700,0.000
188777.400,210388.800,712062.700,331799.400,712020.200,176637.900,685932.300,187053.800,0.000
189065.900,210583.800,712073.100,331954.900,712029.900,176834.600,686246.100,187352.500,0.000
188949.400,210466.700,712061.100,331856.700,712018.100,176727.900,686204.300,187282.200,0.000
188588.200,210201.500,712048.400,331637.100,712005.600,176466.900,685883.700,186939.500,0.000
188475.900,210145.700,712047.100,331592.000,712004.200,176403.400,685804.100,186790.500,0.000
188765.900,210376.200,712056.000,331779.800,712013.100,176622.700,685917.500,187036.100,0.000
189061.200,210580.500,712067.100,331941.100,712023.700,176824.500,686239.100,187340.200,0.000
188958.600,210476.200,712062.300,331853.800,712019.100,176734.600,686216.300,187285.500,0.000
188598.700,210207.900,712047.900,331632.000,712005.600,176474.500,685877.400,186943.200,0.000
188491.400,210156.800,712047.800,331587.100,712005.600,176410.800,685804.100,186796.600,0.000
188779.700,210389.200,712062.300,331777.300,712019.700,176633.700,685931.900,187047.900,0.000
189067.600,210584.500,712071.400,331934.300,712028.400,176837.100,686249.400,187352.100,0.000
188965.800,210478.200,712065.000,331842.800,712021.600,176742.800,686222.400,187292.300,0.000
188609.800,210214.800,712049.800,331627.700,712007.600,176483.400,685880.600,186953.200,0.000
188495.900,210160.000,712048.800,331584.900,712006.800,176424.700,685798.100,186805.500,0.000
188778.200,210384.400,712058.900,331765.300,712016.400,176639.400,685914.800,187047.400,0.000
189068.300,210583.200,712068.900,331917.000,712025.500,176836.400,686234.700,187349.900,0.000
188964.000,210477.300,712061.700,331826.200,712018.800,176738.700,686209.300,187292.300,0.000
188607.200,210210.900,712051.300,331612.700,712008.900,176481.600,685880.800,186959.900,0.000
188489.300,210153.600,712054.900,331569.500,712012.400,176417.500,685805.600,186811.700,0.000
188770.100,210381.000,712064.300,331751.200,712021.900,176628.300,685916.600,187048.000,0.000
189058.800,210576.200,712070.000,331902.400,712027.000,176822.500,686223.700,187343.500,0.000
188958.300,210469.800,712060.600,331813.800,712017.200,176732.000,686197.900,187287.600,0.000
188606.900,210208.400,712047.700,331600.900,712005.100,176477.600,685875.200,186954.400,0.000
188485.800,210146.700,712050.400,331555.400,712007.800,176408.200,685788.400,186799.200,0.000
188765.900,210374.400,712062.100,331740.100,712020.100,176623.000,685895.400,187041.500,0.000
189059.400,210574.200,712070.200,331894.000,712027.200,176822.200,686209.100,187343.600,0.000
188963.800,210475.300,712063.700,331808.400,712020.300,176734.500,686189.900,187294.100,0.000
188610.000,210214.200,712052.300,331597.200,712009.800,176484.100,685876.000,186964.600,0.000
188484.800,210150.300,712051.400,331546.600,712008.900,176413.000,685800.300,186806.000,0.000
188771.300,210384.400,712064.000,331730.100,712021.600,176630.500,685913.900,187046.200,0.000
189063.000,210583.400,712072.200,331885.800,712029.500,176828.300,686223.300,187343.800,0.000
188960.200,210475.200,712064.300,331793.900,712020.900,176735.600,686198.100,187285.200,0.000
188606.900,210212.400,712051.300,331579.700,712008.600,176483.900,685875.800,186949.900,0.000
188485.200,210149.300,712051.600,331527.600,712009.100,176410.400,685791.300,186793.800,0.000
188768.600,210380.200,712064.600,331714.100,712021.800,176627.800,685905.300,187040.000,0.000
189060.300,210580.000,712072.400,331870.400,712028.800,176831.300,686224.900,187345.100,0.000
188954.700,210466.000,712063.800,331774.500,712020.100,176731.800,686196.100,187285.800,0.000
188603.800,210202.300,712051.800,331559.300,712008.800,176470.700,685876.600,186948.000,0.000
188485.800,210143.500,712052.900,331512.900,712010.200,176401.100,685797.700,186791.000,0.000
188765.800,210373.600,712063.500,331694.900,712021.200,176613.800,685905.300,187029.700,0.000
189058.800,210575.100,712072.000,331852.900,712028.800,176816.400,686224.300,187332.100,0.000
188961.800,210469.300,712065.400,331765.000,712022.100,176728.400,686207.100,187280.500,0.000
188605.400,210205.100,712053.100,331552.900,712010.400,176472.800,685883.000,186947.900,0.000
188487.700,210150.900,712052.100,331506.100,712009.600,176405.300,685807.000,186791.600,0.000
188771.100,210384.500,712063.800,331691.300,712020.800,176626.000,685921.500,187033.800,0.000
189067.300,210589.000,712072.900,331853.900,712028.600,176832.700,686240.400,187343.600,0.000
188970.700,210482.200,712064.600,331767.200,712020.600,176740.200,686219.300,187290.000,0.000
188612.500,210212.300,712049.400,331548.600,712006.600,176477.900,685889.100,186949.700,0.000
188482.600,210144.000,712048.100,331494.900,712005.300,176399.300,685804.100,186787.200,0.000
188765.200,210377.400,712060.100,331676.100,712017.600,176615.400,685912.400,187026.200,0.000
189063.000,210586.800,712068.100,331835.100,712024.500,176824.100,686229.500,187333.200,0.000
188968.600,210485.800,712060.600,331752.800,712016.600,176739.800,686215.600,187287.200,0.000
188611.000,210216.200,712049.600,331537.800,712006.900,176480.800,685890.800,186950.300,0.000
188486.100,210152.800,712050.300,331487.900,712007.500,176408.100,685799.800,186790.300,0.000
188764.200,210381.600,712061.100,331671.400,712018.300,176624.500,685907.200,187032.500,0.000
189060.500,210582.900,712070.400,331830.500,712026.800,176830.000,686228.400,187339.200,0.000
188971.800,210486.300,712062.500,331746.300,712018.800,176746.500,686214.900,187291.400,0.000
188612.800,210219.800,712049.900,331526.500,712006.600,176487.000,685890.100,186952.600,0.000
188484.100,210152.400,712049.600,331472.400,712007.200,176414.000,685797.100,186788.000,0.000
188764.600,210380.500,712062.400,331656.000,712020.100,176629.400,685900.800,187025.400,0.000
189065.700,210588.100,712074.600,331818.900,712031.500,176836.400,686228.400,187335.700,0.000
188975.800,210488.300,712068.900,331736.200,712025.700,176753.800,686219.100,187290.700,0.000
188614.100,210216.200,712053.600,331517.900,712011.100,176490.500,685891.500,186950.700,0.000
188484.200,210146.700,712051.500,331466.900,712008.900,176413.200,685802.900,186785.300,0.000
188763.900,210376.300,712062.300,331653.200,712020.300,176627.300,685908.800,187022.600,0.000
189062.500,210579.800,712069.800,331812.300,712027.000,176830.100,686219.900,187325.100,0.000
188976.000,210483.100,712063.100,331730.400,712019.900,176744.100,686209.100,187281.900,0.000
188619.300,210213.500,712050.400,331514.900,712007.700,176484.700,685886.300,186947.200,0.000
188490.100,210147.700,712050.400,331462.200,712008.000,176407.000,685798.300,186783.300,0.000
188766.100,210375.400,712061.000,331643.700,712018.600,176618.700,685901.100,187018.700,0.000
189073.200,210587.200,712071.100,331810.200,712027.800,176831.200,686220.900,187330.800,0.000
188990.600,210495.200,712064.100,331730.200,712020.800,176753.800,686217.800,187295.100,0.000
188633.900,210227.500,712052.300,331511.100,712009.600,176494.200,685889.500,186962.400,0.000
188497.100,210153.000,712051.400,331452.100,712008.900,176409.700,685794.100,186792.200,0.000
188774.300,210379.100,712062.800,331633.600,712020.600,176623.000,685904.800,187027.300,0.000
189072.600,210584.400,712073.300,331795.100,712029.600,176828.100,686223.300,187334.700,0.000
188982.700,210485.900,712064.800,331714.000,712021.200,176746.800,686214.100,187293.900,0.000
188625.000,210218.900,712052.100,331497.800,712009.300,176486.400,685890.300,186957.100,0.000
188499.000,210154.400,712053.800,331444.800,712010.800,176413.000,685807.200,186794.100,0.000
188769.300,210377.100,712065.100,331620.600,712022.000,176621.300,685901.900,187022.500,0.000
189067.000,210583.400,712071.400,331781.100,712027.900,176826.300,686214.800,187327.800,0.000
188984.100,210488.800,712064.200,331701.800,712020.800,176748.300,686211.400,187290.700,0.000
188616.600,210210.600,712046.400,331476.900,712003.600,176477.000,685881.800,186944.500,0.000
188478.800,210140.600,712045.800,331418.200,712002.900,176396.000,685806.400,186772.200,0.000
188757.600,210376.700,712060.600,331602.400,712018.200,176615.300,685925.700,187010.700,0.000
189067.300,210595.300,712071.800,331772.100,712028.800,176830.100,686241.800,187328.500,0.000
188996.300,210513.900,712068.300,331702.400,712024.800,176762.600,686253.300,187302.800,0.000
188640.000,210245.000,712057.100,331483.400,712014.300,176505.100,685911.900,186969.800,0.000
188504.100,210172.600,712057.700,331427.300,712015.400,176425.300,685810.200,186806.400,0.000
188769.700,210388.000,712070.100,331604.300,712027.900,176631.600,685919.300,187036.400,0.000
189065.200,210592.400,712077.800,331766.700,712034.200,176837.100,686237.100,187342.600,0.000
188986.100,210503.900,712070.200,331689.200,712027.200,176759.300,686237.100,187308.200,0.000
188622.100,210229.800,712057.700,331467.300,712015.100,176498.000,685898.900,186969.900,0.000
188475.500,210146.700,712054.200,331398.400,712011.600,176404.900,685792.900,186789.200,0.000
188749.800,210368.800,712063.900,331575.900,712021.300,176609.400,685890.300,187014.200,0.000
189053.800,210579.600,712071.700,331740.800,712028.400,176818.600,686207.200,187322.900,0.000
188978.000,210492.100,712065.100,331667.300,712022.100,176746.100,686212.100,187290.500,0.000
188620.500,210222.700,712054.000,331452.500,712011.600,176492.400,685886.200,186960.300,0.000
188482.000,210148.000,712054.100,331393.200,712011.400,176408.500,685806.400,186786.400,0.000
188751.000,210368.900,712062.800,331569.200,712019.600,176614.200,685911.700,187007.400,0.000
189052.700,210576.700,712070.200,331733.200,712026.600,176824.000,686210.100,187315.600,0.000
188979.000,210493.000,712064.400,331661.700,712020.900,176756.800,686217.000,187290.300,0.000
188626.700,210231.100,712051.900,331446.100,712009.400,176502.300,685892.600,186963.000,0.000
188479.800,210150.400,712051.100,331382.600,712008.500,176411.500,685793.500,186789.300,0.000
188745.200,210367.100,712062.400,331556.400,712020.300,176613.900,685889.100,187015.500,0.000
189049.100,210576.300,712070.800,331721.200,712027.900,176823.500,686208.300,187328.400,0.000
188970.500,210484.300,712063.400,331644.700,712020.800,176749.100,686210.100,187295.600,0.000
188617.600,210219.400,712051.900,331429.800,712009.500,176494.100,685891.000,186965.700,0.000
188480.500,210149.000,712052.300,331369.000,712010.200,176411.200,685798.900,186790.700,0.000
188748.200,210371.000,712063.500,331546.800,712021.300,176620.000,685898.600,187017.600,0.000
189057.200,210585.800,712072.600,331713.800,712029.300,176832.200,686217.400,187333.800,0.000
188981.500,210496.300,712065.200,331636.500,712022.200,176755.700,686220.900,187301.500,0.000
188622.600,210221.600,712051.000,331416.600,712008.700,176494.500,685893.200,186962.500,0.000
188483.700,210148.700,712052.400,331358.200,712009.900,176410.300,685801.700,186788.700,0.000
188750.500,210371.900,712063.100,331536.500,712020.800,176619.600,685897.100,187012.200,0.000
189056.300,210581.600,712072.100,331702.500,712029.100,176832.700,686214.300,187325.000,0.000
188981.400,210491.100,712064.400,331628.800,712021.400,176761.000,686222.100,187296.400,0.000
188621.600,210220.000,712050.100,331409.600,712007.900,176500.000,685896.800,186960.800,0.000
188473.200,210136.400,712050.400,331345.400,712007.800,176409.900,685803.100,186781.900,0.000
188747.000,210364.000,712062.600,331523.200,712020.100,176617.200,685901.400,187008.300,0.000
189056.300,210580.400,712073.300,331692.900,712029.900,176832.000,686223.400,187325.200,0.000
188984.200,210494.700,712066.400,331621.600,712022.800,176758.700,686230.700,187298.200,0.000
188630.600,210230.100,712052.800,331406.500,712010.200,176502.400,685896.300,186966.300,0.000
188485.800,210152.700,712049.800,331345.800,712007.500,176416.300,685791.900,186788.600,0.000
188749.500,210373.600,712061.600,331522.800,712019.700,176623.400,685884.900,187011.500,0.000
189056.100,210588.800,712071.000,331693.500,712027.900,176838.100,686204.900,187328.300,0.000
188989.600,210510.400,712065.600,331625.500,712022.300,176771.500,686218.800,187305.900,0.000
188638.400,210243.500,712053.600,331407.300,712010.900,176511.700,685894.300,186975.100,0.000
188488.300,210159.300,712050.600,331338.900,712008.000,176417.300,685788.500,186791.700,0.000
188747.200,210372.000,712061.200,331511.500,712018.700,176619.600,685873.700,187009.900,0.000
189054.200,210582.800,712072.000,331680.600,712028.400,176833.500,686194.500,187326.800,0.000
188991.000,210498.500,712066.200,331610.300,712022.800,176760.100,686213.900,187306.900,0.000
188636.000,210226.600,712053.600,331392.200,712010.800,176498.100,685891.400,186972.900,0.000
188491.000,210150.000,712053.600,331329.800,712010.800,176406.700,685804.600,186790.000,0.000
188751.600,210373.500,712065.300,331507.800,712022.400,176613.900,685908.800,187011.700,0.000
189060.100,210588.400,712074.100,331677.400,712030.300,176830.300,686220.100,187332.800,0.000
188986.900,210499.300,712064.300,331602.900,712020.200,176757.200,686225.100,187307.700,0.000
188632.500,210234.000,712050.400,331387.300,712007.100,176499.200,685901.900,186979.200,0.000
188481.000,210149.500,712050.000,331319.900,712007.100,176406.400,685804.800,186796.500,0.000
188744.700,210370.000,712061.600,331495.000,712019.100,176613.300,685896.900,187017.300,0.000
189059.000,210590.200,712073.300,331668.900,712029.900,176835.800,686217.800,187338.600,0.000
188995.500,210511.000,712065.900,331599.600,712022.600,176771.900,686234.300,187318.900,0.000
188642.700,210241.500,712051.800,331381.200,712009.100,176514.500,685905.900,186989.200,0.000
188493.900,210155.400,712052.100,331308.600,712009.100,176420.800,685804.300,186806.600,0.000
188744.800,210364.000,712061.300,331473.800,712018.600,176617.800,685887.400,187015.600,0.000
189051.300,210576.600,712069.200,331641.400,712025.900,176833.400,686200.200,187327.800,0.000
188991.900,210500.600,712063.100,331575.700,712019.400,176772.900,686222.400,187314.300,0.000
188642.700,210238.100,712054.800,331363.700,712011.200,176520.400,685910.800,186993.000,0.000
188480.800,210143.800,712051.900,331288.300,712008.500,176417.900,685806.000,186800.400,0.000
188735.200,210355.900,712062.100,331456.000,712018.900,176617.100,685889.900,187011.800,0.000
189046.500,210575.700,712071.800,331626.600,712027.800,176839.700,686208.000,187333.400,0.000
188987.000,210501.400,712066.800,331564.500,712022.600,176779.200,686233.300,187322.900,0.000
188635.800,210237.300,712054.200,331351.500,712010.800,176523.200,685905.300,186997.800,0.000
188475.600,210146.500,712051.900,331277.500,712008.800,176423.100,685798.400,186808.400,0.000
188729.000,210358.400,712060.100,331446.300,712016.800,176619.700,685886.400,187018.800,0.000
189039.000,210571.800,712067.500,331616.700,712023.700,176838.200,686199.800,187333.800,0.000
188980.600,210494.700,712062.700,331551.200,712018.900,176774.600,686222.100,187319.100,0.000
188632.800,210231.400,712051.900,331338.900,712008.900,176521.400,685902.600,186998.900,0.000
188480.100,210144.300,712053.900,331269.200,712011.200,176422.000,685805.800,186813.100,0.000
188731.500,210351.900,712062.800,331435.700,712019.900,176612.000,685892.800,187015.400,0.000
189041.000,210564.900,712071.100,331607.700,712027.300,176828.600,686203.300,187329.400,0.000
188980.700,210486.200,712064.100,331541.600,712020.500,176765.900,686225.700,187313.700,0.000
188624.500,210219.700,712050.500,331321.500,712007.900,176507.400,685909.600,186982.500,0.000
188466.200,210130.600,712048.300,331247.300,712005.400,176408.700,685809.800,186791.200,0.000
188722.400,210346.400,712057.900,331418.900,712015.200,176608.800,685894.900,187003.400,0.000
189037.500,210568.900,712068.400,331595.800,712025.300,176832.700,686214.700,187329.400,0.000
188980.700,210495.600,712061.700,331534.300,712018.300,176773.700,686240.100,187318.600,0.000
188636.100,210234.800,712051.300,331321.300,712008.900,176522.800,685906.300,186996.800,0.000
188473.200,210138.400,712051.600,331244.700,712009.400,176416.800,685795.800,186801.000,0.000
188725.900,210351.900,712060.800,331415.500,712018.300,176610.000,685899.000,187008.700,0.000
189046.300,210577.000,712071.300,331596.300,712028.100,176836.500,686209.900,187333.400,0.000
188992.600,210500.600,712064.900,331531.700,712021.900,176777.600,686239.100,187324.100,0.000
188636.300,210227.300,712051.900,331309.300,712009.700,176514.800,685914.200,186993.900,0.000
188469.500,210127.700,712047.800,331226.900,712005.300,176406.800,685801.600,186793.400,0.000
188719.600,210337.700,712057.300,331393.400,712015.200,176601.000,685885.900,186997.300,0.000
189039.700,210564.300,712069.800,331573.500,712027.000,176828.200,686209.100,187321.900,0.000
188981.600,210488.300,712062.100,331509.800,712019.300,176766.600,686235.100,187308.500,0.000
188630.000,210220.000,712048.200,331295.400,712005.600,176509.900,685902.500,186982.900,0.000
188471.700,210126.000,712047.400,331222.700,712004.700,176406.400,685786.900,186791.500,0.000
188719.200,210330.300,712054.200,331386.200,712011.600,176591.400,685872.600,186992.100,0.000
189038.600,210558.500,712063.900,331564.500,712020.800,176814.500,686187.600,187315.600,0.000
188985.700,210491.600,712060.100,331509.000,712016.600,176763.300,686225.400,187314.200,0.000
188641.800,210231.200,712050.300,331297.500,712007.700,176515.800,685902.900,186996.800,0.000
188481.700,210138.100,712049.100,331221.900,712006.000,176415.400,685794.300,186801.400,0.000
188723.800,210338.100,712056.100,331381.300,712013.600,176599.700,685867.700,186994.300,0.000
189043.400,210563.400,712066.600,331558.900,712023.700,176824.500,686188.300,187321.200,0.000
188991.800,210495.300,712061.900,331498.200,712018.900,176768.900,686225.300,187319.500,0.000
188635.100,210222.000,712048.300,331276.000,712005.400,176504.500,685900.100,186988.100,0.000
188464.900,210118.800,712046.500,331195.200,712003.600,176396.200,685795.200,186790.400,0.000
188713.500,210330.900,712057.800,331361.800,712015.100,176593.400,685877.100,186995.500,0.000
189030.000,210559.100,712066.600,331538.000,712023.400,176818.000,686192.800,187318.200,0.000
188989.700,210499.800,712062.900,331488.600,712019.700,176773.700,686237.800,187322.600,0.000
188636.800,210231.000,712051.300,331272.900,712008.900,176518.500,685919.000,186998.400,0.000
188463.800,210128.000,712048.800,331191.700,712006.100,176410.600,685802.300,186796.700,0.000
188707.100,210332.400,712057.800,331355.100,712015.200,176597.900,685878.000,186994.600,0.000
189023.400,210558.000,712065.600,331533.200,712022.400,176820.300,686190.400,187318.200,0.000
188975.400,210490.300,712059.400,331473.800,712016.000,176770.600,686227.600,187316.500,0.000
188633.900,210231.000,712048.800,331259.700,712006.100,176516.700,685907.500,186994.600,0.000
188466.200,210130.400,712047.700,331179.400,712004.800,176405.600,685792.100,186793.200,0.000
188713.100,210336.100,712059.000,331343.900,712016.600,176596.300,685879.600,186993.700,0.000
189028.300,210555.500,712068.900,331519.400,712025.400,176819.800,686194.600,187314.100,0.000
188987.000,210492.600,712063.700,331464.100,712020.200,176768.600,686236.600,187313.600,0.000
188631.900,210220.000,712050.700,331248.800,712007.600,176512.500,685910.500,186988.800,0.000
188464.200,210121.300,712049.100,331170.400,712005.900,176406.300,685798.400,186785.000,0.000
188717.400,210336.300,712061.400,331340.400,712018.500,176603.600,685886.400,186988.200,0.000
189034.400,210561.300,712070.600,331518.600,712027.100,176830.100,686200.000,187311.700,0.000
188988.800,210494.400,712066.600,331462.800,712023.000,176779.000,686240.900,187315.000,0.000
188637.200,210226.400,712052.900,331248.300,712010.400,176523.200,685921.700,186993.500,0.000
188463.800,210123.600,712050.300,331168.000,712007.600,176414.700,685812.300,186791.600,0.000
188714.600,210337.400,712062.700,331335.500,712020.100,176607.000,685896.800,186995.000,0.000
189036.100,210565.200,712072.700,331516.100,712029.100,176832.300,686211.800,187323.500,0.000
188994.400,210503.700,712066.500,331460.000,712023.200,176785.100,686255.600,187328.100,0.000
188642.800,210235.500,712054.100,331240.100,712011.200,176527.000,685924.100,187003.700,0.000
188466.200,210127.800,712051.600,331153.000,712008.900,176413.200,685798.900,186794.300,0.000
188701.300,210325.500,712063.100,331312.000,712020.800,176601.000,685881.600,186988.400,0.000
189020.700,210552.200,712073.100,331493.700,712029.300,176824.300,686193.100,187314.300,0.000
188989.100,210497.700,712067.300,331447.300,712023.400,176780.800,686243.100,187325.300,0.000
188640.300,210231.100,712051.900,331231.500,712008.900,176527.400,685916.000,187003.300,0.000
188468.700,210131.400,712051.700,331149.100,712008.300,176416.000,685809.800,186799.400,0.000
188711.400,210337.100,712063.900,331314.400,712021.100,176605.700,685897.600,186997.900,0.000
189038.500,210569.900,712075.100,331499.500,712031.800,176838.900,686213.900,187329.200,0.000
188999.500,210507.200,712071.100,331448.900,712027.600,176792.700,686263.400,187337.000,0.000
188653.800,210244.400,712058.900,331235.700,712015.900,176543.300,685935.300,187021.200,0.000
188477.600,210139.100,712055.300,331151.600,712012.700,176430.600,685805.600,186814.400,0.000
188710.300,210338.100,712063.400,331309.900,712020.800,176611.900,685877.100,187002.500,0.000
189034.700,210571.100,712073.500,331493.700,712029.900,176841.700,686191.100,187329.600,0.000
188999.700,210513.500,712068.600,331445.400,712025.100,176797.800,686243.000,187339.500,0.000
188652.000,210250.400,712056.100,331230.300,712013.400,176544.800,685921.900,187020.400,0.000
188475.000,210145.300,712054.100,331142.200,712011.600,176428.900,685805.600,186810.700,0.000
188708.500,210342.100,712061.200,331297.900,712018.400,176609.000,685891.100,186995.100,0.000
189031.300,210569.200,712072.000,331481.100,712028.300,176835.900,686193.900,187318.400,0.000
189000.000,210512.700,712068.800,331434.900,712025.300,176794.600,686248.100,187331.900,0.000
188653.700,210246.900,712056.000,331218.500,712013.800,176541.200,685927.900,187013.800,0.000
188478.300,210142.600,712054.000,331134.000,712011.800,176428.400,685807.800,186807.800,0.000
188709.300,210337.000,712063.100,331288.400,712020.800,176607.000,685875.000,186990.900,0.000
189040.700,210575.900,712075.600,331474.500,712032.100,176840.000,686198.300,187321.800,0.000
189007.500,210518.700,712070.600,331427.800,712026.900,176798.800,686253.600,187336.300,0.000
188650.300,210243.300,712054.800,331205.400,712012.300,176536.500,685921.600,187007.900,0.000
188472.500,210141.500,712054.100,331123.100,712011.600,176424.900,685809.900,186802.400,0.000
188708.300,210341.900,712064.500,331282.000,712021.900,176611.200,685889.100,186995.100,0.000
189029.300,210569.500,712073.100,331461.800,712029.900,176839.300,686195.300,187321.000,0.000
189004.200,210519.800,712069.800,331418.500,712026.100,176802.200,686254.400,187339.000,0.000
188663.600,210258.900,712059.900,331206.800,712017.000,176555.100,685931.100,187024.500,0.000
188479.400,210148.900,712055.300,331119.300,712012.700,176437.900,685802.300,186809.700,0.000
188707.600,210346.100,712064.800,331277.700,712022.600,176619.200,685879.700,186995.200,0.000
189033.100,210578.600,712075.400,331460.800,712032.100,176848.900,686194.900,187324.700,0.000
189002.700,210519.800,712071.600,331413.700,712028.100,176804.600,686252.100,187339.800,0.000
188655.300,210252.700,712059.300,331194.400,712016.000,176547.800,685933.800,187021.200,0.000
188476.500,210145.500,712057.900,331107.400,712014.400,176433.000,685820.600,186812.200,0.000
188706.200,210341.400,712067.200,331264.400,712023.700,176614.900,685894.300,186998.200,0.000
189028.800,210567.800,712077.100,331444.800,712033.300,176842.600,686199.600,187321.600,0.000
188999.300,210511.500,712066.500,331397.300,712022.600,176797.800,686244.800,187328.300,0.000
188653.600,210246.600,712053.200,331184.800,712010.000,176543.600,685925.900,187005.600,0.000
188476.900,210143.500,712052.100,331101.600,712008.800,176431.500,685807.500,186793.400,0.000
188718.300,210351.600,712065.200,331266.900,712022.100,176623.200,685883.500,186989.700,0.000
189046.100,210583.200,712075.800,331448.800,712031.700,176850.700,686198.300,187320.900,0.000
189016.100,210526.900,712069.300,331400.600,712025.100,176810.000,686254.400,187337.100,0.000
188663.600,210258.000,712055.900,331183.900,712012.500,176555.500,685934.800,187016.900,0.000
188474.300,210140.800,712052.100,331091.600,712008.700,176435.200,685810.200,186799.700,0.000
188704.700,210338.300,712062.300,331247.300,712019.400,176618.000,685881.300,186987.100,0.000
189034.300,210578.000,712073.800,331434.500,712030.300,176855.000,686202.000,187322.400,0.000
189008.100,210528.400,712069.700,331391.300,712026.300,176819.900,686266.800,187341.800,0.000
188659.800,210260.100,712057.300,331175.000,712014.900,176562.600,685939.300,187020.500,0.000
188474.400,210145.800,712052.300,331082.600,712009.900,176438.000,685807.300,186803.200,0.000
188699.100,210339.000,712061.000,331237.100,712018.100,176615.100,685873.300,186981.600,0.000
189025.800,210572.300,712071.600,331422.200,712028.200,176846.400,686184.100,187309.200,0.000
189003.900,210522.800,712067.700,331380.400,712024.100,176812.200,686248.600,187331.700,0.000
188660.700,210263.900,712057.900,331172.200,712015.100,176567.300,685941.800,187025.500,0.000
188477.100,210155.300,712054.300,331083.300,712011.800,176447.900,685813.700,186813.300,0.000
188704.700,210346.400,712063.400,331236.300,712020.800,176624.800,685869.400,186994.600,0.000
189035.500,210581.700,712077.100,331421.400,712033.600,176858.900,686193.700,187328.600,0.000
189015.200,210533.100,712073.500,331375.300,712029.900,176821.700,686262.600,187350.000,0.000
188671.800,210267.900,712060.300,331159.300,712017.400,176562.800,685946.300,187032.600,0.000
188474.500,210143.300,712056.100,331064.200,712013.300,176435.600,685816.900,186810.100,0.000
188698.400,210333.000,712063.400,331217.200,712020.800,176610.400,685880.600,186984.300,0.000
189030.100,210572.400,712075.400,331406.300,712031.800,176846.900,686190.400,187313.500,0.000
189010.400,210526.100,712069.500,331364.000,712025.900,176810.300,686256.800,187335.600,0.000
188667.900,210262.100,712055.400,331150.600,712013.000,176557.100,685935.600,187023.100,0.000
188484.200,210151.000,712055.600,331063.300,712013.300,176441.200,685807.900,186813.000,0.000
188708.500,210340.000,712065.800,331219.000,712023.400,176618.000,685877.400,186993.500,0.000
189035.200,210569.300,712078.900,331403.900,712035.800,176848.300,686192.900,187323.500,0.000
189012.700,210521.300,712072.000,331361.400,712028.400,176814.900,686253.100,187343.500,0.000
188674.300,210266.600,712059.400,331150.800,712016.400,176567.900,685940.000,187033.900,0.000
188479.200,210146.400,712056.300,331053.800,712013.900,176440.300,685814.300,186813.100,0.000
188695.500,210329.800,712064.500,331202.500,712022.600,176609.500,685875.600,186984.900,0.000
189024.900,210562.900,712075.800,331388.000,712032.600,176840.500,686181.900,187313.100,0.000
189011.600,210520.000,712070.900,331350.800,712027.300,176810.600,686253.500,187340.700,0.000
188665.700,210252.900,712058.300,331137.000,712015.600,176557.000,685935.200,187024.500,0.000
188475.500,210137.000,712055.000,331042.800,712012.100,176432.300,685805.300,186802.800,0.000
188698.900,210327.300,712064.600,331195.300,712021.800,176608.200,685868.300,186974.900,0.000
189025.800,210559.500,712075.100,331381.200,712031.400,176838.800,686171.400,187302.800,0.000
189010.900,210514.800,712068.900,331340.700,712025.400,176805.800,686240.300,187328.500,0.000
188670.500,210257.900,712057.100,331130.600,712014.100,176560.400,685933.300,187021.000,0.000
188473.900,210137.500,712054.900,331031.500,712012.100,176431.500,685805.600,186796.000,0.000
188699.700,210329.200,712066.100,331184.100,712023.600,176608.000,685876.200,186972.800,0.000
189030.000,210565.300,712074.900,331370.800,712031.700,176841.700,686182.800,187302.700,0.000
189010.200,210517.400,712068.300,331330.600,712024.500,176807.700,686248.100,187326.800,0.000
188665.100,210251.800,712053.200,331117.100,712010.600,176555.700,685929.600,187013.600,0.000
188474.900,210138.400,712053.600,331022.800,712010.600,176435.600,685811.600,186798.500,0.000
188698.400,210329.800,712067.400,331174.000,712024.600,176608.900,685886.100,186977.700,0.000
189027.700,210562.700,712076.800,331360.000,712033.400,176838.600,686187.800,187302.400,0.000
189020.800,210528.200,712072.300,331330.000,712028.600,176813.600,686262.300,187334.900,0.000
188676.500,210262.600,712062.100,331119.400,712019.600,176563.400,685948.600,187027.900,0.000
188474.000,210133.600,712056.700,331014.300,712014.100,176428.400,685803.300,186796.900,0.000
188691.800,210321.600,712066.400,331161.800,712023.900,176602.300,685865.000,186968.100,0.000
189028.400,210561.800,712079.600,331352.800,712036.400,176841.200,686186.000,187304.600,0.000
189015.300,210516.500,712074.900,331313.400,712031.600,176809.700,686257.700,187332.300,0.000
188665.600,210246.000,712058.900,331093.800,712016.300,176551.100,685944.100,187011.100,0.000
188470.300,210125.500,712052.700,331000.900,712009.900,176422.300,685808.100,186784.700,0.000
188692.700,210317.800,712063.900,331155.100,712021.500,176598.800,685858.500,186958.800,0.000
189024.300,210556.000,712075.600,331342.500,712032.600,176832.500,686171.600,187289.600,0.000
189019.000,210525.100,712072.700,331312.500,712029.300,176814.300,686255.200,187331.000,0.000
188681.300,210266.000,712061.900,331104.600,712019.100,176568.800,685950.100,187025.800,0.000
188472.200,210131.400,712055.900,330996.800,712013.400,176428.200,685807.900,186787.400,0.000
188680.500,210311.700,712062.300,331138.900,712020.500,176592.300,685857.100,186951.300,0.000
189012.800,210549.500,712072.400,331324.000,712029.800,176825.500,686164.700,187282.000,0.000
189013.000,210518.100,712071.800,331295.300,712028.700,176804.500,686253.800,187324.400,0.000
188676.300,210263.100,712061.700,331090.700,712019.300,176562.300,685945.600,187023.000,0.000
188470.700,210137.100,712055.600,330988.800,712013.300,176431.500,685804.200,186794.900,0.000
188683.400,210322.600,712066.600,331138.700,712024.700,176604.200,685866.300,186964.100,0.000
189026.400,210572.100,712081.800,331335.200,712039.100,176847.900,686189.300,187308.500,0.000
189022.400,210537.600,712079.900,331302.500,712036.700,176823.800,686277.400,187347.500,0.000
188680.700,210273.700,712065.900,331087.300,712023.400,176571.500,685959.500,187037.900,0.000
188476.700,210144.300,712060.400,330984.800,712017.700,176437.200,685814.800,186806.000,0.000
188681.700,210320.900,712067.900,331123.900,712025.400,176596.300,685867.400,186964.600,0.000
189010.900,210559.200,712079.100,331313.600,712035.700,176831.000,686175.900,187298.500,0.000
189004.000,210520.700,712076.400,331282.200,712033.000,176809.700,686256.000,187338.400,0.000
188668.100,210261.400,712060.800,331070.000,712018.000,176561.200,685941.900,187026.800,0.000
188471.500,210141.400,712056.300,330972.900,712013.800,176431.600,685808.800,186800.600,0.000
188686.900,210328.000,712068.700,331122.300,712025.900,176605.700,685877.600,186971.300,0.000
189018.300,210562.500,712078.400,331309.100,712035.100,176840.000,686179.800,187299.700,0.000
189016.500,210526.200,712076.400,331277.700,712032.800,176820.500,686268.300,187341.700,0.000
188671.200,210258.600,712065.000,331059.900,712021.800,176569.900,685965.100,187032.900,0.000
188457.800,210122.000,712059.400,330950.100,712016.300,176424.700,685817.800,186790.500,0.000
188671.700,210309.700,712067.900,331100.000,712025.300,176591.900,685868.500,186956.300,0.000
189004.300,210550.200,712078.100,331293.600,712034.800,176834.400,686175.300,187293.700,0.000
189014.300,210524.900,712077.400,331271.600,712033.600,176826.500,686275.800,187350.800,0.000
188675.900,210260.800,712065.000,331057.900,712022.400,176575.000,685961.400,187044.100,0.000
188459.900,210125.100,712057.700,330948.900,712015.100,176429.700,685804.400,186805.300,0.000
188666.000,210305.300,712066.500,331091.800,712024.100,176589.200,685865.600,186966.200,0.000
189004.700,210545.200,712078.300,331284.800,712035.300,176825.600,686168.600,187300.000,0.000
189012.700,210518.800,712076.400,331260.800,712032.600,176814.500,686262.900,187350.500,0.000
188680.700,210260.600,712065.600,331051.200,712022.600,176571.700,685954.900,187049.500,0.000
188472.400,210130.400,712061.200,330947.900,712018.300,176435.500,685815.500,186815.800,0.000
188677.200,210312.500,712071.200,331090.900,712028.600,176597.000,685883.300,186974.300,0.000
189015.000,210555.200,712083.400,331281.700,712039.600,176835.200,686189.600,187308.800,0.000
189018.900,210525.200,712079.800,331254.900,712035.800,176815.900,686280.300,187355.400,0.000
188683.900,210265.500,712067.100,331046.000,712024.800,176571.000,685967.800,187053.200,0.000
188468.800,210130.500,712061.800,330936.100,712019.700,176429.000,685811.300,186812.200,0.000
188671.800,210308.800,712071.600,331080.500,712029.200,176593.100,685868.500,186969.200,0.000
189004.300,210545.500,712081.200,331267.300,712037.900,176827.600,686164.600,187296.500,0.000
189010.900,210517.000,712075.000,331238.900,712031.400,176810.100,686251.900,187340.800,0.000
188672.900,210253.100,712059.200,331024.800,712016.000,176559.000,685942.700,187034.600,0.000
188463.500,210119.000,712057.300,330919.200,712014.300,176421.800,685805.800,186802.000,0.000
188675.100,210306.300,712069.800,331068.600,712026.900,176594.700,685866.400,186967.700,0.000
189009.800,210544.900,712080.400,331258.100,712036.700,176831.100,686168.800,187299.700,0.000
189018.500,210516.300,712077.100,331233.600,712033.300,176815.000,686263.600,187349.100,0.000
188683.000,210257.300,712064.100,331026.900,712020.800,176569.800,685954.800,187043.400,0.000
188469.600,210122.500,712061.600,330920.200,712018.300,176429.600,685811.400,186804.400,0.000
188671.800,210301.000,712069.400,331060.500,712026.500,176589.900,685869.800,186957.500,0.000
189015.700,210548.400,712080.800,331253.800,712036.900,176833.000,686179.600,187295.200,0.000
189021.400,210517.500,712079.100,331226.700,712034.900,176816.900,686277.000,187345.100,0.000
188676.600,210250.600,712064.900,331012.900,712021.600,176564.000,685968.000,187039.500,0.000
188464.900,210118.100,712060.400,330903.500,712017.100,176419.300,685829.400,186799.900,0.000
188662.900,210291.700,712065.300,331044.400,712021.900,176578.400,685878.100,186950.800,0.000
189003.000,210535.700,712075.600,331243.200,712031.800,176825.400,686176.600,187292.400,0.000
189019.100,210515.100,712074.900,331221.900,712031.200,176816.600,686280.500,187349.500,0.000
188693.400,210262.700,712063.900,331016.100,712021.000,176575.700,685969.900,187052.100,0.000
188484.800,210131.200,712061.600,330912.800,712018.900,176439.200,685810.600,186817.300,0.000
188683.200,210307.500,712070.400,331052.300,712027.900,176600.100,685867.400,186969.300,0.000
189019.900,210552.600,712082.700,331246.700,712039.200,176842.600,686174.700,187305.900,0.000
189030.400,210528.600,712079.100,331223.300,712035.300,176824.800,686271.400,187356.000,0.000
188698.700,210269.700,712065.800,331014.700,712022.900,176578.200,685961.900,187055.900,0.000
188479.200,210127.400,712061.500,330900.700,712018.700,176432.700,685812.900,186812.800,0.000
188683.500,210308.800,712073.300,331043.800,712030.600,176596.000,685887.300,186971.500,0.000
189022.100,210554.500,712086.400,331239.500,712042.900,176840.800,686189.800,187310.000,0.000
189038.300,210536.400,712083.000,331217.600,712039.200,176832.500,686288.800,187361.500,0.000
188702.500,210278.200,712068.300,331006.600,712025.300,176585.000,685978.600,187057.400,0.000
188480.900,210137.800,712063.900,330894.100,712021.500,176437.000,685820.500,186811.700,0.000
188675.300,210309.400,712070.600,331030.700,712028.800,176589.300,685864.200,186957.200,0.000
189017.200,210560.100,712081.400,331226.600,712039.100,176832.300,686170.700,187294.800,0.000
189037.700,210541.600,712081.000,331210.800,712038.100,176831.400,686281.600,187356.700,0.000
188698.800,210274.700,712065.000,330996.800,712022.300,176581.300,685973.900,187048.600,0.000
188480.100,210132.700,712058.900,330882.500,712016.300,176432.300,685818.300,186799.000,0.000
188675.900,210302.300,712067.300,331020.900,712025.100,176585.700,685858.300,186947.800,0.000
189014.200,210545.000,712077.400,331213.500,712034.000,176825.900,686160.300,187283.100,0.000
189029.500,210523.800,712075.800,331196.000,712032.400,176820.500,686268.600,187348.700,0.000
188711.600,210281.900,712067.400,330998.900,712024.900,176587.100,685975.400,187062.600,0.000
