EEG 1, EEG 2, EEG 3, EEG 4, EEG 5, EEG 6, EEG 7, EEG 8, TRIG
357060.700,396860.300,750000.100,750000.100,382633.900,357027.900,414635.900,371332.600,0.000
328937.100,364190.300,750000.100,750000.100,354081.900,330151.500,384367.200,343626.400,0.000
316965.100,349496.700,750000.100,750000.100,342096.200,318674.400,371899.300,331995.300,0.000
306955.400,337145.700,750000.100,750000.100,331890.300,308840.600,361275.900,322078.100,0.000
298133.900,326260.600,750000.100,750000.100,322685.800,299987.600,351691.300,313081.800,0.000
290278.000,316588.500,750000.100,750000.100,314300.400,291964.000,342964.400,304837.500,0.000
283318.900,307994.400,750000.100,750000.100,306716.400,284715.600,335054.700,297382.600,0.000
277160.200,300366.300,750000.100,750000.100,299944.100,278208.000,327957.200,290772.500,0.000
271597.600,293513.000,750000.100,750000.100,293832.100,272306.500,321522.500,284832.500,0.000
266440.800,287220.500,750000.100,750000.100,288138.500,266831.800,315536.800,279268.000,0.000
261692.000,281466.900,750000.100,750000.100,282832.200,261773.500,309975.000,274041.800,0.000
257340.400,276185.400,750000.100,750000.100,277887.500,257072.700,304791.800,269184.400,0.000
253447.600,271430.900,750000.100,750000.100,273447.100,252820.900,300103.300,264866.300,0.000
249863.300,267099.000,750000.100,750000.100,269405.000,248921.800,295811.600,260954.300,0.000
246474.100,263052.400,750000.100,750000.100,265595.900,245269.500,291778.300,257238.100,0.000
243299.500,259282.400,750000.100,750000.100,261974.200,241840.300,287965.700,253672.900,0.000
240357.700,255756.400,750000.100,750000.100,258546.400,238607.200,284357.500,250308.200,0.000
237698.300,252554.100,750000.100,750000.100,255446.200,235653.900,281069.900,247305.200,0.000
235212.000,249594.900,750000.100,750000.100,252612.100,232926.300,278046.200,244579.500,0.000
232841.500,246808.300,750000.100,750000.100,249907.400,230346.500,275173.100,241951.000,0.000
230520.800,244109.100,750000.100,750000.100,247236.800,227836.500,272361.900,239321.100,0.000
228418.200,241616.900,750000.100,750000.100,244737.900,225500.900,269732.500,236873.600,0.000
226579.000,239414.500,750000.100,750000.100,242555.000,223438.200,267408.300,234773.400,0.000
224802.400,237321.300,750000.100,750000.100,240505.400,221474.400,265215.300,232819.900,0.000
223052.700,235307.600,750000.100,750000.100,238511.200,219579.600,263099.700,230895.600,0.000
221350.900,233349.500,750000.100,750000.100,236526.100,217729.800,261018.700,228946.000,0.000
219801.900,231528.800,750000.100,750000.100,234647.500,215990.400,259044.900,227108.400,0.000
218436.300,229913.300,750000.100,750000.100,233005.600,214443.000,257294.000,225539.200,0.000
217146.100,228405.900,750000.100,750000.100,231509.500,213008.000,255686.400,224128.800,0.000
215870.000,226943.300,750000.100,750000.100,230037.500,211618.900,254123.700,222718.100,0.000
214597.600,225496.000,750000.100,750000.100,228536.200,210231.800,252551.600,221245.000,0.000
213421.000,224124.300,750000.100,750000.100,227097.100,208907.200,251044.000,219838.700,0.000
212393.800,222899.200,750000.100,750000.100,225833.000,207719.400,249698.100,218642.200,0.000
211431.000,221772.500,750000.100,750000.100,224687.000,206621.000,248464.500,217574.200,0.000
210458.100,220677.900,750000.100,750000.100,223563.300,205563.700,247272.200,216498.900,0.000
209479.800,219582.200,750000.100,750000.100,222400.600,204499.300,246058.600,215353.100,0.000
208599.900,218555.400,735184.100,750000.100,221287.400,203489.300,244894.900,214264.600,0.000
207825.700,217632.600,720463.400,750000.100,220313.200,202581.900,243859.000,213348.000,0.000
207111.200,216794.400,706592.300,750000.100,219457.300,201765.700,242933.300,212563.400,0.000
206361.200,215957.700,693269.700,750000.100,218581.600,200946.800,242005.900,211735.800,0.000
205623.900,215130.700,680470.600,750000.100,217682.200,200137.700,241070.500,210853.000,0.000
204937.600,214337.200,668211.800,750000.100,216802.000,199352.500,240157.100,209994.000,0.000
204357.900,213647.600,656559.900,750000.100,216055.600,198662.000,239366.500,209303.400,0.000
203806.300,213000.800,645420.900,750000.100,215383.700,198018.400,238641.200,208697.900,0.000
203219.500,212343.500,634684.000,748463.900,214692.800,197377.300,237910.900,208050.100,0.000
202634.600,211694.100,624335.100,746526.600,213970.800,196736.400,237168.200,207342.500,0.000
202141.400,211120.800,614441.800,744705.700,213308.600,196158.700,236487.100,206699.500,0.000
201685.700,210577.100,604963.100,742967.000,212708.900,195605.800,235852.300,206149.200,0.000
201291.000,210106.500,595916.100,741320.800,212213.000,195129.400,235313.900,205714.500,0.000
200862.600,209629.900,587174.400,739761.700,211702.200,194657.200,234773.600,205241.000,0.000
200393.600,209123.200,578685.800,738278.400,211126.900,194151.100,234182.300,204673.300,0.000
199964.300,208614.500,570492.400,736865.600,210533.700,193633.400,233576.500,204097.900,0.000
199654.200,208223.100,562715.300,735540.100,210088.300,193230.600,233102.200,203700.000,0.000
199379.300,207898.100,555281.000,734291.500,209738.500,192897.200,232718.900,203409.900,0.000
199048.800,207536.800,548050.900,733103.000,209341.200,192537.100,232304.200,203050.900,0.000
198667.000,207119.500,540981.400,731962.300,208852.700,192116.900,231811.000,202567.100,0.000
198352.800,206748.700,534184.300,730889.800,208396.100,191733.000,231347.600,202122.300,0.000
198104.900,206438.000,527692.400,729876.700,208034.100,191409.100,230967.600,201802.600,0.000
197902.800,206189.300,521486.000,728921.800,207765.000,191149.900,230670.500,201589.000,0.000
197653.600,205915.800,515437.200,728014.800,207455.400,190869.500,230342.400,201313.100,0.000
197359.800,205604.600,509517.300,727151.300,207073.400,190548.100,229957.300,200934.900,0.000
197112.700,205306.500,503790.300,726333.800,206690.400,190231.100,229570.000,200560.500,0.000
196936.000,205081.200,498331.200,725568.300,206414.800,189987.900,229278.000,200324.600,0.000
196779.500,204895.000,493093.900,724841.900,206212.300,189791.600,229054.300,200176.500,0.000
196592.800,204685.800,487973.300,724152.200,205963.400,189570.400,228797.700,199960.400,0.000
196353.900,204435.100,482946.000,723499.900,205648.000,189312.200,228488.000,199646.400,0.000
196173.100,204215.400,478095.500,722889.300,205352.500,189079.000,228200.300,199359.300,0.000
196072.500,204064.700,473474.000,722313.900,205149.500,188906.700,227986.500,199194.900,0.000
195979.600,203942.300,469030.500,721768.400,205009.200,188772.600,227826.300,199105.900,0.000
195789.000,203741.800,464622.900,721238.400,204782.300,188565.800,227591.500,198906.600,0.000
195592.200,203535.500,460311.000,720743.300,204513.400,188350.200,227330.600,198638.300,0.000
195454.200,203367.200,456151.700,720282.300,204268.200,188164.900,227090.900,198398.500,0.000
195381.800,203248.400,452178.600,719849.400,204102.700,188027.600,226915.900,198269.200,0.000
195319.500,203169.100,448365.700,719443.800,204007.600,187932.700,226805.500,198224.900,0.000
195198.300,203044.700,444599.000,719053.300,203856.600,187800.000,226650.900,198100.300,0.000
195034.300,202874.600,440867.300,718677.200,203627.400,187619.200,226427.600,197864.800,0.000
194906.200,202721.700,437247.300,718329.300,203403.800,187453.700,226213.100,197643.000,0.000
194859.300,202633.900,433811.400,718008.300,203275.500,187353.300,226082.500,197551.300,0.000
194827.600,202579.200,430511.300,717700.900,203205.900,187280.900,225998.100,197530.400,0.000
194733.200,202486.800,427243.000,717406.800,203086.000,187177.400,225874.800,197437.800,0.000
194608.600,202358.700,424007.500,717131.600,202907.200,187047.400,225705.300,197254.000,0.000
194497.500,202216.900,420838.000,716866.100,202695.600,186893.800,225508.000,197045.300,0.000
194490.200,202177.200,417863.800,716627.600,202607.500,186831.500,225418.500,196992.100,0.000
194483.800,202159.300,415004.000,716402.300,202578.800,186801.800,225380.200,197010.400,0.000
194396.600,202077.200,412139.000,716180.600,202477.400,186715.000,225279.800,196934.900,0.000
194264.700,201951.700,409278.300,715968.900,202298.800,186582.200,225114.100,196752.300,0.000
194189.500,201851.800,406509.500,715774.700,202129.800,186466.000,224955.700,196585.800,0.000
194191.600,201816.200,403896.600,715598.200,202058.100,186416.100,224882.300,196548.300,0.000
194188.400,201801.700,401376.300,715427.300,202034.200,186386.600,224846.500,196569.800,0.000
194154.100,201771.000,398890.900,715270.700,201988.200,186351.200,224796.300,196546.000,0.000
194056.700,201676.100,396378.200,715113.900,201844.700,186249.200,224662.900,196395.800,0.000
193971.800,201577.000,393908.700,714964.200,201673.000,186128.600,224503.400,196226.200,0.000
193970.600,201536.900,391585.600,714831.400,201598.300,186075.100,224429.900,196185.700,0.000
194005.200,201548.900,389387.800,714708.900,201611.400,186081.800,224431.100,196242.900,0.000
193954.500,201507.500,387164.800,714582.200,201551.300,186033.000,224368.300,196204.700,0.000
193865.000,201430.200,384933.200,714463.400,201421.400,185949.600,224251.800,196068.500,0.000
193813.100,201360.100,382757.000,714355.800,201286.700,185867.400,224130.700,195932.200,0.000
193823.000,201338.600,380701.500,714255.200,201228.100,185825.000,224070.700,195903.100,0.000
193850.300,201354.900,378742.100,714162.300,201238.300,185823.900,224071.000,195958.200,0.000
193808.500,201317.100,376760.500,714067.400,201186.300,185780.800,224018.000,195929.700,0.000
193727.000,201245.800,374764.500,713976.600,201066.100,185703.300,223908.400,195800.000,0.000
193672.100,201176.000,372806.900,713893.600,200927.700,185616.400,223784.300,195661.400,0.000
193686.700,201157.000,370971.600,713820.000,200876.800,185584.800,223730.700,195642.800,0.000
193713.500,201170.300,369224.300,713747.600,200892.800,185592.300,223733.000,195701.700,0.000
193684.500,201154.900,367466.400,713675.100,200862.000,185571.900,223700.900,195691.500,0.000
193625.000,201111.400,365691.300,713611.300,200766.200,185517.500,223616.600,195587.600,0.000
193586.000,201059.000,363946.600,713551.600,200652.000,185452.400,223516.700,195472.600,0.000
193612.700,201054.500,362314.700,713498.800,200619.900,185438.000,223485.000,195471.900,0.000
193629.500,201063.700,360739.100,713439.400,200625.400,185432.100,223478.100,195520.500,0.000
193587.200,201035.200,359147.800,713382.300,200587.000,185402.000,223439.000,195505.600,0.000
193520.400,200978.300,357537.300,713330.800,200487.600,185341.900,223352.400,195399.700,0.000
193495.600,200938.500,355966.200,713285.800,200382.400,185286.000,223259.900,195293.200,0.000
193526.400,200940.200,354497.600,713246.400,200354.100,185275.800,223229.500,195292.900,0.000
193558.800,200962.000,353095.300,713205.700,200378.200,185290.900,223242.700,195360.300,0.000
193541.900,200949.700,351672.200,713164.300,200358.800,185276.800,223220.600,195362.700,0.000
193485.900,200909.500,350224.500,713125.600,200276.500,185233.500,223152.100,195272.900,0.000
193444.300,200849.200,348787.000,713087.600,200161.700,185168.300,223053.300,195157.000,0.000
193470.300,200848.400,347456.000,713056.800,200130.900,185154.500,223022.400,195156.900,0.000
193516.100,200891.300,346205.800,713029.400,200174.100,185184.000,223052.000,195241.400,0.000
193499.600,200886.200,344921.400,712998.900,200160.700,185174.800,223037.300,195246.300,0.000
193440.800,200839.300,343599.400,712966.800,200071.700,185124.700,222961.800,195146.300,0.000
193384.100,200769.400,342274.500,712931.600,199942.900,185042.600,222847.100,195012.500,0.000
193402.900,200759.500,341058.200,712906.000,199907.000,185021.800,222811.500,195004.300,0.000
193462.800,200807.500,339937.700,712886.700,199960.900,185064.500,222856.400,195100.300,0.000
193460.500,200817.900,338785.300,712866.400,199963.600,185071.300,222858.300,195125.600,0.000
193395.500,200766.900,337572.900,712840.400,199874.300,185016.200,222779.500,195024.800,0.000
193353.400,200707.000,336370.400,712813.100,199757.000,184945.300,222675.600,194904.400,0.000
193385.300,200712.000,335276.700,712793.300,199734.000,184939.100,222651.900,194910.000,0.000
193431.200,200750.400,334256.100,712777.100,199780.400,184974.000,222688.700,194998.100,0.000
193408.000,200737.700,333190.100,712755.700,199768.800,184964.400,222675.100,195003.700,0.000
193348.000,200693.900,332085.000,712735.400,199686.700,184918.200,222604.100,194907.800,0.000
193319.200,200657.400,331004.400,712719.200,199593.800,184872.100,222525.300,194809.500,0.000
193355.900,200675.700,330018.600,712707.300,199583.900,184876.600,222514.800,194825.100,0.000
193422.000,200740.600,329115.200,712701.300,199656.000,184933.500,222574.600,194936.200,0.000
193415.400,200749.800,328160.200,712687.800,199667.500,184942.900,222581.300,194964.700,0.000
193342.000,200690.500,327127.700,712667.400,199573.800,184882.000,222497.900,194859.800,0.000
193314.700,200646.900,326126.500,712651.600,199474.600,184827.600,222413.600,194756.700,0.000
193341.100,200644.700,325204.800,712634.900,199440.300,184808.100,222380.000,194752.500,0.000
193385.300,200684.200,324357.400,712622.400,199483.700,184837.500,222411.600,194840.700,0.000
193364.400,200679.300,323472.300,712609.100,199485.600,184839.500,222411.100,194862.600,0.000
193286.100,200609.700,322515.800,712588.900,199386.300,184773.700,222322.400,194753.600,0.000
193261.200,200572.800,321599.700,712578.000,199296.700,184727.600,222246.000,194660.500,0.000
193312.600,200602.300,320786.400,712575.300,199302.400,184744.900,222249.300,194691.600,0.000
193377.600,200661.900,320035.100,712573.800,199372.500,184798.400,222307.000,194802.400,0.000
193365.200,200661.400,319222.300,712562.600,199371.400,184797.300,222305.100,194819.500,0.000
193294.000,200601.600,318344.100,712544.900,199277.300,184737.900,222222.300,194715.200,0.000
193267.800,200564.100,317499.500,712535.600,199186.900,184694.100,222144.200,194619.100,0.000
193313.900,200583.000,316744.600,712531.300,199179.700,184701.100,222135.000,194636.100,0.000
193379.100,200640.000,316057.100,712532.300,199245.600,184753.800,222190.500,194743.000,0.000
193344.100,200622.800,315293.500,712518.900,199231.100,184740.900,222175.200,194745.700,0.000
193285.600,200583.000,314497.400,712509.600,199159.800,184702.000,222114.500,194658.600,0.000
193254.500,200536.800,313706.900,712500.400,199064.700,184647.100,222031.000,194554.600,0.000
193301.700,200558.300,313016.600,712496.900,199062.900,184656.800,222026.000,194577.300,0.000
193362.200,200616.600,312391.200,712498.200,199132.400,184710.900,222082.700,194685.100,0.000
193320.600,200591.800,311678.600,712481.400,199106.000,184687.100,222055.200,194677.500,0.000
193265.500,200549.300,310941.300,712471.900,199035.000,184648.300,221996.000,194595.200,0.000
193231.100,200497.800,310201.800,712463.100,198936.600,184592.900,221909.400,194489.400,0.000
193250.000,200491.400,309538.700,712455.400,198909.500,184577.000,221877.400,194486.500,0.000
193304.600,200541.900,308958.300,712454.600,198974.600,184624.300,221927.400,194587.800,0.000
193328.400,200580.200,308359.600,712456.100,199014.900,184662.600,221965.900,194644.900,0.000
193281.700,200551.400,307681.900,712450.200,198950.500,184630.300,221913.800,194566.000,0.000
193246.000,200503.300,306989.600,712440.300,198850.900,184574.100,221826.200,194457.300,0.000
193286.500,200520.700,306403.400,712438.200,198849.000,184583.400,221821.200,194477.600,0.000
193331.300,200561.000,305865.600,712435.100,198900.200,184617.300,221860.300,194564.300,0.000
193299.100,200542.200,305259.900,712422.600,198884.100,184600.700,221844.000,194567.100,0.000
193243.900,200499.300,304618.400,712414.800,198813.200,184560.500,221783.900,194482.500,0.000
193214.200,200460.600,303980.900,712410.300,198726.200,184514.000,221707.500,194385.500,0.000
193253.700,200480.300,303433.600,712412.400,198725.700,184524.200,221702.000,194407.300,0.000
193315.900,200533.100,302951.600,712415.800,198797.800,184578.800,221759.600,194517.800,0.000
193314.200,200542.500,302419.000,712412.600,198814.400,184593.000,221774.000,194552.300,0.000
193244.500,200491.700,301804.000,712400.200,198727.500,184536.700,221699.700,194454.000,0.000
193205.800,200440.300,301195.000,712392.300,198629.000,184480.000,221613.600,194347.000,0.000
193242.800,200452.100,300679.600,712391.500,198621.900,184485.100,221604.100,194364.300,0.000
193299.800,200503.300,300230.300,712393.900,198689.500,184533.200,221659.000,194470.600,0.000
193283.400,200503.500,299720.500,712387.400,198695.600,184533.400,221660.100,194489.300,0.000
193218.100,200453.800,299151.000,712377.900,198623.000,184489.600,221595.600,194396.600,0.000
193214.700,200440.400,298617.600,712383.600,198562.400,184468.900,221544.300,194325.500,0.000
193252.000,200448.100,298138.200,712383.100,198553.600,184471.700,221530.200,194338.000,0.000
193318.900,200508.800,297731.900,712385.800,198626.800,184525.800,221588.900,194444.500,0.000
193308.700,200508.000,297261.700,712381.800,198635.100,184530.300,221594.000,194467.300,0.000
193246.300,200463.200,296726.700,712374.600,198554.600,184481.900,221524.300,194373.800,0.000
193196.600,200401.900,296180.100,712365.400,198443.600,184414.400,221426.600,194256.200,0.000
193224.000,200400.000,295725.500,712363.600,198426.100,184406.500,221405.800,194261.200,0.000
193275.800,200444.000,295332.000,712361.200,198478.500,184438.600,221443.800,194350.400,0.000
193259.400,200442.600,294891.800,712356.200,198482.100,184439.800,221446.000,194370.000,0.000
193217.300,200415.900,294408.700,712352.800,198423.100,184411.200,221399.400,194297.500,0.000
193216.000,200398.400,293940.800,712357.800,198364.000,184392.400,221352.700,194229.300,0.000
193251.600,200413.000,293529.900,712359.600,198360.800,184400.700,221346.900,194246.600,0.000
193300.400,200462.800,293171.100,712361.400,198419.200,184441.100,221392.800,194340.700,0.000
193296.900,200478.500,292773.500,712359.600,198439.600,184456.100,221409.000,194377.000,0.000
193255.000,200455.500,292323.100,712355.600,198391.300,184434.500,221371.000,194312.500,0.000
193210.600,200403.000,291848.900,712349.300,198298.300,184381.200,221293.000,194210.800,0.000
193219.300,200387.300,291441.400,712344.700,198273.300,184365.200,221265.200,194208.100,0.000
193285.200,200447.500,291125.100,712348.000,198351.300,184421.300,221327.600,194320.400,0.000
193279.400,200457.900,290748.500,712342.600,198366.400,184429.200,221339.600,194350.300,0.000
193228.800,200431.300,290317.300,712338.100,198315.100,184400.700,221297.400,194281.100,0.000
193200.600,200392.900,289880.200,712336.100,198236.800,184360.000,221232.300,194192.000,0.000
193246.800,200419.000,289531.600,712339.500,198245.100,184377.000,221237.300,194219.800,0.000
193298.300,200464.000,289232.900,712340.900,198315.500,184424.200,221292.400,194322.800,0.000
193295.100,200476.000,288889.700,712340.600,198344.400,184443.600,221316.500,194363.100,0.000
193228.600,200425.900,288461.200,712330.600,198271.700,184396.800,221251.100,194274.200,0.000
193188.500,200372.800,288030.900,712321.400,198176.300,184339.100,221164.700,194167.100,0.000
193235.300,200395.100,287705.500,712325.200,198186.200,184355.000,221169.300,194195.400,0.000
193288.700,200445.400,287428.800,712329.200,198257.800,184402.300,221226.000,194301.200,0.000
193270.300,200444.000,287091.800,712321.200,198269.300,184405.800,221233.200,194325.500,0.000
193225.600,200420.000,286715.200,712318.300,198227.200,184386.000,221199.800,194263.400,0.000
193204.100,200387.300,286332.400,712318.900,198155.600,184349.400,221139.000,194177.900,0.000
193229.400,200389.300,286013.200,712318.300,198151.000,184350.400,221131.300,194193.000,0.000
193300.400,200461.500,285776.400,712326.200,198241.100,184416.200,221206.800,194315.600,0.000
193282.900,200456.500,285457.200,712320.900,198251.400,184417.200,221213.700,194335.400,0.000
193209.600,200402.100,285068.800,712310.000,198177.300,184365.500,221148.000,194240.500,0.000
193191.100,200373.900,284708.800,712309.700,198109.600,184334.900,221092.600,194160.100,0.000
193231.000,200388.000,284418.000,712310.100,198110.500,184342.100,221092.200,194178.600,0.000
193285.000,200432.000,284178.400,712311.100,198177.500,184385.500,221144.000,194276.800,0.000
193286.900,200455.400,283904.500,712313.600,198212.600,184411.600,221172.800,194322.100,0.000
193218.000,200405.000,283539.000,712304.300,198139.700,184361.500,221109.700,194230.000,0.000
193173.300,200352.800,283169.900,712298.600,198048.500,184304.500,221027.800,194122.500,0.000
193216.200,200374.200,282900.800,712301.400,198058.500,184319.500,221035.800,194149.000,0.000
193282.900,200433.800,282690.900,712305.800,198139.800,184378.900,221104.800,194264.500,0.000
193281.700,200447.000,282426.900,712306.900,198168.300,184400.500,221131.700,194306.700,0.000
193222.600,200405.600,282083.600,712301.300,198103.900,184362.000,221076.300,194222.400,0.000
193189.400,200366.200,281740.400,712297.300,198021.400,184312.800,221001.700,194123.300,0.000
193235.600,200390.300,281491.900,712303.300,198038.200,184329.400,221011.700,194154.500,0.000
193294.900,200440.400,281291.100,712306.600,198113.200,184380.100,221072.700,194259.800,0.000
193276.600,200441.400,281029.200,712304.400,198130.200,184390.700,221085.500,194289.300,0.000
193210.600,200392.300,280699.900,712298.100,198063.800,184348.300,221029.100,194203.400,0.000
193181.400,200348.500,280374.600,712295.900,197983.900,184301.700,220956.900,194107.800,0.000
193223.200,200371.400,280137.800,712300.400,197993.500,184315.000,220959.600,194133.800,0.000
193275.600,200418.800,279948.100,712302.100,198066.000,184363.400,221015.100,194237.300,0.000
193264.200,200420.500,279701.300,712299.000,198081.700,184369.500,221027.200,194265.300,0.000
193221.100,200390.200,279402.800,712294.300,198030.300,184339.100,220984.000,194193.600,0.000
193171.700,200337.000,279080.200,712289.300,197940.400,184283.900,220903.500,194088.200,0.000
193204.300,200348.900,278847.200,712291.200,197942.600,184289.800,220901.200,194105.800,0.000
193260.400,200400.500,278673.900,712294.300,198015.800,184338.300,220961.000,194211.700,0.000
193235.000,200382.400,278422.600,712285.600,198014.400,184328.000,220955.900,194223.200,0.000
193186.200,200350.100,278131.200,712281.600,197958.600,184294.500,220907.800,194147.300,0.000
193185.600,200351.000,277870.600,712291.200,197917.700,184289.300,220878.400,194091.000,0.000
193214.600,200358.200,277646.500,712291.600,197912.600,184290.000,220869.200,194100.300,0.000
193260.900,200399.000,277478.000,712292.300,197977.500,184329.100,220916.100,194193.900,0.000
193251.700,200407.400,277265.000,712289.300,197998.800,184340.300,220930.800,194229.300,0.000
193210.700,200381.900,276996.200,712286.400,197951.300,184316.200,220889.800,194162.700,0.000
193179.500,200344.800,276712.200,712284.800,197878.600,184275.900,220826.700,194069.800,0.000
193205.200,200349.300,276496.600,712282.400,197871.200,184272.000,220816.600,194077.600,0.000
193270.400,200402.700,276354.800,712285.600,197949.600,184327.800,220879.000,194188.300,0.000
193247.700,200393.000,276136.400,712280.300,197959.800,184326.700,220883.300,194209.800,0.000
193196.900,200356.900,275870.900,712280.200,197908.500,184297.200,220844.500,194139.600,0.000
193185.200,200329.800,275611.900,712281.300,197844.200,184267.100,220792.800,194061.300,0.000
193223.900,200341.300,275418.900,712283.200,197847.300,184273.500,220791.500,194082.300,0.000
193278.600,200389.700,275281.500,712286.300,197918.900,184319.500,220849.500,194187.900,0.000
193255.300,200386.200,275075.600,712280.900,197927.800,184317.300,220855.700,194207.500,0.000
193176.800,200321.800,274793.900,712268.600,197847.000,184258.000,220781.800,194105.300,0.000
193154.800,200287.400,274540.800,712268.100,197776.600,184221.800,220719.500,194015.800,0.000
193203.700,200317.200,274374.800,712274.400,197795.300,184244.200,220734.900,194048.200,0.000
193273.100,200385.600,274262.900,712282.300,197885.500,184309.000,220811.000,194168.500,0.000
193276.300,200405.900,274089.100,712283.800,197917.000,184332.700,220838.400,194210.400,0.000
193229.300,200380.600,273849.800,712281.400,197872.800,184310.400,220801.400,194143.200,0.000
193173.100,200320.400,273577.300,712273.100,197775.400,184248.800,220714.300,194031.600,0.000
193210.300,200341.400,273407.500,712276.900,197783.400,184262.500,220719.900,194056.300,0.000
193255.000,200380.000,273277.300,712275.800,197841.300,184296.800,220766.000,194149.400,0.000
193246.800,200383.500,273109.700,712276.300,197868.900,184313.000,220787.000,194190.000,0.000
193189.600,200342.200,272866.900,712271.100,197808.100,184274.300,220734.000,194109.400,0.000
193148.900,200290.500,272608.500,712264.300,197715.300,184214.500,220652.200,194000.200,0.000
193185.000,200302.800,272443.300,712265.300,197717.700,184219.200,220650.000,194016.600,0.000
193257.400,200375.400,272357.100,712275.000,197814.400,184291.100,220734.100,194144.900,0.000
193249.000,200380.400,272193.300,712274.100,197839.600,184308.600,220755.000,194179.300,0.000
193192.800,200332.500,271956.500,712268.600,197778.300,184270.300,220702.300,194096.400,0.000
193160.000,200294.000,271722.400,712264.700,197701.900,184223.400,220636.000,194003.100,0.000
193199.000,200316.200,271600.400,712266.600,197716.100,184236.600,220642.900,194029.900,0.000
193254.100,200361.800,271535.500,712270.900,197785.500,184281.700,220695.900,194129.200,0.000
193262.100,200381.900,271388.000,712272.400,197816.900,184304.800,220723.600,194172.000,0.000
193220.900,200354.700,271169.600,712273.300,197769.900,184282.000,220686.700,194105.300,0.000
193190.800,200317.000,270938.900,712269.500,197693.400,184239.500,220619.700,194010.900,0.000
193224.900,200332.700,270786.400,712269.900,197699.400,184245.700,220619.100,194027.300,0.000
193279.200,200379.000,270690.200,712274.500,197770.900,184291.400,220675.900,194128.400,0.000
193278.500,200393.600,270547.800,712276.000,197797.800,184309.600,220698.700,194167.600,0.000
193200.600,200340.600,270310.800,712266.200,197719.300,184257.200,220631.300,194071.300,0.000
193161.800,200291.500,270082.000,712263.500,197635.600,184209.900,220560.600,193972.900,0.000
193202.900,200310.200,269947.700,712265.800,197648.700,184226.200,220569.600,193997.800,0.000
193260.100,200369.800,269865.400,712269.800,197726.300,184277.900,220632.700,194103.200,0.000
193250.400,200373.100,269723.100,712268.300,197749.900,184289.700,220651.600,194137.600,0.000
193189.400,200322.000,269504.400,712263.100,197685.900,184245.800,220596.700,194053.900,0.000
193162.400,200289.200,269300.100,712262.100,197618.600,184209.800,220539.300,193968.700,0.000
193215.500,200326.500,269186.900,712269.400,197646.400,184238.500,220560.600,194008.300,0.000
193274.000,200377.900,269110.000,712273.300,197723.600,184289.900,220625.200,194116.100,0.000
193259.300,200380.400,268971.700,712270.900,197743.800,184301.400,220645.500,194148.400,0.000
193193.800,200333.200,268759.400,712263.700,197678.200,184258.000,220588.800,194062.000,0.000
193161.900,200294.200,268554.600,712261.000,197602.200,184213.800,220524.900,193970.500,0.000
193191.400,200308.000,268423.800,712258.500,197603.600,184215.300,220522.100,193982.400,0.000
193246.300,200354.000,268351.800,712262.800,197680.000,184265.600,220582.600,194087.200,0.000
193239.200,200359.600,268220.200,712261.100,197698.800,184272.600,220595.400,194118.000,0.000
193171.500,200303.300,268008.300,712253.100,197626.400,184220.400,220530.600,194027.100,0.000
193169.300,200298.100,267838.400,712260.600,197578.000,184205.100,220492.700,193961.500,0.000
193243.500,200356.900,267758.500,712275.600,197629.000,184256.400,220539.700,194024.800,0.000
193292.400,200394.900,267683.600,712278.700,197700.300,184298.100,220595.400,194125.600,0.000
193258.500,200372.800,267531.300,712270.200,197693.500,184280.700,220583.900,194131.500,0.000
193190.800,200322.400,267326.300,712261.300,197622.400,184232.400,220518.200,194039.600,0.000
193164.700,200290.800,267141.900,712259.600,197556.300,184199.000,220459.400,193953.900,0.000
193199.500,200311.900,267034.200,712259.500,197568.100,184213.400,220467.900,193978.600,0.000
193270.000,200376.700,266992.200,712266.300,197657.400,184275.900,220542.100,194098.500,0.000
193270.500,200388.400,266885.000,712268.400,197686.700,184295.900,220569.100,194140.000,0.000
193203.500,200332.800,266687.000,712260.600,197614.400,184246.700,220505.900,194049.600,0.000
193180.700,200308.200,266510.300,712260.800,197548.100,184215.000,220451.100,193967.700,0.000
193216.500,200331.900,266407.300,712264.200,197562.000,184231.200,220461.900,193995.000,0.000
193267.500,200378.200,266348.700,712264.800,197634.700,184277.000,220518.800,194096.400,0.000
193249.500,200374.500,266230.100,712262.300,197648.300,184278.300,220528.800,194122.800,0.000
193192.400,200332.400,266048.500,712255.600,197585.200,184236.600,220476.800,194043.100,0.000
193157.300,200290.300,265862.200,712251.300,197507.400,184192.800,220408.900,193950.900,0.000
193184.700,200304.400,265754.300,712250.500,197511.600,184199.200,220407.300,193967.900,0.000
193233.700,200346.900,265698.100,712253.100,197579.200,184240.800,220460.900,194067.500,0.000
193236.600,200362.900,265602.700,712256.200,197610.600,184262.000,220489.800,194114.500,0.000
193200.400,200341.700,265448.800,712257.100,197573.300,184245.900,220461.600,194060.100,0.000
193182.500,200315.600,265287.700,712259.400,197514.200,184215.800,220411.400,193982.100,0.000
193209.700,200320.600,265182.500,712260.400,197514.100,184215.800,220406.600,193994.200,0.000
193265.800,200376.200,265142.800,712265.900,197597.400,184273.600,220478.600,194108.800,0.000
193249.400,200367.000,265028.500,712260.600,197604.900,184271.100,220483.700,194130.400,0.000
193175.100,200302.800,264838.300,712247.500,197524.000,184211.400,220414.400,194031.800,0.000
193146.400,200264.900,264669.200,712245.400,197451.100,184169.400,220351.800,193941.700,0.000
193199.800,200305.300,264599.000,712254.000,197482.700,184205.000,220379.500,193986.200,0.000
193274.600,200369.300,264576.900,712264.000,197575.700,184273.000,220459.400,194109.800,0.000
193257.600,200360.700,264469.500,712260.800,197585.100,184270.800,220467.100,194134.200,0.000
193184.500,200299.500,264284.100,712248.000,197506.200,184212.200,220397.000,194037.100,0.000
193162.400,200270.700,264126.200,712247.300,197442.300,184180.300,220342.900,193956.000,0.000
193190.800,200279.700,264030.800,712246.900,197444.200,184181.900,220339.500,193972.300,0.000
193247.100,200330.600,263997.000,712248.500,197522.300,184229.300,220400.500,194079.700,0.000
193245.300,200344.300,263915.500,712248.900,197555.500,184249.800,220430.000,194125.600,0.000
193205.200,200318.900,263768.100,712249.600,197514.600,184229.300,220398.200,194063.000,0.000
193177.900,200284.600,263608.900,712249.200,197444.700,184188.600,220339.700,193973.700,0.000
193209.900,200301.000,263526.500,712250.400,197458.700,184201.500,220346.600,193996.800,0.000
193262.100,200347.900,263490.600,712250.100,197530.600,184249.800,220405.300,194101.000,0.000
193250.400,200347.300,263395.500,712249.000,197547.200,184256.000,220419.400,194131.500,0.000
193198.300,200306.000,263237.100,712244.100,197487.300,184220.200,220372.000,194055.400,0.000
193167.300,200268.000,263076.800,712241.100,197412.300,184176.700,220306.500,193962.900,0.000
193204.200,200293.200,263004.100,712245.600,197430.600,184193.800,220320.100,193992.800,0.000
193260.000,200343.700,262979.300,712248.800,197510.800,184245.100,220387.300,194101.800,0.000
193260.200,200351.200,262901.600,712245.200,197539.000,184257.300,220410.400,194139.800,0.000
193226.500,200327.400,262766.300,712240.900,197496.700,184234.500,220376.700,194079.800,0.000
193189.400,200287.400,262608.500,712236.900,197422.600,184190.900,220311.600,193984.900,0.000
193206.300,200288.300,262515.100,712232.400,197417.000,184185.000,220301.600,193986.700,0.000
193272.900,200356.000,262508.100,712238.600,197511.300,184252.400,220381.600,194106.900,0.000
193254.500,200349.300,262420.100,712232.800,197527.700,184259.700,220395.500,194134.600,0.000
193191.400,200305.000,262266.100,712224.400,197466.900,184219.900,220344.800,194055.300,0.000
193151.500,200257.900,262104.200,712216.100,197383.500,184167.800,220270.800,193952.400,0.000
193193.000,200282.000,262037.700,712217.600,197399.600,184185.500,220280.800,193976.400,0.000
193249.000,200332.800,262021.600,712218.600,197480.000,184238.300,220344.900,194082.700,0.000
193240.500,200333.200,261941.300,712212.400,197498.200,184243.400,220357.600,194112.700,0.000
193187.600,200295.600,261797.100,712204.700,197443.300,184206.400,220311.300,194037.200,0.000
193149.800,200256.100,261642.700,712198.100,197364.400,184157.000,220240.900,193938.800,0.000
193202.200,200294.100,261593.300,712202.200,197392.200,184186.300,220262.300,193974.700,0.000
193261.200,200345.900,261585.300,712206.200,197477.900,184246.700,220334.300,194087.300,0.000
193234.200,200330.000,261491.900,712195.800,197486.500,184241.700,220336.200,194106.800,0.000
193198.600,200317.800,261371.500,712193.800,197453.400,184227.500,220311.200,194055.700,0.000
193160.200,200269.900,261219.000,712185.400,197373.600,184181.000,220243.500,193959.200,0.000
193195.400,200281.800,261148.900,712183.800,197377.600,184188.400,220244.600,193976.600,0.000
193248.900,200327.300,261135.100,712183.600,197454.700,184237.900,220308.000,194082.500,0.000
193243.900,200328.300,261066.600,712179.600,197480.700,184250.400,220326.800,194118.200,0.000
193189.800,200292.100,260928.400,712170.500,197426.600,184213.300,220280.300,194039.300,0.000
193152.500,200246.200,260777.900,712162.600,197347.000,184162.600,220209.200,193936.300,0.000
193182.200,200255.200,260709.200,712160.900,197353.000,184169.400,220208.300,193949.800,0.000
193242.400,200303.200,260700.400,712163.600,197428.600,184219.600,220270.500,194057.300,0.000
193255.900,200329.200,260656.800,712163.100,197472.100,184252.200,220315.200,194116.800,0.000
193205.400,200301.000,260527.300,712153.700,197420.300,184222.100,220276.500,194045.900,0.000
193170.800,200260.400,260383.200,712146.800,197342.600,184177.000,220210.200,193949.600,0.000
193213.600,200283.200,260327.500,712147.300,197358.700,184194.100,220220.300,193976.400,0.000
193277.300,200338.300,260327.700,712148.600,197444.900,184253.300,220292.800,194090.900,0.000
193262.000,200339.900,260257.800,712142.800,197464.100,184261.100,220310.700,194121.600,0.000
193199.800,200291.700,260116.900,712131.200,197402.600,184219.800,220258.200,194040.200,0.000
193160.600,200246.500,259970.200,712118.500,197319.400,184167.500,220185.800,193936.900,0.000
193198.900,200269.500,259919.800,712117.100,197337.700,184183.900,220199.200,193961.900,0.000
193248.200,200313.000,259907.300,712111.900,197406.700,184223.000,220253.500,194058.100,0.000
193233.400,200304.600,259837.300,712099.600,197423.800,184226.100,220265.800,194086.100,0.000
193170.800,200265.300,259702.500,712080.800,197364.500,184187.500,220215.600,194008.800,0.000
193139.200,200228.400,259569.800,712017.900,197289.000,184144.900,220153.000,193917.000,0.000
193177.900,200248.800,259517.700,711501.100,197301.000,184157.700,220160.700,193937.000,0.000
193239.300,200298.800,259517.300,710461.700,197382.400,184210.900,220227.800,194047.000,0.000
193242.900,200310.100,259468.400,709186.400,197417.800,184231.800,220261.200,194097.900,0.000
193170.600,200253.600,259321.600,707657.500,197343.500,184174.600,220197.700,194004.700,0.000
193126.100,200205.100,259176.500,706106.800,197258.100,184122.300,220123.700,193901.700,0.000
193175.300,200240.800,259136.200,704788.200,197281.000,184149.700,220142.400,193935.600,0.000
193250.400,200311.300,259154.800,703649.400,197376.700,184219.200,220225.100,194059.900,0.000
193254.400,200328.800,259109.400,702457.100,197416.600,184244.300,220262.100,194111.000,0.000
193198.300,200287.500,258979.500,701110.900,197358.400,184204.000,220212.600,194032.900,0.000
193153.800,200229.000,258833.300,699719.300,197268.400,184146.300,220132.000,193925.000,0.000
193192.700,200249.200,258782.000,698497.300,197275.900,184156.000,220132.400,193940.700,0.000
193254.400,200312.100,258791.500,697423.600,197358.800,184211.400,220198.200,194050.900,0.000
193236.700,200301.500,258726.000,696264.600,197374.300,184212.500,220208.400,194077.100,0.000
193191.300,200271.700,258610.900,694976.400,197327.700,184185.500,220173.300,194012.300,0.000
193169.900,200249.300,258495.100,693655.900,197266.800,184155.900,220124.100,193931.700,0.000
193201.100,200262.300,258443.300,692468.200,197273.000,184162.900,220124.500,193945.500,0.000
193255.700,200310.200,258446.700,691418.100,197349.900,184211.200,220186.500,194050.100,0.000
193247.900,200314.000,258392.800,690297.700,197373.900,184222.000,220207.700,194086.300,0.000
193181.100,200264.300,258264.300,689023.800,197311.000,184176.200,220152.400,194002.400,0.000
193143.500,200216.900,258132.100,687715.300,197231.900,184126.200,220080.600,193901.900,0.000
193174.300,200231.600,258079.800,686557.800,197237.000,184134.000,220082.800,193917.000,0.000
193230.700,200289.200,258086.300,685552.900,197316.700,184185.500,220149.100,194023.300,0.000
193232.500,200299.300,258037.200,684707.600,197350.100,184199.000,220175.500,194066.700,0.000
193182.600,200259.700,257904.500,683916.600,197298.200,184163.700,220131.200,193996.300,0.000
193149.400,200220.000,257759.400,682937.800,197222.100,184122.100,220065.400,193902.500,0.000
193193.100,200241.200,257700.100,682083.000,197232.700,184136.500,220070.700,193923.700,0.000
193253.700,200290.500,257693.400,681358.200,197312.600,184186.300,220132.600,194029.000,0.000
193233.900,200282.500,257618.400,680545.800,197327.700,184182.200,220137.300,194049.700,0.000
193165.800,200234.100,257478.200,679590.900,197267.400,184137.200,220083.400,193967.800,0.000
193141.200,200199.600,257348.300,678608.600,197200.300,184101.800,220026.700,193881.600,0.000
193192.900,200233.800,257308.700,677776.900,197224.500,184128.900,220045.300,193911.600,0.000
193260.500,200295.300,257317.300,677072.000,197312.200,184186.800,220115.000,194022.900,0.000
193239.800,200290.200,257253.800,676281.500,197333.600,184191.900,220129.700,194054.500,0.000
193209.500,200283.000,257160.500,675381.900,197314.400,184190.900,220121.900,194014.000,0.000
193157.200,200225.700,257009.200,674384.700,197221.200,184127.300,220039.200,193899.600,0.000
193181.600,200232.600,256948.500,673543.800,197223.400,184128.700,220033.800,193910.000,0.000
193243.500,200289.400,256961.100,672855.900,197311.200,184186.100,220106.200,194025.800,0.000
193231.600,200288.000,256901.400,672079.800,197328.600,184189.800,220119.800,194056.600,0.000
193179.400,200250.300,256783.000,671164.700,197277.800,184159.300,220075.100,193987.100,0.000
193154.800,200217.000,256660.000,670207.600,197210.300,184121.500,220015.700,193901.100,0.000
193181.600,200221.800,256597.700,669375.400,197207.500,184120.100,220004.800,193906.700,0.000
193237.800,200274.000,256608.000,668693.300,197288.600,184172.400,220068.800,194016.400,0.000
193252.700,200300.000,256584.400,667962.100,197341.100,184206.000,220115.300,194080.600,0.000
193195.700,200258.600,256463.800,667054.400,197287.100,184167.900,220069.100,194006.100,0.000
193149.300,200204.000,256326.500,666094.000,197202.800,184112.800,219994.500,193900.400,0.000
193196.200,200239.100,256297.600,665306.700,197230.400,184143.300,220017.100,193934.000,0.000
193251.000,200283.200,256299.700,664624.100,197300.100,184184.000,220068.900,194028.300,0.000
193246.700,200289.300,256257.700,663883.700,197332.800,184197.600,220090.900,194067.300,0.000
193192.700,200255.700,256149.200,663001.100,197289.600,184171.500,220052.800,193999.800,0.000
193161.000,200221.800,256030.800,662075.100,197221.200,184136.000,219995.400,193907.200,0.000
193169.100,200209.000,255962.300,661259.300,197201.000,184119.900,219973.700,193895.500,0.000
193237.500,200265.000,255982.800,660608.900,197285.300,184176.100,220042.200,194006.500,0.000
193237.000,200274.900,255946.100,659887.400,197318.800,184193.000,220070.700,194052.300,0.000
193164.500,200215.800,255812.400,658988.600,197245.000,184134.500,220003.100,193957.400,0.000
193134.400,200188.100,255704.900,658086.200,197185.400,184105.800,219955.800,193875.800,0.000
193163.300,200199.000,255659.700,657305.100,197190.000,184110.700,219955.800,193886.700,0.000
193226.500,200250.500,255675.800,656660.300,197268.000,184158.400,220017.000,193991.300,0.000
193232.000,200268.500,255645.600,655956.500,197305.200,184177.200,220047.800,194040.300,0.000
193165.700,200228.600,255534.400,655104.700,197258.100,184145.500,220010.000,193971.700,0.000
193123.700,200179.200,255410.200,654194.800,197180.000,184096.800,219941.100,193868.100,0.000
193185.700,200222.600,255400.500,653467.300,197219.700,184138.300,219976.600,193914.200,0.000
193266.100,200291.200,255434.300,652859.500,197315.800,184205.000,220055.900,194035.300,0.000
193249.200,200284.800,255381.200,652147.300,197329.400,184199.900,220060.800,194057.600,0.000
193204.100,200265.900,255293.700,651328.000,197302.500,184188.900,220042.700,194009.000,0.000
193157.600,200210.000,255159.100,650418.800,197209.400,184126.300,219961.800,193895.000,0.000
193203.200,200238.400,255133.000,649678.100,197226.100,184146.000,219973.900,193920.900,0.000
193276.300,200308.900,255172.300,649085.600,197326.800,184218.500,220058.100,194047.600,0.000
193245.900,200285.800,255105.700,648367.800,197321.900,184197.200,220047.000,194051.000,0.000
193190.500,200256.000,255006.000,647544.100,197279.100,184169.400,220009.600,193984.400,0.000
193164.300,200223.300,254903.700,646677.500,197218.500,184137.000,219956.200,193899.300,0.000
193182.400,200209.600,254847.100,645914.100,197201.900,184121.400,219935.000,193889.600,0.000
193235.200,200255.600,254860.700,645303.600,197271.800,184161.000,219989.400,193985.700,0.000
193243.500,200291.200,254856.400,644674.300,197336.400,184208.900,220049.200,194061.300,0.000
193192.500,200266.500,254761.300,643873.900,197296.400,184187.400,220019.900,194001.200,0.000
193133.000,200190.100,254619.700,642981.700,197192.500,184116.600,219929.400,193877.200,0.000
193159.800,200187.100,254568.000,642238.700,197178.700,184106.800,219911.800,193872.000,0.000
193243.900,200271.500,254617.000,641680.300,197283.600,184181.800,220000.500,194004.800,0.000
193250.300,200291.100,254599.000,641044.300,197330.200,184209.000,220039.400,194061.200,0.000
193184.600,200235.900,254477.200,640221.400,197259.900,184153.400,219975.400,193969.300,0.000
193142.400,200188.500,254356.700,639363.000,197176.000,184099.900,219902.300,193864.200,0.000
193170.900,200193.300,254314.900,638639.500,197170.800,184100.000,219895.000,193868.600,0.000
193228.500,200241.600,254337.200,638061.300,197243.400,184145.200,219953.600,193968.800,0.000
193250.300,200275.300,254332.400,637444.700,197294.700,184177.400,219997.100,194030.000,0.000
193212.300,200271.900,254261.700,636692.500,197276.800,184175.500,219988.000,193989.400,0.000
193154.700,200201.300,254123.000,635823.100,197169.800,184102.900,219894.700,193862.900,0.000
193197.400,200227.500,254104.100,635138.200,197189.100,184124.700,219910.300,193888.800,0.000
193261.800,200284.100,254138.100,634587.600,197276.800,184183.300,219982.000,194002.800,0.000
193255.100,200294.100,254114.100,633974.600,197314.900,184202.600,220015.000,194051.400,0.000
193196.500,200243.800,254001.900,633183.800,197247.300,184151.200,219957.800,193966.500,0.000
193156.700,200191.500,253884.800,632349.600,197161.300,184095.800,219885.000,193861.100,0.000
193193.600,200204.100,253858.700,631667.800,197170.600,184106.800,219891.200,193876.500,0.000
193252.200,200250.700,253878.200,631111.200,197241.100,184147.900,219942.000,193970.300,0.000
193258.300,200268.900,253860.000,630507.000,197280.700,184170.000,219970.400,194016.600,0.000
193204.900,200239.100,253769.800,629751.700,197235.300,184140.800,219932.100,193951.400,0.000
193171.300,200203.500,253664.500,628941.100,197160.900,184097.300,219869.900,193856.100,0.000
193192.000,200201.500,253617.300,628251.500,197149.200,184088.300,219855.300,193852.800,0.000
193254.600,200257.600,253648.800,627724.300,197232.300,184143.000,219924.400,193963.800,0.000
193247.900,200255.600,253617.000,627118.800,197254.000,184147.500,219940.400,193998.600,0.000
193195.200,200222.700,253527.000,626379.100,197210.500,184117.900,219904.200,193935.400,0.000
193148.000,200177.600,253418.300,625581.400,197132.800,184071.700,219838.900,193837.800,0.000
193171.400,200185.300,253382.400,624921.200,197131.600,184073.700,219834.800,193845.200,0.000
193243.300,200248.000,253424.500,624417.300,197223.800,184137.500,219911.600,193966.300,0.000
193272.100,200289.100,253430.700,623865.400,197287.300,184184.200,219968.600,194041.600,0.000
193221.800,200261.000,253342.200,623141.800,197246.400,184159.900,219934.900,193977.300,0.000
193167.500,200198.900,253220.000,622342.900,197156.600,184101.600,219855.200,193864.600,0.000
193209.900,200220.000,253197.700,621702.700,197168.000,184115.700,219860.400,193883.500,0.000
193273.200,200280.000,253229.400,621194.600,197244.900,184165.900,219922.000,193989.000,0.000
193279.500,200301.000,253218.600,620637.000,197289.200,184192.200,219962.500,194044.900,0.000
193228.300,200272.500,253134.000,619926.400,197250.000,184169.100,219933.000,193985.500,0.000
193188.800,200232.900,253030.000,619156.300,197176.800,184126.300,219870.400,193891.000,0.000
193193.600,200220.700,252975.100,618495.900,197156.800,184109.400,219845.200,193879.000,0.000
193244.100,200262.500,252997.300,617990.800,197226.500,184152.800,219901.100,193980.400,0.000
193242.000,200275.900,252981.200,617438.400,197263.500,184173.500,219933.900,194031.100,0.000
193198.900,200252.100,252898.900,616739.400,197222.800,184148.800,219902.900,193972.000,0.000
193153.600,200206.300,252789.100,615972.400,197141.000,184098.700,219832.000,193869.100,0.000
193189.500,200225.100,252766.600,615353.800,197147.700,184109.700,219836.000,193884.800,0.000
193258.600,200285.000,252809.600,614881.100,197235.400,184170.600,219909.300,194001.800,0.000
193241.400,200269.900,252769.000,614309.600,197242.300,184162.900,219909.700,194024.900,0.000
193191.000,200241.200,252687.600,613626.300,197206.600,184143.500,219882.400,193971.800,0.000
193149.500,200201.400,252583.500,612880.300,197131.900,184098.700,219823.000,193876.900,0.000
193174.900,200207.300,252550.500,612264.400,197127.300,184096.700,219817.300,193881.100,0.000
193233.600,200262.300,252586.900,611802.100,197211.600,184151.000,219886.500,193990.700,0.000
193230.900,200271.600,252568.300,611268.600,197244.400,184167.800,219913.900,194035.000,0.000
193187.000,200244.600,252487.800,610595.900,197206.200,184148.300,219883.100,193978.200,0.000
193172.800,200223.600,252408.300,609885.200,197154.700,184129.800,219843.800,193905.700,0.000
193216.600,200251.000,252395.100,609295.300,197167.800,184144.900,219854.300,193925.600,0.000
193266.100,200291.500,252418.400,608820.600,197233.500,184179.500,219902.500,194017.100,0.000
193258.600,200301.000,252403.000,608301.100,197270.800,184197.600,219933.600,194066.100,0.000
193190.700,200245.700,252297.900,607612.000,197205.300,184148.800,219877.600,193983.800,0.000
193136.400,200183.000,252176.200,606864.900,197110.300,184083.300,219792.700,193868.500,0.000
193162.500,200191.400,252148.200,606272.300,197112.800,184087.000,219791.500,193879.700,0.000
193232.500,200253.100,252192.300,605832.400,197198.200,184145.400,219863.600,193996.800,0.000
193262.700,200292.700,252206.700,605356.100,197263.500,184194.300,219923.600,194077.100,0.000
193218.600,200267.900,252130.900,604706.400,197228.900,184175.100,219895.800,194025.800,0.000
193168.700,200212.100,252019.200,603976.800,197139.300,184117.500,219817.400,193916.400,0.000
193195.600,200223.000,251993.500,603399.500,197141.600,184123.300,219815.400,193923.600,0.000
193247.300,200265.100,252018.700,602950.900,197209.600,184163.400,219866.300,194017.900,0.000
193249.700,200279.000,252006.600,602458.600,197247.100,184183.500,219899.700,194069.100,0.000
193193.400,200239.300,251918.600,601807.800,197199.300,184149.500,219861.100,194001.000,0.000
193160.100,200200.700,251825.300,601104.100,197130.700,184108.700,219801.700,193908.100,0.000
193191.100,200210.800,251804.900,600533.300,197135.600,184114.700,219802.000,193917.600,0.000
193242.100,200252.100,251832.300,600093.700,197203.100,184151.200,219855.300,194011.300,0.000
193238.300,200257.600,251815.200,599600.900,197233.000,184162.200,219878.100,194053.800,0.000
193182.100,200220.100,251730.900,598962.300,197190.200,184131.100,219838.900,193990.000,0.000
193163.000,200193.200,251646.600,598280.300,197129.500,184101.400,219788.800,193908.500,0.000
193214.600,200228.400,251645.800,597744.400,197154.300,184131.400,219811.500,193939.700,0.000
193270.500,200276.000,251677.600,597322.800,197230.100,184177.700,219869.900,194039.300,0.000
193251.700,200266.000,251646.900,596828.800,197249.100,184177.500,219881.800,194068.000,0.000
193190.500,200224.800,251557.800,596194.800,197195.200,184143.300,219837.700,193992.200,0.000
193141.400,200175.000,251448.500,595497.400,197105.200,184091.300,219762.900,193880.300,0.000
193175.800,200195.500,251429.400,594951.000,197112.100,184103.800,219765.500,193892.100,0.000
193245.000,200257.300,251475.500,594552.900,197201.600,184166.200,219838.200,194008.200,0.000
193245.100,200269.900,251466.600,594090.500,197241.900,184188.500,219871.900,194060.500,0.000
193201.600,200244.900,251395.300,593485.100,197206.800,184167.200,219844.700,194005.500,0.000
193169.000,200208.400,251303.200,592816.200,197138.300,184129.100,219787.400,193915.000,0.000
193184.900,200206.500,251268.800,592265.300,197129.300,184124.100,219776.800,193913.100,0.000
193246.700,200261.300,251311.500,591870.600,197210.300,184176.400,219842.100,194021.100,0.000
193250.900,200276.800,251308.500,591421.000,197252.300,184199.900,219876.600,194075.600,0.000
193200.200,200242.700,251230.000,590818.800,197210.100,184172.500,219844.300,194015.800,0.000
193156.700,200190.400,251123.400,590143.800,197123.200,184119.900,219770.900,193906.600,0.000
193202.600,200221.400,251118.000,589626.400,197138.900,184143.800,219783.700,193926.500,0.000
193238.200,200259.500,251140.500,589226.500,197204.500,184181.900,219834.200,194015.800,0.000
193233.800,200261.100,251123.000,588776.400,197238.600,184196.200,219859.300,194057.900,0.000
193183.600,200224.700,251040.100,588174.400,197192.200,184164.900,219818.600,193988.400,0.000
193146.300,200179.600,250943.500,587512.900,197115.400,184115.700,219749.800,193888.100,0.000
193179.700,200195.000,250926.000,586990.600,197118.300,184122.400,219750.100,193897.200,0.000
193245.600,200255.800,250973.900,586617.900,197204.000,184180.300,219820.200,194008.200,0.000
193244.000,200261.700,250963.500,586178.400,197237.100,184196.500,219846.200,194054.600,0.000
193197.000,200228.600,250888.500,585590.900,197193.000,184167.300,219809.600,193991.700,0.000
193180.500,200212.300,250814.900,584964.100,197136.900,184141.400,219766.100,193913.700,0.000
193192.800,200207.900,250778.900,584435.200,197124.300,184130.700,219751.100,193906.800,0.000
193245.700,200250.100,250816.700,584064.800,197199.400,184178.700,219814.600,194010.500,0.000
193255.500,200273.700,250816.200,583644.600,197239.200,184200.500,219850.800,194064.500,0.000
193200.700,200237.700,250737.000,583068.200,197195.200,184170.600,219814.400,193999.400,0.000
193150.200,200182.800,250631.900,582419.300,197107.600,184113.600,219738.700,193890.800,0.000
193189.500,200204.100,250621.700,581922.700,197117.500,184122.400,219743.900,193906.000,0.000
193248.600,200254.000,250661.000,581561.100,197192.800,184167.800,219804.200,194007.600,0.000
193236.600,200257.000,250640.600,581131.300,197214.500,184176.000,219821.300,194045.000,0.000
193185.300,200221.000,250563.200,580561.800,197172.300,184150.900,219786.900,193984.600,0.000
193158.800,200196.100,250487.500,579953.100,197117.000,184125.700,219744.600,193907.400,0.000
193195.600,200215.200,250478.400,579467.300,197128.000,184136.500,219752.800,193923.000,0.000
193257.800,200272.900,250526.300,579120.400,197211.400,184188.300,219819.600,194030.500,0.000
193253.500,200274.000,250512.900,578703.700,197239.700,184197.900,219841.700,194070.700,0.000
193198.300,200230.500,250431.500,578138.400,197188.500,184164.700,219800.500,194003.000,0.000
193150.500,200176.200,250323.100,577503.800,197098.000,184103.300,219721.300,193890.200,0.000
193182.300,200187.700,250304.100,577016.800,197099.900,184102.600,219719.300,193895.400,0.000
193249.700,200245.100,250355.000,576683.800,197187.700,184160.100,219793.300,194007.800,0.000
193248.500,200247.000,250339.800,576270.400,197211.100,184166.700,219811.800,194045.800,0.000
193198.000,200214.800,250265.800,575721.900,197171.100,184141.900,219779.300,193986.200,0.000
193177.500,200197.500,250194.700,575131.500,197115.600,184117.500,219735.900,193907.500,0.000
193250.900,200253.100,250222.800,574698.800,197159.700,184166.800,219777.000,193959.600,0.000
193283.400,200280.800,250242.500,574343.800,197216.100,184197.200,219817.900,194044.400,0.000
193263.300,200272.400,250217.900,573934.100,197232.800,184197.700,219830.000,194072.000,0.000
193211.300,200231.300,250136.400,573383.600,197181.300,184162.600,219788.600,193999.500,0.000
193170.300,200187.700,250043.900,572781.700,197107.000,184117.400,219725.800,193901.800,0.000
193201.000,200203.300,250030.300,572320.100,197114.600,184126.100,219731.200,193915.800,0.000
193269.100,200265.000,250084.700,572005.800,197202.100,184185.200,219805.500,194031.100,0.000
193274.300,200277.100,250082.800,571626.900,197239.000,184204.600,219839.300,194083.700,0.000
193221.200,200243.300,250003.300,571094.300,197191.000,184172.900,219799.300,194017.500,0.000
193167.000,200187.200,249897.200,570490.400,197099.700,184113.200,219721.600,193905.700,0.000
193205.700,200206.500,249891.500,570041.800,197111.200,184124.700,219727.900,193922.000,0.000
193265.600,200254.700,249936.200,569723.800,197188.300,184173.600,219788.900,194024.300,0.000
193253.500,200250.400,249919.300,569335.500,197207.700,184176.700,219803.800,194056.900,0.000
193200.900,200209.300,249842.700,568807.100,197160.100,184144.500,219764.500,193991.400,0.000
193177.300,200185.100,249768.200,568239.400,197104.800,184119.100,219719.700,193912.200,0.000
193216.800,200216.000,249767.800,567804.600,197123.400,184140.900,219734.900,193935.100,0.000
193248.800,200245.400,249790.000,567473.600,197178.500,184166.600,219778.100,194017.400,0.000
193244.700,200250.100,249780.000,567101.900,197206.600,184176.500,219804.000,194059.300,0.000
193183.200,200208.100,249696.200,566576.200,197151.700,184138.100,219757.500,193985.500,0.000
193136.300,200157.900,249600.300,565994.400,197072.000,184088.500,219688.500,193882.700,0.000
193173.000,200173.900,249594.300,565561.800,197085.400,184103.400,219698.100,193900.000,0.000
193256.900,200253.100,249663.300,565285.400,197187.100,184176.100,219784.600,194027.000,0.000
193290.200,200291.000,249685.400,564952.700,197248.200,184218.700,219840.900,194100.200,0.000
193242.300,200259.500,249614.800,564444.700,197205.200,184189.800,219807.400,194037.900,0.000
193195.600,200216.800,249521.600,563873.400,197128.400,184144.700,219742.200,193939.100,0.000
193220.600,200222.300,249501.100,563430.800,197125.700,184144.000,219736.300,193940.800,0.000
193276.400,200263.900,249540.200,563129.300,197196.100,184183.300,219791.200,194037.200,0.000
193265.700,200272.000,249528.400,562771.800,197220.400,184188.800,219811.100,194076.300,0.000
193215.000,200239.700,249452.000,562267.800,197173.800,184156.400,219771.600,194011.600,0.000
193171.900,200194.800,249359.100,561699.400,197094.800,184108.400,219703.500,193910.500,0.000
193195.800,200204.900,249343.600,561267.000,197096.300,184112.700,219699.500,193914.900,0.000
193260.400,200261.300,249396.500,560984.000,197178.300,184170.000,219767.100,194023.300,0.000
193254.700,200262.100,249387.500,560633.600,197206.500,184181.900,219788.800,194063.800,0.000
193214.800,200239.700,249328.000,560156.400,197175.200,184166.200,219766.500,194015.300,0.000
193173.000,200188.300,249236.600,559602.300,197097.800,184121.300,219704.700,193918.500,0.000
193185.000,200181.000,249204.200,559160.800,197080.300,184106.500,219683.100,193903.800,0.000
193240.900,200228.100,249247.600,558875.700,197153.900,184151.700,219742.300,194003.400,0.000
193253.600,200253.900,249262.100,558557.800,197204.900,184184.100,219790.200,194068.800,0.000
193183.500,200204.000,249175.700,558057.900,197145.800,184137.600,219739.100,193988.700,0.000
193155.000,200170.900,249097.500,557520.800,197081.500,184100.800,219685.700,193899.600,0.000
193194.100,200186.800,249088.800,557109.100,197088.500,184109.900,219689.800,193912.800,0.000
193262.000,200244.100,249142.300,556844.600,197173.700,184166.700,219759.000,194023.400,0.000
193268.000,200263.100,249145.500,556525.500,197215.500,184191.300,219796.100,194078.200,0.000
193205.000,200216.600,249062.500,556038.200,197162.000,184153.100,219750.700,194006.700,0.000
193169.800,200180.800,248982.600,555506.300,197094.900,184113.400,219696.700,193916.500,0.000
193170.100,200172.000,248948.600,555078.600,197073.900,184093.700,219675.700,193901.600,0.000
193251.000,200243.700,249014.000,554832.800,197167.800,184160.400,219755.300,194023.800,0.000
193250.200,200254.000,249012.000,554512.300,197202.600,184177.600,219781.900,194072.000,0.000
193182.500,200205.500,248925.800,554026.300,197144.300,184132.900,219730.000,193995.600,0.000
193141.100,200159.800,248836.900,553490.600,197065.900,184087.600,219663.000,193894.300,0.000
193176.400,200172.000,248824.200,553086.100,197064.600,184094.100,219660.100,193898.500,0.000
193249.300,200242.400,248891.700,552850.400,197163.500,184165.900,219744.800,194022.800,0.000
193260.600,200263.400,248904.600,552550.900,197208.900,184194.400,219783.900,194083.900,0.000
193220.200,200240.900,248846.900,552101.400,197176.000,184176.000,219758.900,194034.300,0.000
193160.500,200175.200,248735.000,551548.400,197076.100,184107.800,219671.700,193912.200,0.000
193192.600,200192.700,248724.000,551151.700,197076.400,184111.900,219671.500,193915.300,0.000
193252.600,200248.800,248773.900,550902.600,197156.200,184162.200,219736.800,194018.600,0.000
193254.900,200263.600,248779.000,550603.300,197199.300,184183.300,219772.100,194072.000,0.000
193211.400,200234.100,248716.300,550154.900,197162.300,184157.400,219741.400,194015.900,0.000
193160.600,200176.700,248614.800,549622.000,197071.200,184096.500,219663.200,193902.500,0.000
193197.300,200198.900,248611.400,549244.600,197082.000,184110.700,219672.600,193916.800,0.000
193264.700,200253.800,248659.100,548993.100,197155.500,184154.400,219729.300,194014.800,0.000
193256.500,200259.800,248655.900,548690.400,197187.500,184166.200,219753.100,194058.200,0.000
193200.100,200220.700,248589.700,548248.900,197149.400,184139.100,219721.100,193998.900,0.000
193171.600,200187.000,248514.400,547748.300,197086.900,184106.800,219668.800,193910.700,0.000
193211.800,200203.500,248510.800,547374.400,197098.600,184122.900,219676.400,193925.600,0.000
193271.800,200261.100,248560.900,547136.700,197174.600,184171.300,219739.100,194028.000,0.000
193266.000,200266.500,248556.800,546844.100,197207.100,184182.600,219766.300,194077.000,0.000
193208.300,200231.000,248483.400,546400.100,197160.400,184147.100,219727.900,194013.100,0.000
193175.900,200199.900,248408.300,545906.300,197096.400,184113.000,219676.000,193925.500,0.000
193201.000,200208.800,248398.600,545534.900,197100.600,184122.000,219679.900,193935.500,0.000
193246.800,200245.800,248434.600,545287.200,197161.100,184156.800,219728.000,194023.300,0.000
193241.800,200251.600,248428.100,544993.800,197185.800,184165.100,219749.800,194063.800,0.000
193180.500,200215.000,248355.000,544556.400,197139.800,184132.300,219711.700,193997.700,0.000
193134.200,200165.500,248264.100,544047.100,197057.400,184081.000,219641.400,193890.800,0.000
193167.900,200181.100,248257.600,543678.800,197062.300,184091.800,219645.100,193900.500,0.000
193238.300,200235.700,248314.800,543461.400,197150.000,184150.800,219717.200,194014.400,0.000
193253.000,200257.900,248327.100,543193.800,197198.300,184177.600,219757.500,194075.400,0.000
193210.500,200234.900,248267.500,542773.800,197164.400,184154.000,219729.500,194019.100,0.000
193141.000,200164.100,248153.200,542249.800,197060.400,184078.200,219638.700,193887.600,0.000
193164.400,200167.600,248132.300,541871.300,197048.700,184070.900,219624.100,193877.600,0.000
193236.500,200220.500,248190.500,541655.400,197130.500,184127.800,219691.900,193986.200,0.000
193254.400,200251.200,248214.300,541408.600,197189.200,184167.900,219745.900,194056.800,0.000
193211.800,200227.700,248156.100,540997.100,197155.900,184147.700,219721.500,194004.100,0.000
193181.600,200184.300,248077.000,540510.600,197083.300,184106.100,219662.000,193910.400,0.000
193211.300,200185.200,248058.200,540136.400,197070.300,184097.800,219645.600,193902.500,0.000
193269.600,200248.600,248116.100,539934.900,197156.300,184155.600,219717.500,194014.600,0.000
193271.900,200258.000,248122.200,539675.300,197195.500,184176.600,219752.900,194069.400,0.000
193207.300,200210.000,248041.000,539243.200,197136.400,184131.600,219705.700,193992.900,0.000
193152.000,200150.800,247941.500,538740.900,197044.900,184071.900,219627.700,193877.300,0.000
193185.200,200171.300,247938.300,538392.700,197052.000,184086.700,219633.100,193887.600,0.000
193253.300,200231.300,248000.500,538193.000,197138.400,184147.900,219705.100,194000.000,0.000
193261.100,200252.200,248010.300,537938.600,197184.000,184170.700,219741.400,194055.900,0.000
193214.000,200224.500,247953.700,537542.900,197153.900,184151.800,219718.000,194007.300,0.000
193176.300,200181.400,247870.200,537069.000,197077.300,184107.700,219658.400,193910.000,0.000
193180.300,200170.300,247833.600,536691.000,197046.500,184080.300,219627.200,193883.000,0.000
193244.000,200224.300,247886.100,536489.200,197127.800,184129.300,219691.500,193987.600,0.000
193259.900,200247.900,247903.300,536250.000,197180.900,184159.900,219735.100,194053.000,0.000
193216.900,200225.700,247851.400,535867.300,197156.600,184147.200,219718.200,194008.800,0.000
193169.500,200173.500,247754.300,535388.100,197069.300,184093.100,219644.600,193898.700,0.000
193210.400,200203.600,247758.500,535062.600,197085.000,184114.700,219659.000,193919.200,0.000
193258.900,200244.600,247802.000,534858.300,197153.800,184155.900,219712.900,194014.800,0.000
193251.800,200248.300,247800.200,534606.600,197183.300,184164.800,219736.000,194057.100,0.000
193204.500,200221.200,247741.000,534219.100,197148.500,184141.400,219708.500,194002.500,0.000
193190.200,200204.100,247686.100,533779.600,197099.100,184122.600,219671.400,193929.000,0.000
193209.300,200201.400,247666.600,533431.000,197090.400,184119.600,219662.100,193923.500,0.000
193246.000,200231.300,247693.900,533212.300,197141.000,184144.200,219698.600,194000.600,0.000
193246.300,200242.200,247697.700,532966.800,197174.000,184156.800,219723.000,194047.900,0.000
193192.300,200206.500,247629.500,532572.400,197128.600,184127.300,219686.100,193985.700,0.000
193140.100,200151.800,247532.700,532097.700,197037.700,184069.000,219607.800,193872.800,0.000
193180.900,200181.300,247541.600,531786.600,197053.100,184091.900,219622.800,193892.100,0.000
193261.800,200250.900,247618.100,531625.000,197152.500,184165.500,219708.500,194018.600,0.000
193267.100,200266.100,247625.700,531394.300,197192.400,184182.900,219740.500,194075.000,0.000
193215.400,200243.800,247567.000,531021.100,197157.700,184158.200,219714.300,194024.700,0.000
193173.400,200201.900,247484.200,530572.100,197083.800,184114.500,219654.500,193930.700,0.000
193195.000,200203.400,247465.100,530237.100,197075.700,184109.900,219645.200,193926.900,0.000
193253.100,200249.300,247513.000,530052.500,197149.500,184155.000,219704.700,194026.400,0.000
193253.300,200256.500,247517.800,529823.400,197188.300,184172.000,219734.300,194079.100,0.000
193203.000,200219.300,247452.900,529444.300,197148.400,184140.200,219697.600,194021.300,0.000
193162.800,200182.100,247370.200,528999.900,197073.800,184097.000,219635.400,193924.900,0.000
193192.000,200189.400,247360.200,528679.300,197071.100,184100.100,219631.300,193927.200,0.000
193246.400,200232.600,247405.100,528499.300,197140.900,184143.600,219687.700,194026.000,0.000
193245.100,200243.600,247412.700,528280.800,197180.000,184164.800,219723.300,194083.100,0.000
193190.000,200203.800,247343.400,527905.700,197133.500,184131.400,219687.500,194021.500,0.000
193138.200,200146.000,247243.800,527446.600,197042.500,184073.100,219609.800,193907.500,0.000
193179.300,200177.900,247249.300,527144.800,197056.400,184095.800,219624.000,193923.000,0.000
193233.900,200223.800,247295.100,526966.900,197125.200,184137.100,219678.900,194018.000,0.000
193250.100,200250.000,247317.500,526765.600,197178.300,184168.500,219726.200,194087.900,0.000
193215.300,200233.500,247272.400,526419.800,197159.400,184159.900,219714.200,194050.600,0.000
193175.400,200189.700,247190.500,525983.400,197085.000,184118.500,219654.500,193955.100,0.000
193210.900,200200.800,247185.800,525673.400,197085.300,184124.400,219653.500,193961.700,0.000
193283.200,200265.000,247250.700,525518.700,197171.700,184181.400,219724.700,194074.600,0.000
193269.000,200260.100,247245.200,525292.800,197196.400,184182.800,219742.100,194114.000,0.000
193223.900,200231.200,247190.300,524936.300,197163.800,184157.700,219714.900,194062.200,0.000
193149.500,200155.800,247074.800,524467.800,197055.300,184081.600,219619.500,193930.100,0.000
193178.900,200167.100,247066.300,524159.700,197053.500,184087.700,219617.300,193932.400,0.000
193253.900,200231.300,247132.600,524013.200,197143.200,184151.200,219692.700,194049.200,0.000
193275.100,200258.500,247156.800,523821.100,197197.700,184185.000,219736.900,194118.100,0.000
193221.800,200220.200,247086.400,523452.500,197149.200,184148.600,219692.500,194049.800,0.000
193181.000,200184.300,247008.100,523030.900,197081.100,184111.200,219637.900,193955.900,0.000
193202.800,200187.700,246992.200,522720.500,197073.100,184108.700,219627.900,193951.100,0.000
193271.900,200247.600,247057.800,522575.000,197160.600,184167.600,219700.100,194065.900,0.000
193281.200,200273.100,247081.000,522389.100,197214.400,184198.900,219749.200,194135.600,0.000
193189.600,200194.200,246976.900,521992.000,197130.000,184124.900,219672.200,194035.100,0.000
193143.000,200143.100,246887.900,521558.800,197045.500,184073.200,219601.300,193929.500,0.000
193187.400,200167.300,246891.000,521264.700,197053.300,184090.800,219607.500,193940.500,0.000
193265.300,200238.700,246966.800,521129.900,197149.400,184160.000,219687.300,194062.000,0.000
193263.100,200247.600,246973.800,520931.000,197185.800,184173.300,219714.600,194112.400,0.000
193204.600,200201.300,246904.400,520577.600,197136.900,184136.800,219674.200,194047.700,0.000
193176.200,200169.800,246835.200,520169.000,197075.200,184107.000,219625.300,193960.900,0.000
193215.400,200189.000,246834.200,519876.400,197081.400,184120.100,219627.700,193967.500,0.000
193276.900,200246.700,246893.800,519734.100,197164.800,184176.400,219695.800,194073.200,0.000
193261.600,200245.400,246888.300,519526.100,197189.300,184179.800,219713.300,194110.300,0.000
193208.200,200209.000,246822.500,519178.200,197143.400,184145.800,219674.700,194047.700,0.000
193164.900,200163.700,246737.700,518758.300,197063.100,184099.200,219607.300,193941.500,0.000
193194.900,200182.800,246733.000,518468.300,197063.100,184107.000,219607.700,193943.500,0.000
193269.200,200251.300,246805.400,518341.700,197155.500,184172.200,219687.300,194062.300,0.000
193276.800,200271.200,246824.700,518164.500,197203.500,184199.800,219730.300,194126.300,0.000
193230.200,200242.300,246769.900,517833.200,197169.100,184177.300,219702.300,194073.700,0.000
193177.500,200186.100,246675.600,517405.900,197080.600,184120.200,219625.800,193958.800,0.000
193196.800,200194.800,246661.100,517107.700,197073.400,184118.100,219615.600,193951.000,0.000
193264.600,200251.700,246721.200,516969.600,197153.600,184170.900,219679.900,194056.600,0.000
193292.800,200289.200,246759.300,516809.800,197218.400,184213.600,219738.100,194134.900,0.000
193225.800,200240.600,246683.100,516458.000,197164.200,184168.800,219690.200,194061.800,0.000
193174.300,200182.000,246586.600,516031.700,197071.600,184109.200,219612.300,193945.800,0.000
193207.100,200198.400,246585.700,515754.300,197074.800,184120.700,219617.500,193953.100,0.000
193271.000,200249.900,246640.300,515614.800,197148.900,184167.100,219678.100,194053.700,0.000
193288.900,200270.900,246662.100,515443.300,197199.200,184194.400,219721.100,194120.300,0.000
193230.000,200230.300,246597.300,515108.800,197158.200,184162.600,219685.800,194057.900,0.000
193177.500,200182.600,246513.500,514703.300,197080.600,184115.300,219621.100,193952.900,0.000
193214.400,200199.300,246514.400,514431.400,197088.700,184127.300,219624.400,193961.100,0.000
193269.900,200244.700,246563.600,514290.400,197159.600,184167.800,219677.700,194055.000,0.000
193275.500,200261.900,246576.200,514117.100,197201.700,184187.600,219710.500,194112.000,0.000
193231.900,200240.600,246525.500,513802.400,197173.200,184169.100,219685.700,194065.700,0.000
193173.100,200178.300,246429.400,513384.700,197080.200,184108.700,219604.600,193949.100,0.000
193192.900,200179.500,246413.000,513096.700,197066.500,184102.600,219589.700,193938.600,0.000
193261.100,200242.000,246480.100,512981.600,197155.600,184165.300,219666.500,194052.600,0.000
193283.800,200267.100,246505.900,512823.100,197208.400,184197.700,219713.400,194120.500,0.000
193238.800,200244.700,246457.000,512513.600,197178.600,184176.600,219692.400,194071.600,0.000
193172.800,200177.500,246353.700,512095.300,197077.900,184106.300,219606.300,193944.900,0.000
193190.900,200179.000,246338.700,511816.800,197068.100,184103.700,219593.700,193936.200,0.000
193243.300,200216.800,246383.700,511686.800,197138.200,184147.200,219646.700,194030.500,0.000
193265.300,200249.600,246410.600,511535.200,197194.300,184180.600,219694.200,194100.800,0.000
193232.100,200240.900,246376.100,511244.200,197180.900,184176.200,219686.500,194070.200,0.000
193191.900,200195.900,246299.600,510852.500,197107.600,184135.900,219624.800,193973.700,0.000
193207.300,200191.400,246276.000,510565.200,197087.200,184127.100,219605.300,193957.800,0.000
193282.600,200258.300,246342.400,510452.400,197172.200,184185.100,219674.600,194067.100,0.000
193269.000,200259.300,246344.500,510281.900,197203.000,184193.000,219697.800,194112.300,0.000
193219.900,200220.500,246284.200,509967.700,197161.900,184164.300,219666.000,194055.000,0.000
193208.500,200203.900,246234.600,509610.600,197117.700,184153.400,219636.200,193987.800,0.000
193233.200,200206.200,246219.600,509334.900,197106.100,184151.100,219623.700,193978.400,0.000
193284.000,200250.900,246265.200,509205.700,197169.800,184187.100,219673.000,194065.700,0.000
193292.400,200275.900,246285.300,509055.400,197215.400,184211.300,219714.200,194125.200,0.000
193239.900,200238.000,246223.300,508743.400,197172.200,184179.500,219679.800,194064.500,0.000
193179.500,200175.900,246122.100,508337.700,197075.500,184113.800,219596.000,193944.800,0.000
193218.200,200201.500,246128.600,508087.300,197085.700,184132.000,219605.100,193955.700,0.000
193254.500,200232.100,246164.900,507953.600,197141.900,184162.200,219645.400,194036.300,0.000
193281.900,200265.100,246202.100,507824.300,197208.100,184203.800,219699.800,194115.300,0.000
193248.200,200248.300,246160.500,507537.000,197187.500,184190.500,219682.700,194075.200,0.000
193197.800,200197.100,246072.900,507146.000,197103.300,184134.600,219610.600,193965.100,0.000
193231.200,200214.500,246071.300,506892.100,197106.500,184143.500,219613.900,193968.900,0.000
193285.600,200258.400,246119.500,506771.600,197174.200,184182.700,219668.000,194062.700,0.000
193289.700,200271.000,246132.000,506620.900,197213.600,184200.600,219701.700,194120.100,0.000
193240.600,200240.700,246079.000,506328.100,197182.300,184179.500,219678.600,194070.900,0.000
193197.700,200196.000,246000.000,505950.700,197108.500,184137.300,219619.500,193969.700,0.000
193214.600,200193.100,245978.800,505676.400,197090.400,184127.500,219600.600,193949.000,0.000
193262.800,200229.200,246019.200,505551.700,197151.800,184162.200,219646.000,194035.000,0.000
193275.700,200253.800,246041.200,505416.200,197202.900,184192.500,219690.700,194103.400,0.000
193237.500,200234.400,245994.000,505132.400,197176.600,184176.400,219670.600,194061.400,0.000
193198.500,200188.900,245912.900,504756.600,197098.900,184130.200,219606.400,193961.400,0.000
193222.100,200195.200,245900.000,504493.900,197088.200,184128.600,219595.700,193953.700,0.000
193286.100,200255.600,245963.600,504394.500,197170.500,184182.000,219662.100,194059.000,0.000
193296.200,200278.600,245989.300,504267.800,197226.500,184212.700,219709.600,194128.800,0.000
193237.500,200239.600,245926.800,503977.200,197187.500,184180.400,219675.500,194070.800,0.000
193201.500,200201.900,245855.800,503617.900,197120.400,184144.200,219622.200,193981.000,0.000
193218.100,200198.300,245836.500,503353.300,197103.600,184134.800,219603.300,193966.900,0.000
193275.100,200242.400,245887.900,503244.500,197173.800,184175.300,219657.600,194062.200,0.000
193287.300,200265.300,245910.400,503114.500,197223.700,184201.500,219700.200,194124.600,0.000
193242.100,200243.700,245861.400,502837.500,197197.200,184184.700,219678.400,194079.700,0.000
193200.400,200197.700,245778.400,502470.000,197120.800,184139.000,219612.800,193980.300,0.000
193217.500,200194.600,245761.100,502213.200,197108.800,184132.600,219598.200,193969.700,0.000
193276.100,200245.800,245818.300,502115.800,197184.100,184181.600,219660.100,194069.800,0.000
193279.100,200256.500,245829.000,501976.800,197219.500,184197.300,219689.800,194122.900,0.000
193229.600,200227.700,245776.800,501700.600,197186.800,184174.900,219663.500,194074.800,0.000
193185.600,200180.200,245693.400,501333.500,197105.900,184125.700,219595.300,193967.800,0.000
193216.300,200193.100,245684.300,501085.400,197098.800,184125.400,219586.800,193957.900,0.000
193279.800,200244.000,245744.300,500993.300,197177.400,184176.400,219650.500,194061.100,0.000
193298.200,200267.400,245770.700,500872.400,197230.400,184206.800,219693.900,194130.500,0.000
193245.000,200235.300,245709.500,500588.400,197188.100,184175.300,219657.600,194071.800,0.000
193197.100,200189.100,245624.700,500223.400,197106.700,184126.300,219589.200,193964.300,0.000
193230.000,200207.500,245625.900,499991.600,197111.900,184137.400,219593.900,193969.000,0.000
193300.900,200268.600,245694.200,499911.200,197198.500,184195.800,219666.800,194079.000,0.000
193311.900,200292.100,245716.700,499793.700,197248.300,184222.300,219709.500,194143.800,0.000
193254.800,200256.500,245657.500,499511.900,197207.300,184188.800,219674.300,194086.500,0.000
193197.100,200198.900,245564.500,499141.200,197118.300,184131.700,219599.700,193972.100,0.000
193218.900,200197.700,245545.900,498888.200,197098.900,184123.800,219581.200,193954.400,0.000
193277.200,200247.800,245600.800,498793.900,197165.600,184168.300,219637.900,194049.600,0.000
193295.000,200272.000,245629.100,498679.600,197216.500,184196.600,219682.800,194119.000,0.000
193252.200,200248.000,245586.000,498417.900,197190.300,184179.000,219661.900,194077.200,0.000
193182.900,200185.300,245485.500,498044.400,197092.600,184113.400,219577.400,193956.200,0.000
193204.300,200186.100,245469.500,497798.700,197078.100,184108.900,219564.900,193945.100,0.000
193283.700,200253.100,245541.600,497728.500,197166.600,184170.900,219641.800,194059.300,0.000
193287.900,200262.800,245557.700,497609.700,197208.900,184190.400,219676.200,194114.900,0.000
193215.200,200209.300,245485.000,497324.700,197157.300,184147.600,219628.300,194044.300,0.000
193174.200,200170.900,245407.700,496975.000,197083.300,184105.500,219566.000,193945.100,0.000
193219.300,200201.400,245418.100,496760.200,197098.800,184128.900,219579.600,193960.300,0.000
193271.900,200242.500,245462.000,496664.900,197160.600,184166.700,219627.600,194047.000,0.000
193283.700,200267.700,245486.300,496558.400,197212.000,184194.400,219670.100,194112.700,0.000
193225.400,200237.800,245433.400,496296.500,197179.000,184170.100,219643.500,194059.400,0.000
193167.100,200174.100,245337.500,495929.500,197084.000,184108.100,219562.600,193940.800,0.000
193192.200,200184.800,245328.600,495697.400,197075.800,184110.100,219554.300,193933.800,0.000
193262.500,200244.700,245397.000,495632.500,197163.900,184171.700,219626.100,194045.800,0.000
193278.900,200267.400,245423.100,495528.200,197217.800,184200.000,219670.100,194112.700,0.000
193240.600,200240.300,245375.000,495268.200,197185.000,184176.700,219645.500,194064.000,0.000
193168.400,200162.600,245265.000,494892.800,197077.000,184099.900,219552.600,193931.900,0.000
193212.200,200188.400,245270.700,494676.700,197082.900,184113.800,219558.700,193938.500,0.000
193277.700,200248.200,245335.000,494608.700,197168.100,184170.400,219629.500,194048.000,0.000
193283.600,200264.200,245356.300,494503.800,197217.300,184195.200,219673.000,194114.200,0.000
193245.600,200245.800,245313.600,494253.900,197192.100,184177.600,219652.900,194074.200,0.000
193191.300,200196.000,245231.200,493910.500,197113.400,184129.800,219587.200,193972.300,0.000
193204.500,200192.900,245209.300,493671.700,197091.800,184118.800,219567.100,193954.200,0.000
193294.600,200271.500,245294.200,493620.300,197189.700,184192.500,219651.700,194077.400,0.000
193294.400,200284.200,245309.800,493513.600,197233.500,184212.500,219687.600,194135.800,0.000
193228.100,200238.400,245241.800,493247.700,197187.200,184173.300,219647.200,194072.300,0.000
193171.000,200175.800,245145.600,492892.300,197095.100,184111.200,219567.100,193955.000,0.000
193194.700,200177.900,245129.400,492659.200,197080.500,184106.300,219549.900,193940.800,0.000
193272.700,200247.900,245199.900,492598.600,197165.500,184165.700,219619.000,194051.100,0.000
193278.600,200260.700,245217.800,492493.400,197205.700,184182.800,219649.500,194107.600,0.000
193220.300,200217.400,245155.500,492228.500,197158.900,184144.700,219608.400,194044.100,0.000
193180.100,200181.000,245085.500,491900.600,197091.600,184108.600,219554.900,193949.700,0.000
193205.600,200187.300,245075.500,491674.800,197082.300,184106.300,219544.800,193937.700,0.000
193275.500,200244.600,245140.900,491612.600,197162.300,184161.500,219614.100,194043.500,0.000
193285.800,200267.700,245167.200,491518.500,197212.000,184188.100,219658.000,194107.600,0.000
193239.400,200232.600,245114.000,491261.200,197172.900,184158.100,219626.000,194052.100,0.000
193186.900,200187.200,245032.200,490922.800,197092.600,184108.600,219558.200,193948.400,0.000
193221.500,200203.800,245032.300,490709.300,197091.100,184116.800,219555.800,193949.000,0.000
193254.500,200225.000,245061.900,490613.000,197135.800,184136.800,219587.500,194021.600,0.000
193266.300,200246.200,245085.900,490519.700,197185.600,184163.500,219628.400,194089.000,0.000
193224.800,200224.000,245046.600,490289.100,197166.800,184154.500,219617.300,194054.200,0.000
193176.500,200174.900,244964.800,489956.600,197090.500,184108.600,219554.300,193953.300,0.000
193217.300,200203.300,244971.400,489759.200,197100.100,184124.900,219562.300,193962.300,0.000
193276.400,200256.800,245028.300,489695.100,197170.800,184170.300,219618.300,194056.900,0.000
193285.200,200270.200,245046.600,489599.300,197212.000,184189.200,219648.800,194113.200,0.000
193230.000,200232.800,244989.500,489350.400,197172.500,184157.100,219614.800,194056.900,0.000
193179.900,200181.300,244905.400,489011.900,197088.800,184101.300,219544.600,193948.400,0.000
193201.700,200184.300,244894.500,488788.800,197074.400,184095.100,219532.900,193934.600,0.000
193286.200,200258.800,244976.900,488749.300,197170.000,184167.800,219617.900,194056.700,0.000
193312.500,200293.500,245018.000,488682.500,197236.100,184210.200,219676.200,194138.700,0.000
193243.700,200238.500,244941.200,488420.800,197178.400,184158.900,219623.600,194064.400,0.000
193191.400,200182.500,244853.500,488088.400,197094.800,184104.900,219554.600,193957.600,0.000
193218.000,200189.500,244846.300,487877.100,197086.600,184107.000,219545.900,193949.800,0.000
193284.000,200251.900,244914.300,487829.200,197170.300,184166.000,219614.500,194056.300,0.000
193293.000,200266.400,244933.800,487740.900,197211.600,184185.900,219647.300,194114.700,0.000
193240.500,200232.400,244878.400,487503.900,197172.200,184156.800,219613.800,194060.300,0.000
193192.500,200189.300,244799.600,487182.000,197091.800,184112.100,219552.100,193958.300,0.000
193214.800,200194.700,244790.100,486970.000,197080.300,184113.000,219543.000,193946.800,0.000
193276.900,200236.700,244845.000,486907.000,197149.200,184157.300,219597.300,194041.400,0.000
193296.200,200269.300,244878.900,486833.400,197204.900,184188.800,219644.000,194115.700,0.000
193244.200,200238.700,244829.000,486600.900,197171.800,184163.600,219618.000,194068.500,0.000
193211.800,200204.000,244761.400,486290.000,197105.800,184126.700,219567.000,193978.200,0.000
193211.400,200191.100,244731.800,486062.600,197077.900,184109.900,219538.800,193952.100,0.000
193255.100,200221.000,244770.000,485985.900,197130.100,184138.100,219576.900,194030.400,0.000
193270.200,200245.500,244801.000,485917.400,197188.500,184171.500,219625.400,194104.600,0.000
193230.000,200232.300,244764.200,485707.700,197171.000,184161.700,219613.000,194073.300,0.000
193197.200,200201.600,244698.300,485405.400,197106.000,184125.900,219561.400,193983.700,0.000
193210.200,200201.200,244677.700,485193.400,197087.500,184114.400,219541.900,193965.100,0.000
193279.100,200258.600,244740.600,485148.600,197163.100,184167.300,219606.600,194070.000,0.000
193321.900,200309.900,244798.000,485109.400,197243.400,184225.900,219679.300,194169.600,0.000
193286.100,200291.000,244761.400,484901.100,197225.500,184216.000,219666.500,194136.700,0.000
193201.100,200208.900,244644.000,484552.000,197109.500,184133.800,219564.700,193998.700,0.000
193199.500,200190.500,244611.000,484328.300,197075.000,184112.800,219531.400,193964.300,0.000
193271.900,200254.000,244685.500,484298.300,197160.600,184175.900,219606.600,194075.600,0.000
193288.200,200275.900,244712.600,484231.600,197208.600,184202.400,219649.500,194142.400,0.000
193240.300,200239.500,244656.700,484000.300,197168.100,184168.600,219614.000,194087.100,0.000
193198.800,200204.900,244591.500,483704.600,197107.100,184135.100,219566.900,194000.900,0.000
193219.300,200205.500,244576.900,483498.000,197093.800,184131.600,219552.800,193987.300,0.000
193279.900,200247.800,244630.000,483445.300,197161.300,184175.000,219606.200,194078.300,0.000
193293.500,200270.200,244657.600,483378.000,197211.100,184203.800,219647.500,194146.700,0.000
193227.800,200222.500,244592.700,483139.700,197160.300,184163.500,219602.400,194083.700,0.000
193178.000,200173.500,244509.900,482824.500,197077.400,184111.800,219534.600,193976.400,0.000
193212.700,200199.100,244513.300,482637.900,197078.800,184121.900,219539.100,193977.000,0.000
193295.300,200273.200,244593.500,482614.600,197171.500,184191.400,219622.000,194097.500,0.000
193297.500,200285.700,244610.300,482539.100,197210.700,184207.800,219654.500,194156.200,0.000
193233.500,200242.800,244549.500,482311.000,197166.400,184171.300,219616.700,194096.800,0.000
193182.200,200190.400,244464.900,481996.200,197084.000,184117.900,219546.000,193987.900,0.000
193203.200,200193.300,244453.300,481796.100,197071.600,184117.900,219535.500,193974.800,0.000
193264.300,200240.100,244508.100,481748.000,197140.500,184166.000,219593.000,194069.900,0.000
193273.800,200261.300,244532.000,481683.600,197189.300,184190.500,219632.500,194136.400,0.000
193228.100,200227.700,244482.900,481466.700,197156.100,184164.300,219602.800,194089.000,0.000
193195.300,200200.700,244421.900,481176.600,197096.200,184136.900,219557.000,194003.600,0.000
193225.600,200216.600,244422.100,480990.200,197094.900,184149.000,219558.900,194000.800,0.000
193280.200,200259.500,244475.200,480946.400,197163.300,184192.300,219614.200,194094.300,0.000
193289.000,200275.000,244498.000,480882.300,197213.200,184214.000,219654.100,194159.000,0.000
193241.600,200242.800,244448.300,480665.400,197180.200,184185.800,219627.600,194109.400,0.000
193190.900,200196.400,244367.100,480357.900,197101.400,184138.200,219561.600,194002.700,0.000
193223.800,200206.400,244362.300,480165.000,197094.700,184142.300,219554.800,193995.000,0.000
193272.300,200246.900,244408.000,480107.700,197151.400,184174.100,219598.600,194077.300,0.000
193282.600,200265.400,244434.600,480045.400,197199.700,184198.400,219638.800,194144.300,0.000
193224.100,200219.700,244375.600,479823.000,197155.300,184162.400,219602.100,194088.300,0.000
193174.600,200171.300,244293.500,479519.400,197075.400,184113.200,219537.200,193984.700,0.000
193205.600,200185.700,244289.800,479334.300,197074.100,184121.900,219535.400,193978.800,0.000
193265.500,200233.200,244346.000,479292.200,197143.600,184166.100,219592.000,194071.500,0.000
193278.800,200253.600,244374.900,479235.600,197197.200,184194.100,219636.400,194141.400,0.000
193234.300,200225.200,244332.600,479033.100,197173.600,184175.300,219617.300,194102.200,0.000
193181.000,200169.400,244243.400,478721.200,197083.800,184118.200,219543.200,193990.400,0.000
193212.300,200188.600,244242.800,478542.000,197080.700,184129.300,219544.700,193989.800,0.000
193266.700,200236.400,244299.500,478504.500,197149.400,184174.000,219599.200,194081.300,0.000
193281.100,200260.700,244331.200,478454.900,197203.300,184202.400,219643.100,194151.100,0.000
193244.500,200246.200,244298.400,478264.800,197186.700,184193.000,219630.000,194117.100,0.000
193203.500,200205.300,244222.200,477967.800,197113.000,184149.400,219566.700,194014.700,0.000
193210.800,200193.100,244192.600,477755.300,197080.300,184127.500,219535.300,193980.400,0.000
193245.900,200218.800,244224.400,477693.000,197125.900,184147.200,219566.000,194050.100,0.000
193270.100,200247.100,244264.700,477652.700,197188.300,184185.900,219620.300,194132.200,0.000
193238.000,200231.200,244231.200,477460.200,197170.500,184175.200,219607.500,194097.500,0.000
193216.900,200212.800,244175.300,477181.300,197114.700,184150.200,219562.000,194010.800,0.000
193246.000,200223.600,244169.200,476991.000,197103.800,184149.100,219551.000,193997.200,0.000
193304.600,200273.100,244232.200,476963.700,197181.100,184202.000,219616.300,194098.300,0.000
193300.000,200268.900,244238.400,476890.500,197207.800,184206.000,219633.900,194144.800,0.000
193258.200,200237.000,244191.100,476686.100,197175.400,184181.500,219605.500,194099.800,0.000
193241.400,200238.200,244155.200,476440.000,197144.900,184181.200,219586.300,194040.100,0.000
193239.700,200230.000,244128.500,476239.900,197117.500,184164.900,219561.300,194011.000,0.000
193276.600,200253.700,244159.900,476179.500,197158.800,184182.000,219591.400,194079.100,0.000
193288.800,200263.200,244180.500,476122.700,197200.300,184199.600,219623.100,194139.700,0.000
193233.900,200220.300,244119.500,475908.400,197155.900,184162.400,219581.900,194080.600,0.000
193186.000,200182.000,244048.000,475623.600,197085.400,184121.300,219526.100,193984.000,0.000
193205.900,200178.800,244031.700,475431.000,197065.300,184112.800,219509.900,193963.800,0.000
193280.500,200248.300,244106.200,475417.700,197151.400,184176.100,219584.300,194074.700,0.000
193297.300,200274.800,244145.400,475380.700,197212.000,184211.100,219638.300,194154.300,0.000
193244.000,200234.800,244095.900,475183.300,197179.400,184185.200,219613.800,194109.700,0.000
193191.500,200174.300,244003.100,474874.600,197083.600,184121.300,219529.900,193988.800,0.000
193220.000,200195.900,244003.500,474701.500,197080.600,184130.600,219528.000,193983.900,0.000
193275.400,200243.300,244056.700,474669.400,197145.600,184170.300,219581.000,194074.700,0.000
193296.600,200269.300,244090.500,474634.800,197207.200,184203.400,219632.800,194150.300,0.000
193275.400,200273.300,244072.700,474476.300,197212.000,184212.900,219643.700,194136.900,0.000
193199.500,200188.500,243958.700,474147.200,197095.400,184127.400,219540.500,193995.100,0.000
193214.700,200183.600,243937.400,473949.800,197070.200,184114.300,219513.800,193967.700,0.000
193274.700,200247.100,244004.000,473935.200,197153.200,184171.200,219581.600,194073.900,0.000
193276.300,200257.600,244024.200,473884.400,197197.500,184189.400,219616.900,194135.400,0.000
193239.500,200234.800,243988.600,473703.100,197179.600,184177.800,219603.700,194102.600,0.000
193192.100,200179.900,243904.800,473408.300,197095.100,184123.800,219530.900,193992.200,0.000
193217.500,200194.400,243904.800,473240.500,197094.000,184133.600,219532.900,193988.600,0.000
193271.600,200233.400,243958.300,473212.400,197160.200,184176.800,219587.700,194081.700,0.000
193303.300,200273.800,244002.700,473188.500,197225.200,184218.800,219644.000,194167.700,0.000
193259.800,200251.100,243960.200,473005.300,197201.800,184202.300,219624.500,194127.400,0.000
193193.900,200190.100,243868.800,472712.100,197114.300,184146.400,219550.400,194010.700,0.000
193212.500,200190.500,243854.700,472528.600,197098.600,184143.000,219538.200,193991.300,0.000
193268.700,200226.100,243899.500,472486.400,197154.200,184173.100,219581.200,194069.900,0.000
193283.900,200239.500,243922.100,472433.500,197192.300,184187.200,219610.300,194128.400,0.000
193234.100,200220.600,243882.900,472254.500,197169.300,184172.200,219594.600,194092.200,0.000
193186.900,200176.100,243808.300,471972.800,197093.800,184128.400,219534.200,193993.400,0.000
193197.000,200164.600,243784.500,471778.600,197063.300,184111.200,219507.500,193965.000,0.000
193268.500,200219.000,243849.800,471763.400,197137.000,184164.900,219571.600,194064.900,0.000
193296.900,200255.400,243895.200,471743.300,197203.000,184206.500,219627.700,194148.600,0.000
193235.900,200211.800,243836.400,471540.800,197160.000,184169.700,219589.200,194091.900,0.000
193208.000,200185.400,243778.300,471278.100,197101.800,184143.400,219546.400,194009.500,0.000
193242.800,200204.200,243780.100,471111.700,197099.400,184153.300,219547.200,194004.800,0.000
193301.700,200253.800,243839.500,471091.300,197170.900,184202.300,219607.600,194099.700,0.000
193304.100,200268.400,243861.000,471048.600,197214.600,184222.100,219642.700,194161.000,0.000
193257.300,200241.800,243818.200,470869.100,197189.300,184202.600,219622.500,194121.300,0.000
193198.700,200179.900,243728.100,470578.300,197102.600,184143.900,219547.400,194007.800,0.000
193222.200,200179.700,243711.000,470396.800,197084.500,184138.000,219532.500,193987.600,0.000
193297.100,200248.100,243783.300,470393.000,197167.700,184197.500,219605.900,194095.600,0.000
193294.500,200254.600,243800.700,470351.400,197204.700,184208.200,219635.000,194151.500,0.000
193251.200,200230.400,243762.200,470176.400,197181.600,184189.600,219617.200,194114.000,0.000
193200.600,200184.400,243683.000,469897.700,197104.000,184141.400,219554.100,194011.300,0.000
193220.400,200183.800,243665.100,469713.300,197081.700,184132.300,219534.600,193987.600,0.000
193272.300,200224.300,243717.400,469692.100,197148.100,184175.300,219589.200,194076.500,0.000
193283.600,200245.700,243746.800,469663.700,197199.700,184200.400,219632.200,194143.500,0.000
193242.800,200219.500,243703.100,469483.300,197170.800,184175.600,219606.300,194098.000,0.000
193203.300,200183.700,243636.300,469215.400,197104.000,184136.800,219550.700,194002.300,0.000
193232.900,200204.200,243641.900,469061.100,197108.300,184154.300,219556.700,194003.600,0.000
193295.100,200249.700,243698.500,469041.000,197174.900,184199.000,219610.900,194094.500,0.000
193313.100,200269.400,243731.400,469014.000,197228.300,184227.200,219655.900,194167.200,0.000
193252.100,200227.900,243675.600,468824.700,197187.700,184190.500,219622.700,194113.400,0.000
193167.300,200144.100,243560.000,468511.700,197072.000,184105.200,219523.500,193973.900,0.000
193179.300,200141.500,243536.300,468326.000,197044.400,184089.300,219498.300,193945.700,0.000
193294.200,200246.700,243647.900,468362.400,197166.700,184188.600,219609.800,194092.200,0.000
193343.000,200307.200,243714.800,468375.500,197256.300,184253.200,219694.500,194199.900,0.000
193286.500,200266.300,243656.700,468187.600,197214.300,184217.100,219659.500,194143.400,0.000
193227.500,200203.400,243562.300,467898.900,197120.400,184155.200,219579.300,194023.700,0.000
193247.500,200202.300,243545.400,467721.800,197098.700,184145.400,219557.600,193999.000,0.000
193317.200,200260.600,243612.300,467714.700,197175.700,184196.900,219618.800,194098.500,0.000
193325.000,200270.300,243632.900,467680.200,197218.100,184212.000,219650.000,194156.800,0.000
193289.700,200247.800,243595.200,467511.000,197193.300,184194.000,219629.200,194117.000,0.000
193240.800,200198.100,243514.200,467235.300,197111.200,184143.300,219560.000,194008.200,0.000
193257.500,200198.900,243502.400,467067.700,197095.500,184141.400,219547.000,193990.000,0.000
193322.400,200242.800,243557.800,467053.500,197158.600,184181.900,219599.500,194080.200,0.000
193361.900,200285.000,243608.700,467052.100,197229.800,184226.900,219662.200,194170.000,0.000
193299.100,200241.600,243549.400,466866.800,197185.600,184186.700,219622.300,194111.300,0.000
193245.000,200183.700,243462.200,466584.900,197096.500,184127.100,219547.700,193998.800,0.000
193269.400,200190.000,243454.100,466420.700,197085.400,184128.600,219539.100,193985.400,0.000
193332.900,200245.800,243517.800,466415.900,197160.600,184181.400,219600.900,194084.100,0.000
193356.400,200283.100,243559.500,466408.500,197227.900,184220.900,219655.800,194167.300,0.000
193306.700,200253.700,243514.300,466235.900,197198.100,184195.400,219630.600,194123.200,0.000
193242.500,200188.200,243420.300,465950.800,197104.200,184134.000,219553.600,194004.300,0.000
193257.600,200194.300,243405.200,465782.000,197088.000,184127.700,219538.000,193983.500,0.000
193313.800,200245.500,243464.300,465776.800,197160.100,184175.300,219598.100,194079.000,0.000
193323.200,200261.300,243493.100,465755.500,197211.200,184200.800,219641.500,194148.700,0.000
193279.800,200237.500,243455.900,465596.300,197190.300,184184.600,219625.900,194112.600,0.000
193220.900,200183.900,243373.800,465323.700,197108.300,184132.900,219557.700,194003.200,0.000
193218.400,200172.500,243343.900,465138.400,197076.200,184113.100,219526.200,193968.000,0.000
193292.400,200239.000,243418.000,465146.800,197160.500,184177.000,219600.000,194077.600,0.000
193336.000,200292.800,243478.500,465159.800,197240.500,184234.400,219672.900,194178.300,0.000
193293.300,200271.300,243446.600,465010.000,197225.500,184223.600,219664.700,194149.900,0.000
193234.300,200211.400,243363.700,464739.800,197140.000,184170.600,219595.900,194038.500,0.000
193245.100,200206.500,243339.500,464557.000,197106.200,184151.600,219567.400,194003.900,0.000
193285.600,200231.100,243373.900,464520.900,197150.400,184171.000,219596.600,194074.500,0.000
193295.600,200238.300,243393.400,464491.500,197191.200,184184.700,219624.500,194133.800,0.000
193245.700,200211.100,243347.300,464327.300,197162.200,184159.600,219599.500,194088.300,0.000
193196.200,200174.100,243280.100,464080.400,197097.700,184122.400,219549.600,193997.100,0.000
193225.800,200182.000,243275.200,463923.700,197088.100,184122.700,219542.100,193982.800,0.000
193310.300,200257.300,243355.000,463942.100,197181.600,184191.500,219620.300,194095.800,0.000
193315.300,200277.800,243383.200,463928.000,197231.700,184217.100,219661.800,194163.900,0.000
193256.900,200233.000,243326.300,463749.600,197187.000,184179.800,219625.400,194106.500,0.000
193209.000,200188.000,243246.800,463482.000,197104.100,184128.000,219558.800,193997.800,0.000
193225.300,200184.700,243232.100,463312.500,197084.100,184121.400,219540.300,193976.000,0.000
193274.500,200223.500,243278.300,463291.400,197137.800,184153.400,219581.600,194054.400,0.000
193290.900,200245.500,243313.800,463283.700,197193.100,184185.400,219628.000,194130.400,0.000
193255.300,200226.100,243283.600,463136.700,197181.400,184181.900,219620.700,194106.800,0.000
193230.700,200209.100,243230.200,462899.200,197128.500,184160.600,219580.200,194026.800,0.000
193241.800,200194.600,243199.100,462715.000,197091.700,184135.300,219542.800,193984.800,0.000
193297.100,200248.200,243259.300,462717.200,197167.400,184186.300,219604.500,194081.800,0.000
193313.900,200276.000,243298.900,462722.000,197234.800,184224.300,219661.400,194166.800,0.000
193268.000,200251.300,243259.700,462569.700,197212.000,184202.200,219642.900,194131.900,0.000
193186.000,200169.100,243147.800,462277.400,197100.200,184120.400,219545.400,193996.700,0.000
193192.900,200158.500,243117.500,462094.300,197064.000,184097.800,219510.700,193959.200,0.000
193250.600,200203.300,243171.700,462084.300,197126.000,184139.800,219562.200,194049.200,0.000
193279.200,200237.100,243216.900,462089.200,197191.900,184181.400,219617.100,194133.800,0.000
193227.600,200209.200,243172.800,461934.100,197166.400,184157.300,219592.100,194090.800,0.000
193180.100,200162.900,243098.800,461681.000,197091.300,184111.700,219529.400,193988.900,0.000
193212.700,200179.500,243101.300,461535.800,197084.500,184119.100,219525.300,193980.900,0.000
193274.100,200226.100,243160.100,461535.300,197152.400,184163.500,219581.800,194071.600,0.000
193300.700,200265.100,243208.300,461547.800,197224.100,184205.500,219643.700,194161.500,0.000
193242.500,200219.600,243152.300,461380.700,197184.100,184169.300,219608.900,194107.300,0.000
193198.800,200171.800,243071.300,461117.600,197099.200,184115.000,219539.400,193995.800,0.000
193226.600,200188.300,243071.300,460972.100,197092.000,184120.800,219536.100,193985.300,0.000
193292.300,200241.500,243137.300,460976.800,197162.200,184171.300,219594.800,194080.800,0.000
193311.000,200262.600,243169.600,460968.700,197211.500,184198.900,219634.600,194152.300,0.000
193272.100,200247.100,243135.800,460827.400,197195.700,184191.500,219623.500,194125.700,0.000
193222.700,200196.200,243057.600,460570.500,197118.200,184147.000,219559.300,194024.100,0.000
193225.400,200184.400,243027.800,460393.900,197082.000,184124.300,219525.300,193986.200,0.000
193290.100,200237.600,243087.600,460393.800,197151.100,184170.200,219580.200,194078.500,0.000
193330.300,200289.600,243148.600,460418.800,197234.700,184225.400,219651.900,194179.600,0.000
193277.200,200257.100,243103.300,460266.000,197204.300,184198.700,219628.400,194137.800,0.000
193194.500,200177.100,242993.200,459978.600,197092.600,184117.900,219531.800,194003.700,0.000
193210.200,200177.800,242982.200,459826.700,197076.800,184115.800,219518.400,193987.300,0.000
193274.700,200230.500,243044.200,459836.400,197149.600,184164.400,219577.200,194084.900,0.000
193312.700,200280.400,243099.100,459860.400,197226.300,184212.200,219642.900,194180.500,0.000
193261.400,200250.500,243055.000,459713.500,197197.900,184189.400,219619.700,194140.700,0.000
193208.800,200197.300,242975.200,459456.500,197112.700,184136.900,219551.000,194031.400,0.000
193220.600,200193.900,242957.600,459295.700,197086.800,184126.900,219529.600,194004.800,0.000
193276.000,200239.300,243014.000,459302.900,197154.700,184174.200,219587.000,194097.700,0.000
193286.000,200253.800,243040.900,459299.700,197202.100,184196.000,219624.800,194166.100,0.000
193254.500,200242.400,243013.800,459166.500,197188.500,184187.000,219614.000,194140.900,0.000
193202.200,200188.800,242933.300,458914.200,197109.600,184136.100,219544.300,194033.600,0.000
193220.100,200187.900,242915.700,458757.200,197087.000,184127.300,219521.000,194005.700,0.000
193283.900,200239.900,242975.300,458764.900,197155.600,184173.700,219578.600,194097.800,0.000
193289.500,200252.200,242997.900,458758.800,197199.400,184188.500,219612.500,194161.900,0.000
193257.600,200234.000,242970.800,458627.000,197187.200,184180.000,219603.000,194137.300,0.000
193203.400,200188.100,242889.600,458374.000,197105.800,184127.300,219533.700,194028.000,0.000
193202.500,200177.600,242864.000,458209.600,197074.500,184109.700,219505.900,193993.300,0.000
193263.800,200228.400,242927.600,458219.500,197145.700,184160.100,219567.900,194089.900,0.000
193273.400,200247.300,242956.600,458217.400,197195.000,184183.400,219608.400,194159.500,0.000
193217.300,200212.500,242908.000,458069.600,197162.600,184157.200,219582.500,194115.300,0.000
193194.800,200191.500,242859.600,457850.300,197114.900,184142.400,219549.200,194039.800,0.000
193224.200,200200.300,242853.800,457703.800,197102.600,184146.300,219539.800,194023.200,0.000
193282.300,200240.500,242906.700,457705.700,197163.900,184187.100,219590.400,194110.300,0.000
193302.700,200265.500,242942.500,457714.400,197219.800,184215.800,219637.100,194185.600,0.000
193263.100,200245.500,242907.200,457579.500,197199.200,184197.900,219618.100,194150.900,0.000
193205.300,200192.900,242821.300,457326.800,197114.000,184142.700,219545.600,194038.300,0.000
193203.100,200176.100,242790.100,457160.800,197079.700,184121.300,219513.600,194001.800,0.000
193264.100,200221.300,242847.900,457164.900,197145.000,184165.800,219566.500,194090.100,0.000
193286.300,200248.800,242887.800,457175.500,197203.300,184199.100,219615.200,194167.500,0.000
193244.100,200229.600,242853.100,457041.300,197182.700,184183.000,219599.000,194133.000,0.000
193193.400,200183.800,242774.500,456795.500,197104.600,184135.500,219533.800,194025.700,0.000
193205.900,200172.100,242749.400,456634.000,197076.100,184119.600,219506.500,193995.100,0.000
193267.800,200221.900,242806.100,456641.400,197145.300,184165.800,219562.600,194087.300,0.000
193299.600,200261.200,242858.700,456668.400,197218.800,184210.100,219624.000,194178.700,0.000
193256.100,200233.000,242820.800,456530.000,197191.800,184186.700,219602.700,194142.400,0.000
193192.300,200174.900,242734.100,456275.700,197104.600,184129.000,219530.700,194029.800,0.000
193203.400,200169.800,242711.000,456117.100,197078.100,184117.900,219509.300,194001.000,0.000
193259.100,200209.800,242757.900,456115.400,197135.600,184153.400,219554.800,194083.300,0.000
193277.300,200234.800,242793.600,456127.300,197193.500,184181.300,219602.700,194160.300,0.000
193239.000,200214.300,242761.400,456001.700,197180.700,184169.500,219593.600,194132.600,0.000
193186.700,200161.100,242682.100,455755.000,197102.500,184119.400,219525.000,194028.000,0.000
193203.100,200166.000,242671.200,455608.800,197087.200,184117.400,219511.500,194007.700,0.000
193261.300,200209.600,242726.400,455617.000,197153.800,184160.900,219565.000,194094.400,0.000
193286.800,200240.400,242770.400,455634.900,197217.100,184197.300,219617.500,194175.100,0.000
193260.500,200232.900,242746.200,455511.600,197204.200,184191.000,219609.200,194151.100,0.000
193200.500,200178.800,242660.700,455265.500,197120.800,184136.300,219537.800,194039.600,0.000
193207.200,200169.100,242637.900,455112.300,197093.500,184123.000,219514.700,194009.900,0.000
193263.100,200209.000,242689.300,455112.200,197150.500,184159.300,219558.600,194090.800,0.000
193297.800,200259.200,242748.400,455145.700,197229.800,184213.100,219627.100,194189.500,0.000
193252.100,200232.600,242707.400,455009.300,197205.300,184193.000,219608.000,194151.500,0.000
193190.300,200172.000,242618.000,454753.300,197112.400,184131.600,219531.900,194032.000,0.000
193206.200,200175.200,242606.300,454605.300,197090.500,184124.700,219516.500,194005.400,0.000
193272.500,200223.300,242668.300,454619.500,197156.500,184170.700,219574.000,194095.300,0.000
193297.700,200244.800,242704.700,454630.800,197209.000,184199.400,219617.900,194169.100,0.000
193256.900,200226.100,242670.100,454500.300,197188.300,184182.900,219599.300,194134.800,0.000
193189.600,200159.800,242574.100,454239.700,197094.000,184117.500,219515.900,194012.800,0.000
193212.200,200159.700,242559.200,454088.300,197075.300,184111.200,219496.500,193990.400,0.000
193275.600,200215.000,242619.800,454100.200,197143.300,184158.900,219550.800,194081.900,0.000
193291.500,200239.300,242655.300,454113.600,197198.100,184187.600,219595.500,194156.000,0.000
193241.900,200202.300,242610.200,453976.800,197168.800,184160.400,219570.700,194114.900,0.000
193198.900,200153.500,242534.900,453733.400,197089.600,184110.100,219503.600,194008.500,0.000
193219.900,200172.300,242537.500,453604.300,197087.600,184119.500,219503.200,194001.000,0.000
193278.600,200222.100,242596.000,453619.000,197155.500,184162.400,219558.600,194091.900,0.000
193313.500,200268.900,242657.100,453662.300,197239.300,184218.300,219631.100,194196.700,0.000
193290.200,200260.700,242640.500,453555.000,197237.500,184222.700,219633.700,194185.600,0.000
193206.900,200186.300,242530.600,453284.100,197124.300,184140.900,219536.800,194045.900,0.000
193220.800,200185.100,242512.100,453133.400,197099.600,184130.200,219515.100,194015.100,0.000
193280.300,200237.400,242572.000,453151.900,197170.000,184178.000,219572.000,194107.200,0.000
193297.500,200260.400,242609.100,453173.300,197231.000,184211.100,219619.800,194186.300,0.000
193253.600,200229.400,242569.400,453043.800,197207.600,184189.900,219599.300,194150.900,0.000
193197.100,200178.000,242486.100,452800.100,197120.200,184134.800,219526.200,194038.900,0.000
193218.800,200190.100,242477.400,452659.100,197103.100,184134.900,219514.200,194018.200,0.000
193270.100,200229.300,242527.000,452665.800,197160.600,184171.900,219559.300,194097.100,0.000
193298.200,200260.300,242570.800,452690.900,197223.300,184206.900,219611.100,194179.100,0.000
193262.000,200234.300,242539.800,452571.100,197207.200,184193.200,219599.100,194152.400,0.000
193200.500,200175.100,242450.400,452323.000,197117.000,184132.600,219524.400,194036.000,0.000
193219.400,200178.800,242437.200,452179.800,197095.700,184126.300,219510.500,194011.600,0.000
193271.800,200212.900,242481.000,452179.200,197146.200,184155.400,219550.300,194086.200,0.000
193284.800,200231.300,242511.300,452192.300,197196.100,184180.100,219591.200,194158.000,0.000
193278.000,200240.200,242511.300,452101.300,197210.200,184195.300,219609.000,194157.900,0.000
193234.200,200201.100,242443.600,451877.300,197144.200,184159.100,219558.400,194063.000,0.000
193234.800,200182.500,242410.800,451710.900,197106.100,184134.500,219520.600,194017.400,0.000
193293.400,200231.800,242467.300,451724.300,197168.400,184176.300,219570.500,194104.700,0.000
193309.100,200257.700,242503.400,451745.800,197223.300,184204.200,219615.700,194180.400,0.000
193269.500,200236.100,242469.800,451623.600,197201.400,184186.300,219597.000,194147.700,0.000
193217.100,200187.800,242393.000,451387.700,197123.500,184137.900,219530.500,194041.500,0.000
193229.800,200183.800,242373.300,451237.900,197097.900,184126.900,219507.900,194009.700,0.000
193300.800,200244.700,242443.800,451268.700,197178.500,184184.900,219577.400,194110.000,0.000
193304.400,200252.600,242466.000,451273.100,197220.100,184197.800,219605.900,194168.800,0.000
193249.500,200218.800,242418.400,451139.100,197188.400,184168.800,219576.500,194123.900,0.000
193201.600,200172.700,242343.300,450907.600,197113.300,184124.400,219515.000,194023.100,0.000
193246.000,200207.800,242362.500,450797.900,197124.000,184151.200,219530.300,194030.100,0.000
193285.800,200235.800,242399.900,450793.900,197169.800,184177.500,219564.600,194097.300,0.000
193296.900,200249.500,242425.800,450804.200,197216.600,184197.600,219599.000,194162.100,0.000
193279.000,200241.200,242411.300,450705.700,197218.100,184199.500,219604.400,194151.300,0.000
193232.500,200201.200,242338.300,450476.500,197142.900,184155.000,219542.700,194050.200,0.000
193230.700,200194.600,242316.300,450331.900,197116.400,184145.000,219521.800,194020.000,0.000
193281.400,200226.000,242360.300,450336.700,197169.500,184177.400,219562.500,194096.600,0.000
193314.100,200258.600,242406.700,450368.000,197234.900,184215.800,219616.500,194182.400,0.000
193283.300,200251.000,242385.200,450263.100,197227.300,184208.900,219612.300,194162.100,0.000
193199.200,200167.100,242279.200,450005.000,197122.100,184133.300,219521.800,194030.600,0.000
193214.500,200172.000,242263.300,449867.000,197103.100,184129.500,219507.500,194006.100,0.000
193276.400,200224.300,242320.700,449883.300,197164.300,184172.000,219559.100,194090.600,0.000
193302.200,200251.600,242366.100,449916.200,197226.800,184208.000,219612.300,194175.500,0.000
193282.100,200242.000,242351.700,449817.800,197224.100,184208.400,219615.800,194163.500,0.000
193215.300,200177.000,242256.400,449567.900,197123.500,184141.200,219530.100,194040.200,0.000
193230.600,200178.900,242242.300,449425.600,197103.000,184135.100,219511.200,194015.000,0.000
193286.800,200223.400,242292.300,449433.200,197159.600,184170.100,219555.200,194093.400,0.000
193306.600,200259.500,242333.300,449463.100,197222.000,184205.100,219607.100,194175.000,0.000
193261.900,200236.600,242301.900,449354.800,197211.100,184197.800,219599.800,194153.000,0.000
193201.900,200181.600,242218.400,449122.200,197129.300,184147.200,219532.500,194043.200,0.000
193213.500,200172.800,242194.800,448969.300,197096.400,184130.800,219503.500,194003.700,0.000
193287.800,200234.700,242265.300,449001.300,197173.800,184187.000,219569.600,194102.500,0.000
193315.500,200269.000,242311.400,449039.100,197239.200,184225.900,219624.100,194189.100,0.000
193259.200,200233.000,242263.000,448910.600,197207.000,184197.500,219593.700,194143.700,0.000
193200.900,200179.400,242182.800,448676.300,197124.000,184147.800,219524.500,194033.300,0.000
193226.600,200184.400,242177.300,448540.600,197109.000,184149.900,219514.600,194013.400,0.000
193289.100,200227.900,242231.000,448552.700,197170.600,184191.300,219565.000,194097.800,0.000
193301.000,200252.800,242268.300,448580.700,197228.800,184222.500,219614.700,194177.100,0.000
193275.900,200245.100,242248.800,448482.300,197223.400,184218.300,219611.900,194157.900,0.000
193225.500,200196.200,242172.300,448255.800,197147.400,184172.000,219546.300,194053.900,0.000
193226.700,200183.800,242142.700,448104.900,197114.100,184153.300,219516.100,194015.000,0.000
193284.300,200225.400,242188.900,448116.000,197167.500,184185.600,219557.600,194090.800,0.000
193331.600,200275.500,242251.100,448166.300,197247.500,184235.800,219623.200,194190.300,0.000
193288.700,200254.000,242220.900,448058.700,197231.500,184221.200,219610.100,194163.400,0.000
193221.100,200185.500,242125.600,447813.300,197132.800,184153.200,219527.000,194038.200,0.000
193233.900,200187.500,242107.600,447674.400,197108.300,184145.400,219506.800,194008.100,0.000
193287.400,200230.300,242160.700,447695.700,197167.700,184183.800,219556.100,194091.300,0.000
193318.700,200263.200,242211.500,447737.600,197235.800,184223.400,219615.100,194180.300,0.000
193284.300,200259.400,242192.200,447641.000,197231.400,184219.500,219616.600,194164.300,0.000
193217.900,200195.500,242101.700,447405.300,197140.400,184158.300,219542.400,194047.800,0.000
193221.200,200175.200,242066.900,447246.100,197096.000,184129.000,219499.600,193999.100,0.000
193283.800,200233.700,242133.200,447281.000,197171.500,184184.100,219563.800,194095.800,0.000
193290.000,200250.500,242166.000,447309.900,197227.700,184211.800,219610.600,194169.200,0.000
193268.800,200247.000,242150.500,447219.700,197227.300,184212.600,219615.500,194156.800,0.000
193238.100,200220.100,242096.100,447022.000,197173.200,184186.100,219575.500,194074.700,0.000
193276.700,200241.600,242102.600,446909.200,197173.000,184197.700,219579.600,194068.900,0.000
193334.200,200289.800,242160.200,446934.600,197241.400,184241.100,219634.800,194157.100,0.000
193340.200,200301.600,242188.700,446959.200,197288.800,184258.900,219672.200,194225.800,0.000
193297.200,200277.600,242154.700,446853.900,197266.800,184239.700,219656.200,194193.600,0.000
193235.500,200212.500,242067.300,446621.000,197177.600,184179.800,219580.500,194078.500,0.000
193234.600,200191.300,242030.200,446460.300,197135.000,184149.400,219539.600,194029.300,0.000
193293.200,200236.900,242079.500,446470.600,197189.700,184181.300,219581.800,194105.600,0.000
193311.200,200258.800,242114.700,446499.400,197244.800,184208.900,219624.500,194178.900,0.000
193279.900,200255.800,242100.800,446414.300,197247.500,184213.800,219631.300,194168.800,0.000
193232.200,200211.600,242030.000,446194.400,197172.200,184168.800,219570.900,194066.400,0.000
193222.200,200191.500,241997.300,446044.200,197134.600,184145.500,219539.200,194023.500,0.000
193264.400,200215.800,242033.500,446049.600,197179.200,184169.500,219574.300,194093.000,0.000
193300.000,200263.100,242093.200,446108.800,197259.300,184222.400,219645.200,194194.600,0.000
193268.000,200247.600,242068.400,446011.300,197248.700,184214.600,219637.200,194173.000,0.000
193208.200,200189.500,241983.400,445781.800,197163.200,184160.800,219565.900,194062.100,0.000
193219.100,200186.200,241961.800,445640.200,197136.400,184149.100,219542.500,194026.800,0.000
193287.000,200247.100,242026.400,445670.200,197205.500,184198.900,219601.400,194116.900,0.000
193308.200,200271.500,242068.100,445708.200,197264.800,184230.800,219650.700,194198.100,0.000
193268.700,200249.600,242037.900,445607.900,197249.100,184217.300,219637.900,194171.400,0.000
193193.600,200177.700,241941.400,445370.500,197153.000,184152.900,219555.400,194047.200,0.000
193208.800,200181.600,241925.100,445233.500,197128.300,184144.500,219535.600,194014.800,0.000
193304.300,200263.900,242015.600,445291.000,197223.700,184219.800,219619.700,194131.700,0.000
193316.900,200279.100,242047.600,445317.000,197272.800,184239.400,219657.700,194200.400,0.000
193267.900,200249.700,242010.800,445208.000,197250.900,184215.000,219639.800,194166.600,0.000
193220.900,200209.200,241943.700,445005.200,197188.500,184180.500,219593.500,194076.100,0.000
193241.000,200206.600,241929.000,444874.900,197166.200,184174.800,219578.300,194047.500,0.000
193309.900,200258.500,241990.700,444907.900,197235.300,184221.800,219635.300,194138.600,0.000
193324.200,200274.700,242021.300,444939.900,197286.100,184243.500,219674.500,194211.200,0.000
193285.500,200255.700,241990.800,444839.400,197270.000,184229.000,219661.000,194185.100,0.000
193226.600,200204.700,241911.200,444621.700,197190.800,184178.700,219595.400,194078.700,0.000
193231.600,200191.400,241881.700,444479.000,197156.600,184160.600,219565.800,194036.800,0.000
193291.900,200237.300,241935.000,444504.800,197216.900,184203.200,219617.000,194120.500,0.000
193323.300,200275.900,241984.200,444556.600,197282.700,184242.100,219675.000,194209.300,0.000
193302.900,200263.700,241965.700,444467.100,197272.500,184233.600,219669.600,194191.200,0.000
193246.100,200221.800,241899.600,444260.700,197203.500,184193.900,219614.900,194095.200,0.000
193239.700,200205.600,241866.100,444110.400,197161.900,184171.700,219579.100,194048.600,0.000
193294.400,200239.500,241910.000,444122.000,197210.600,184200.600,219614.800,194120.400,0.000
193329.600,200273.300,241959.700,444169.300,197277.700,184238.000,219667.000,194208.500,0.000
193293.600,200263.700,241939.300,444085.400,197272.800,184234.500,219666.800,194195.400,0.000
193228.700,200203.300,241850.700,443858.500,197183.400,184174.600,219591.100,194079.800,0.000
193216.300,200162.300,241793.000,443673.900,197111.200,184120.600,219519.900,194003.100,0.000
193267.100,200203.800,241843.400,443693.000,197166.100,184157.200,219563.300,194080.500,0.000
193302.600,200258.400,241911.600,443771.100,197256.500,184219.300,219646.000,194193.000,0.000
193269.600,200246.300,241892.100,443693.200,197255.000,184217.500,219649.900,194182.500,0.000
193220.000,200199.000,241813.500,443477.900,197175.600,184165.200,219583.000,194073.500,0.000
193237.200,200195.900,241792.600,443338.800,197143.300,184150.200,219555.400,194034.000,0.000
193311.600,200271.900,241879.900,443405.700,197239.200,184227.800,219643.400,194153.300,0.000
193339.800,200308.800,241931.100,443470.400,197314.000,184275.400,219707.500,194249.300,0.000
193279.700,200264.000,241878.800,443360.600,197276.900,184239.200,219674.100,194203.600,0.000
193210.100,200191.400,241782.700,443127.700,197174.600,184168.900,219585.200,194077.800,0.000
193222.300,200187.800,241764.900,442997.700,197148.100,184162.000,219563.000,194045.800,0.000
193277.400,200235.500,241819.200,443028.800,197208.800,184204.800,219614.500,194127.500,0.000
193312.600,200279.000,241878.300,443093.800,197284.500,184250.700,219683.300,194225.800,0.000
193278.500,200259.100,241850.700,443003.600,197269.000,184234.800,219673.000,194203.100,0.000
193213.900,200197.100,241759.900,442777.200,197178.600,184173.600,219594.500,194085.800,0.000
193218.100,200184.700,241733.500,442639.400,197146.600,184157.200,219566.000,194044.300,0.000
193277.600,200222.600,241787.000,442668.900,197205.500,184196.200,219616.100,194124.800,0.000
193322.100,200269.700,241850.600,442738.100,197284.500,184249.000,219685.900,194226.500,0.000
193287.800,200249.600,241820.200,442641.500,197262.700,184229.200,219667.700,194197.800,0.000
193225.700,200203.400,241744.200,442431.600,197185.400,184180.000,219602.200,194093.800,0.000
193205.400,200172.000,241695.600,442269.000,197128.600,184135.800,219548.000,194029.100,0.000
193262.400,200209.900,241742.000,442287.800,197178.900,184166.600,219588.000,194101.900,0.000
193310.400,200264.800,241811.500,442364.800,197266.000,184226.700,219665.600,194211.000,0.000
193279.200,200252.000,241789.700,442283.500,197261.000,184220.500,219662.800,194194.700,0.000
193229.800,200208.300,241720.700,442078.500,197191.300,184177.800,219606.000,194098.000,0.000
193229.000,200189.500,241685.800,441929.300,197147.800,184150.000,219567.100,194048.300,0.000
193263.600,200209.900,241715.200,441932.700,197182.900,184164.000,219592.000,194106.900,0.000
193288.600,200239.700,241762.000,441984.900,197245.400,184198.300,219645.000,194193.200,0.000
193259.100,200226.000,241740.500,441901.600,197235.600,184189.400,219638.400,194175.500,0.000
193201.200,200177.200,241664.300,441695.100,197161.300,184144.500,219577.900,194073.400,0.000
193208.800,200166.400,241637.000,441556.200,197127.500,184125.600,219547.000,194031.400,0.000
193295.900,200240.600,241720.700,441614.900,197217.800,184194.800,219624.200,194141.800,0.000
193349.100,200296.400,241795.000,441693.700,197307.200,184255.800,219701.100,194250.900,0.000
193328.500,200295.600,241785.800,441627.700,197313.400,184262.500,219710.800,194244.400,0.000
193221.800,200196.800,241660.600,441371.700,197187.200,184167.100,219600.500,194091.200,0.000
193220.100,200177.900,241626.700,441224.300,197142.800,184142.400,219559.800,194039.900,0.000
193295.600,200240.000,241697.900,441269.400,197219.400,184200.400,219621.800,194136.600,0.000
193325.100,200274.000,241742.900,441315.200,197280.200,184234.400,219668.000,194217.700,0.000
193285.700,200256.300,241720.500,441231.900,197272.300,184227.900,219662.800,194200.400,0.000
193218.700,200201.300,241635.700,441015.500,197186.100,184170.400,219592.800,194088.500,0.000
