EEG 1, EEG 2, EEG 3, EEG 4, EEG 5, EEG 6, EEG 7, EEG 8, TRIG
331864.700,363165.600,750000.100,750000.100,750000.100,304043.300,750000.100,329426.800,0.000
313403.800,343556.900,750000.100,750000.100,750000.100,288110.600,750000.100,312221.500,0.000
302238.900,331742.500,750000.100,705336.000,750000.100,278546.000,750000.100,301721.400,0.000
292653.900,321600.100,750000.100,660473.500,750000.100,270277.000,750000.100,292583.500,0.000
283879.300,312408.200,750000.100,624009.100,750000.100,262702.000,750000.100,284180.900,0.000
275926.600,304192.600,750000.100,593756.300,750000.100,255852.400,750000.100,276482.000,0.000
269190.000,297198.600,750000.100,568482.500,750000.100,250040.100,750000.100,269841.100,0.000
263618.900,291280.100,750000.100,547104.400,750000.100,245178.400,750000.100,264268.300,0.000
258583.400,285881.000,750000.100,528571.900,750000.100,240746.400,750000.100,259260.100,0.000
253574.500,280610.600,750000.100,512125.300,750000.100,236346.400,750000.100,254335.400,0.000
248773.500,275634.900,750000.100,497490.800,750000.100,232152.700,750000.100,249607.000,0.000
244664.200,271334.000,750000.100,484651.000,750000.100,228554.600,750000.100,245483.500,0.000
241311.400,267703.200,750000.100,473367.600,750000.100,225572.100,750000.100,242061.900,0.000
238205.100,264298.600,750000.100,463177.300,750000.100,222786.000,750000.100,238938.700,0.000
234948.100,260829.200,750000.100,453746.300,750000.100,219884.000,750000.100,235737.300,0.000
231730.700,257497.800,750000.100,445082.300,750000.100,217060.400,750000.100,232578.100,0.000
228991.900,254604.300,750000.100,437346.200,750000.100,214637.500,750000.100,229813.600,0.000
226815.000,252192.400,750000.100,430421.800,750000.100,212669.800,750000.100,227574.800,0.000
224760.600,249886.300,750000.100,423994.400,750000.100,210791.200,750000.100,225500.900,0.000
222439.600,247392.100,750000.100,417864.900,750000.100,208699.700,750000.100,223232.800,0.000
220055.300,244923.800,750000.100,412101.500,750000.100,206582.300,750000.100,220896.400,0.000
218085.900,242852.800,750000.100,406930.600,750000.100,204828.500,750000.100,218907.100,0.000
216611.800,241187.100,750000.100,402320.800,750000.100,203470.000,750000.100,217361.700,0.000
215212.600,239576.900,750000.100,397999.000,750000.100,202170.300,750000.100,215942.300,0.000
213512.900,237742.400,750000.100,393728.400,750000.100,200633.900,750000.100,214295.000,0.000
211717.400,235894.900,750000.100,389678.100,750000.100,199046.400,750000.100,212550.600,0.000
210263.200,234368.700,750000.100,386029.700,750000.100,197753.600,750000.100,211075.900,0.000
209256.100,233205.700,750000.100,382790.400,750000.100,196812.100,750000.100,210000.500,0.000
208283.600,232056.600,750000.100,379725.500,750000.100,195892.000,750000.100,209006.700,0.000
207004.100,230675.400,750000.100,376644.200,750000.100,194722.500,750000.100,207778.500,0.000
205582.700,229223.000,750000.100,373652.100,750000.100,193459.600,750000.100,206412.000,0.000
204481.300,228075.100,750000.100,370986.600,750000.100,192482.800,750000.100,205293.700,0.000
203808.200,227273.400,750000.100,368664.400,750000.100,191842.000,750000.100,204553.100,0.000
203150.800,226460.500,750000.100,366434.300,750000.100,191210.100,750000.100,203881.200,0.000
202149.100,225378.800,750000.100,364107.100,750000.100,190298.700,750000.100,202935.600,0.000
201001.000,224224.000,750000.100,361833.000,750000.100,189290.000,750000.100,201836.400,0.000
200145.600,223346.600,750000.100,359839.700,750000.100,188533.800,750000.100,200961.300,0.000
199698.500,222796.700,750000.100,358133.600,750000.100,188102.700,750000.100,200453.000,0.000
199247.200,222219.600,750000.100,356453.000,750000.100,187658.900,750000.100,199990.200,0.000
198469.100,221374.100,750000.100,354683.300,750000.100,186944.300,750000.100,199262.300,0.000
197528.500,220443.100,750000.100,352933.100,750000.100,186117.000,748538.100,198365.500,0.000
196841.000,219746.900,750000.100,351368.600,750000.100,185512.500,746059.100,197662.600,0.000
196555.400,219359.000,748688.100,350085.200,748495.500,185227.000,744225.600,197317.300,0.000
196271.800,218960.200,746750.200,348843.200,746560.800,184935.000,742659.300,197020.900,0.000
195650.800,218287.000,744898.800,347466.900,744709.900,184366.000,740764.500,196448.100,0.000
194878.800,217532.600,743148.900,346086.500,742957.300,183693.800,738583.100,195722.100,0.000
194356.000,217012.600,741500.800,344897.300,741306.900,183244.900,736652.800,195186.800,0.000
194194.900,216769.800,739938.400,343945.300,739746.800,183077.500,735290.700,194968.200,0.000
194019.400,216487.600,738448.400,342984.300,738260.400,182881.400,734143.200,194774.500,0.000
193514.500,215944.500,737028.600,341887.500,736840.900,182413.400,732677.500,194322.000,0.000
192826.400,215286.100,735675.800,340766.300,735485.400,181817.200,730866.900,193684.300,0.000
192382.000,214853.800,734398.300,339818.900,734206.000,181436.900,729266.300,193220.500,0.000
192324.100,214731.300,733201.400,339095.800,733011.000,181365.700,728254.800,193099.000,0.000
192267.900,214574.200,732064.000,338389.600,731876.800,181277.000,727471.800,193020.200,0.000
191862.700,214133.900,730975.900,337519.700,730789.100,180907.300,726342.600,192667.000,0.000
191268.100,213578.300,729940.400,336600.800,729750.400,180399.000,724860.700,192126.100,0.000
190922.400,213257.100,728970.100,335868.700,728778.400,180106.900,723590.300,191767.100,0.000
190937.900,213207.800,728057.000,335356.800,727867.300,180099.500,722864.800,191725.200,0.000
190940.000,213123.500,727187.900,334796.100,727000.700,180069.200,722343.300,191710.900,0.000
190595.700,212747.800,726351.400,334074.600,726164.100,179751.000,721456.800,191413.500,0.000
190064.000,212257.400,725556.400,333303.800,725366.300,179296.800,720210.600,190931.200,0.000
189783.400,212011.100,724819.400,332716.300,724627.900,179065.900,719175.800,190637.700,0.000
189856.000,212032.100,724128.300,332332.100,723938.800,179112.400,718673.500,190656.400,0.000
189914.400,211995.400,723468.500,331924.100,723281.600,179128.700,718353.400,190694.500,0.000
189637.900,211690.600,722832.000,331363.700,722644.900,178870.300,717676.900,190461.500,0.000
189167.800,211270.100,722228.500,330728.800,722039.100,178477.100,716640.400,190042.700,0.000
188916.400,211056.200,721666.700,330224.600,721475.300,178277.900,715771.000,189777.300,0.000
189036.200,211127.100,721145.800,329948.500,720956.400,178370.900,715436.200,189839.900,0.000
189147.900,211160.000,720648.900,329669.600,720462.800,178441.400,715284.400,189933.600,0.000
188902.900,210893.500,720164.300,329181.800,719978.300,178208.100,714750.600,189734.300,0.000
188471.000,210514.000,719706.600,328627.500,719516.900,177847.200,713860.800,189350.700,0.000
188269.600,210350.100,719285.800,328246.100,719094.000,177689.000,713144.300,189135.200,0.000
188421.100,210457.900,718897.400,328052.000,718708.100,177809.800,712934.900,189231.000,0.000
188549.200,210504.600,718519.900,327824.000,718333.100,177885.300,712878.500,189337.500,0.000
188360.000,210293.200,718159.800,327440.700,717973.300,177707.900,712487.600,189189.100,0.000
187960.900,209943.400,717814.800,326975.100,717624.900,177374.800,711706.800,188834.500,0.000
187777.100,209800.700,717492.200,326651.600,717300.800,177233.400,711070.400,188632.000,0.000
187954.300,209938.800,717198.700,326526.400,717009.200,177371.900,710939.400,188746.200,0.000
188114.400,210034.400,716919.400,326357.300,716731.900,177488.500,710987.000,188890.200,0.000
187936.700,209836.900,716647.800,326017.100,716460.900,177332.900,710686.600,188769.800,0.000
187566.500,209510.900,716388.300,325611.400,716198.500,177026.800,710007.900,188448.500,0.000
187413.600,209401.800,716154.100,325351.400,715961.800,176914.100,709475.300,188281.100,0.000
187596.600,209546.800,715936.100,325267.400,715745.400,177063.700,709406.900,188402.800,0.000
187787.600,209668.000,715731.100,325167.600,715543.800,177204.900,709533.300,188573.500,0.000
187622.000,209492.800,715526.300,324865.500,715338.900,177058.200,709290.100,188460.600,0.000
187268.200,209192.900,715329.100,324504.300,715138.300,176764.800,708664.000,188149.000,0.000
187135.900,209097.500,715154.800,324283.300,714962.300,176662.900,708193.900,188003.100,0.000
187338.300,209260.400,714997.900,324242.100,714806.900,176832.200,708202.000,188154.200,0.000
187537.900,209391.900,714846.400,324186.200,714658.400,176979.100,708376.400,188335.600,0.000
187393.700,209236.900,714691.900,323925.300,714504.100,176847.900,708189.700,188242.900,0.000
187046.400,208946.000,714542.500,323583.600,714351.500,176564.800,707618.800,187946.700,0.000
186913.900,208857.900,714412.100,323386.300,714218.600,176472.300,707188.300,187802.900,0.000
187136.100,209040.400,714296.400,323389.900,714105.000,176656.900,707235.900,187964.000,0.000
187341.000,209173.500,714184.100,323346.100,713995.700,176809.500,707443.400,188146.300,0.000
187208.000,209028.900,714068.400,323129.400,713880.600,176686.300,707290.300,188062.400,0.000
186870.800,208755.400,713955.600,322802.500,713764.600,176410.600,706754.900,187772.800,0.000
186753.400,208683.400,713861.800,322636.700,713668.400,176329.300,706365.700,187642.000,0.000
186990.000,208880.900,713782.200,322663.900,713590.300,176526.400,706461.000,187824.000,0.000
187199.800,209023.500,713695.700,322652.500,713506.800,176682.300,706691.800,188016.200,0.000
187070.900,208885.400,713604.900,322446.700,713416.400,176566.200,706561.400,187933.300,0.000
186741.800,208615.200,713519.600,322160.800,713327.900,176306.600,706058.100,187657.100,0.000
186631.200,208549.400,713447.100,322018.600,713253.100,176222.400,705684.100,187526.300,0.000
186869.300,208756.200,713387.900,322041.200,713196.000,176414.700,705788.400,187703.800,0.000
187095.400,208927.000,713327.800,322047.100,713139.100,176588.500,706048.200,187908.400,0.000
186982.000,208795.600,713261.600,321867.500,713072.900,176484.200,705957.500,187844.100,0.000
186658.500,208525.200,713197.700,321608.100,713006.100,176224.800,705488.300,187575.700,0.000
186545.700,208459.700,713145.900,321487.500,712951.500,176150.300,705137.400,187453.000,0.000
186778.100,208659.900,713103.400,321513.600,712911.100,176350.000,705255.800,187630.900,0.000
187001.300,208815.500,713057.100,321521.500,712868.000,176519.300,705522.600,187831.900,0.000
186891.000,208695.500,713004.400,321362.800,712814.900,176415.100,705439.300,187767.600,0.000
186567.300,208433.500,712949.600,321106.900,712756.800,176153.800,704966.400,187490.500,0.000
186451.300,208362.900,712907.300,320979.900,712711.900,176074.200,704619.900,187365.100,0.000
186685.500,208565.900,712874.900,321035.700,712681.600,176271.800,704740.100,187544.800,0.000
186916.100,208729.900,712842.100,321075.100,712651.900,176450.600,705024.800,187759.300,0.000
186815.500,208618.300,712801.800,320907.700,712611.900,176350.200,704961.800,187699.700,0.000
186502.400,208365.800,712759.400,320652.100,712566.700,176090.000,704507.400,187428.100,0.000
186406.000,208317.000,712729.500,320560.800,712534.100,176024.700,704178.400,187313.300,0.000
186647.800,208529.800,712707.900,320631.100,712513.900,176226.800,704307.700,187495.800,0.000
186867.700,208671.600,712679.700,320649.800,712488.800,176396.700,704587.400,187701.100,0.000
186774.900,208564.900,712650.600,320514.700,712460.400,176310.800,704544.000,187655.600,0.000
186460.600,208314.600,712616.600,320281.400,712423.100,176056.800,704099.400,187389.700,0.000
186359.900,208262.600,712592.800,320180.500,712397.300,175990.800,703778.400,187273.600,0.000
186615.700,208483.300,712582.100,320279.600,712388.200,176203.600,703926.100,187468.200,0.000
186855.900,208654.800,712567.400,320330.800,712376.900,176387.000,704234.500,187690.300,0.000
186737.900,208530.400,712537.500,320179.200,712346.900,176280.500,704167.600,187621.400,0.000
186411.000,208263.600,712501.900,319926.200,712307.800,176013.500,703709.500,187340.200,0.000
186318.700,208215.500,712485.100,319846.100,712288.400,175953.300,703396.800,187231.400,0.000
186562.700,208429.800,712475.400,319936.400,712280.700,176158.400,703537.000,187418.300,0.000
186802.700,208608.900,712465.000,319983.100,712273.600,176349.700,703843.100,187642.400,0.000
186710.500,208503.400,712443.800,319852.800,712252.900,176258.800,703803.100,187594.300,0.000
186400.500,208252.600,712420.400,319636.400,712225.900,176007.200,703377.600,187334.700,0.000
186298.300,208194.500,712404.900,319551.800,712208.300,175938.100,703063.500,187218.800,0.000
186539.600,208402.600,712400.300,319634.700,712205.200,176140.500,703206.400,187404.500,0.000
186786.700,208585.100,712391.100,319709.800,712199.100,176329.900,703511.400,187628.400,0.000
186693.500,208483.900,712373.600,319584.700,712181.900,176244.500,703477.600,187582.200,0.000
186375.200,208228.700,712351.800,319337.700,712157.200,175991.500,703056.600,187316.800,0.000
186268.100,208172.500,712340.000,319245.800,712142.600,175918.000,702744.100,187195.700,0.000
186509.900,208383.500,712343.400,319337.900,712147.700,176126.700,702896.500,187386.100,0.000
186754.500,208564.000,712337.500,319416.000,712145.300,176314.200,703203.700,187606.800,0.000
186667.900,208473.700,712318.700,319302.700,712127.100,176230.800,703165.400,187560.400,0.000
186350.800,208205.300,712294.900,319072.600,712099.600,175973.600,702732.200,187289.000,0.000
186250.400,208151.200,712285.400,318991.100,712087.200,175905.600,702421.700,187171.700,0.000
186493.000,208361.900,712287.300,319091.200,712091.400,176112.800,702570.200,187361.400,0.000
186734.700,208543.700,712284.300,319160.200,712092.300,176303.200,702885.100,187587.900,0.000
186637.000,208437.700,712267.600,319041.900,712075.800,176213.500,702846.700,187537.300,0.000
186331.800,208191.700,712251.600,318838.500,712056.000,175965.800,702437.100,187284.500,0.000
186220.300,208130.900,712244.400,318761.000,712046.300,175891.500,702130.300,187168.200,0.000
186464.900,208345.800,712248.200,318860.600,712051.900,176099.200,702276.400,187353.000,0.000
186718.500,208531.600,712249.400,318938.100,712056.800,176298.600,702598.800,187582.400,0.000
186627.200,208420.900,712237.600,318820.500,712044.800,176213.100,702573.400,187534.700,0.000
186315.700,208171.000,712220.300,318607.400,712023.800,175957.500,702154.900,187269.800,0.000
186206.000,208118.300,712211.400,318527.000,712012.100,175875.400,701835.800,187142.300,0.000
186448.300,208319.800,712217.800,318633.600,712019.900,176084.800,701985.200,187330.700,0.000
186700.800,208505.400,712219.100,318720.200,712024.900,176285.600,702310.400,187563.400,0.000
186619.500,208413.800,712209.400,318617.600,712016.300,176210.500,702297.500,187528.600,0.000
186305.100,208159.800,712192.100,318406.000,711995.400,175953.800,701881.600,187266.800,0.000
186190.600,208094.100,712187.100,318329.900,711986.900,175873.200,701570.700,187143.000,0.000
186433.100,208308.600,712192.700,318437.700,711994.800,176081.400,701718.600,187328.900,0.000
186666.900,208479.900,712186.300,318501.700,711991.900,176265.400,702006.300,187541.000,0.000
186594.200,208392.200,712177.800,318416.800,711983.800,176194.500,701986.300,187508.300,0.000
186286.400,208144.500,712165.400,318209.600,711967.600,175947.000,701579.600,187253.500,0.000
186185.100,208093.200,712162.400,318140.800,711961.800,175880.700,701284.300,187139.900,0.000
186427.300,208302.600,712167.100,318260.100,711969.100,176087.100,701428.300,187324.100,0.000
186680.100,208489.000,712166.300,318347.100,711972.200,176280.600,701737.700,187550.500,0.000
186583.300,208387.000,712154.100,318219.700,711960.400,176192.200,701709.600,187505.700,0.000
186286.100,208145.700,712140.600,318028.900,711942.500,175951.800,701311.900,187256.100,0.000
186174.000,208083.300,712136.600,317959.000,711935.200,175871.400,701006.100,187133.800,0.000
186407.600,208290.000,712144.100,318066.800,711944.900,176069.400,701144.300,187315.000,0.000
186665.600,208480.200,712147.300,318166.500,711951.900,176267.600,701458.800,187548.400,0.000
186586.100,208386.800,712134.800,318061.500,711939.800,176184.400,701436.100,187507.400,0.000
186268.800,208129.100,712121.100,317850.600,711922.100,175931.100,701028.600,187248.000,0.000
186156.300,208069.000,712117.300,317782.600,711914.900,175854.500,700718.600,187125.800,0.000
186400.100,208286.100,712124.800,317906.100,711924.800,176062.500,700862.400,187312.900,0.000
186658.400,208464.800,712130.900,318008.800,711934.800,176261.500,701188.600,187551.100,0.000
186579.500,208373.300,712123.300,317893.800,711927.800,176179.900,701176.800,187512.200,0.000
186268.100,208122.100,712111.300,317686.300,711911.600,175930.100,700778.200,187254.300,0.000
186157.300,208062.400,712111.600,317626.300,711908.800,175859.200,700483.100,187138.300,0.000
186390.500,208264.400,712116.600,317742.300,711916.000,176049.400,700615.300,187310.200,0.000
186630.400,208439.900,712112.800,317827.600,711915.800,176234.800,700906.400,187524.100,0.000
186550.900,208347.400,712100.800,317736.100,711904.300,176158.800,700884.100,187482.800,0.000
186247.600,208101.200,712090.700,317540.500,711890.300,175916.600,700491.000,187233.500,0.000
186124.000,208029.600,712084.400,317453.800,711880.600,175829.800,700171.400,187099.400,0.000
186363.600,208241.200,712089.800,317568.000,711888.400,176033.300,700306.600,187280.500,0.000
186622.900,208434.300,712095.400,317670.900,711898.300,176240.000,700630.400,187519.800,0.000
186553.300,208351.400,712093.900,317583.800,711897.200,176173.500,700637.000,187493.500,0.000
186244.700,208096.700,712084.300,317388.600,711883.800,175919.900,700242.600,187234.800,0.000
186126.100,208026.300,712079.300,317327.200,711874.800,175835.500,699926.900,187103.300,0.000
186367.800,208239.100,712086.000,317447.600,711883.700,176039.500,700061.900,187284.000,0.000
186625.500,208432.200,712089.000,317533.500,711891.600,176240.400,700378.400,187514.800,0.000
186559.400,208350.100,712084.500,317462.400,711887.600,176170.500,700375.900,187489.800,0.000
186255.800,208100.200,712073.300,317276.600,711872.200,175923.300,699980.900,187235.800,0.000
186128.300,208023.900,712070.600,317192.600,711865.900,175836.400,699666.900,187103.500,0.000
186364.500,208230.900,712080.700,317292.900,711878.300,176035.300,699805.700,187280.900,0.000
186633.800,208431.800,712087.800,317419.800,711889.800,176246.500,700139.600,187526.000,0.000
186548.300,208336.100,712074.400,317325.800,711876.600,176160.500,700116.400,187480.700,0.000
186234.700,208085.200,712060.800,317119.200,711858.300,175909.700,699715.800,187219.800,0.000
186113.400,208017.200,712061.300,317044.800,711855.100,175830.800,699410.900,187093.900,0.000
186355.500,208226.300,712070.600,317173.700,711867.100,176031.500,699551.400,187275.800,0.000
186614.500,208416.300,712076.800,317272.100,711878.100,176234.700,699877.900,187510.900,0.000
186531.200,208322.700,712066.800,317176.500,711868.800,176153.100,699859.200,187469.300,0.000
186214.100,208074.700,712049.400,316984.100,711846.700,175898.100,699444.300,187203.600,0.000
186095.800,208012.700,712047.400,316917.000,711841.300,175819.800,699135.300,187078.500,0.000
186331.800,208206.700,712054.900,317033.000,711851.100,176014.900,699267.900,187255.200,0.000
186605.000,208416.500,712063.700,317149.000,711864.900,176233.000,699606.400,187504.600,0.000
186542.800,208334.400,712061.400,317080.300,711863.400,176169.200,699615.700,187482.300,0.000
186215.400,208066.000,712045.400,316860.900,711842.500,175899.600,699202.600,187208.800,0.000
186089.400,207987.900,712041.600,316792.200,711834.400,175810.000,698879.800,187071.900,0.000
186330.800,208202.600,712051.000,316918.300,711846.700,176017.200,699019.600,187255.600,0.000
186585.700,208394.500,712055.400,317017.100,711855.800,176215.700,699340.000,187485.700,0.000
186517.500,208310.200,712051.600,316934.300,711853.000,176148.100,699347.600,187459.700,0.000
186214.500,208063.700,712042.400,316751.000,711839.300,175899.800,698957.800,187203.400,0.000
186094.600,207991.800,712036.900,316696.100,711828.800,175812.400,698632.600,187067.900,0.000
186333.900,208204.600,712044.700,316840.500,711839.400,176015.000,698763.100,187248.900,0.000
186595.700,208401.900,712051.300,316919.500,711851.500,176222.900,699087.300,187485.200,0.000
186532.000,208320.500,712047.300,316827.800,711847.600,176157.500,699092.700,187457.400,0.000
186231.300,208081.200,712036.100,316655.000,711831.800,175914.900,698702.800,187205.300,0.000
186107.800,208009.300,712036.400,316601.400,711828.100,175834.600,698395.900,187084.000,0.000
186339.300,208213.700,712043.800,316721.100,711837.800,176026.200,698524.900,187260.200,0.000
186607.400,208414.200,712050.400,316838.400,711850.000,176233.500,698848.100,187497.500,0.000
186542.100,208332.800,712042.500,316750.100,711842.600,176161.600,698849.100,187464.500,0.000
186240.400,208091.700,712033.000,316566.300,711828.400,175917.000,698463.500,187212.300,0.000
186108.100,208014.400,712028.600,316498.800,711819.600,175824.700,698140.100,187073.000,0.000
186342.100,208219.100,712035.800,316617.300,711829.300,176020.700,698264.100,187244.100,0.000
186610.300,208416.300,712041.100,316733.100,711840.100,176225.300,698591.200,187485.400,0.000
186552.900,208343.100,712038.200,316661.800,711838.300,176164.000,698610.300,187466.900,0.000
186246.500,208094.200,712030.300,316471.000,711824.900,175915.800,698226.600,187211.600,0.000
186119.300,208020.200,712029.700,316407.700,711819.800,175830.500,697913.900,187079.900,0.000
186358.400,208229.600,712038.400,316554.000,711831.100,176030.600,698041.400,187257.500,0.000
186610.500,208416.700,712038.600,316644.300,711836.900,176221.100,698346.400,187477.400,0.000
186548.800,208345.200,712034.400,316564.300,711833.600,176159.400,698360.200,187460.000,0.000
186247.900,208100.200,712027.600,316386.500,711821.400,175920.000,697984.100,187214.500,0.000
186111.600,208016.700,712022.100,316314.800,711811.400,175829.100,697661.600,187072.900,0.000
186342.900,208228.300,712030.800,316448.300,711822.600,176025.900,697778.400,187243.300,0.000
186606.100,208431.500,712034.400,316551.300,711831.700,176233.300,698095.200,187474.000,0.000
186550.300,208341.600,712028.100,316488.500,711826.000,176169.000,698105.300,187454.600,0.000
186241.000,208086.300,712017.600,316290.800,711810.600,175918.600,697716.500,187197.300,0.000
186123.100,208023.100,712019.100,316230.100,711806.900,175844.100,697415.900,187072.500,0.000
186349.400,208221.700,712025.700,316349.000,711816.400,176034.900,697536.100,187240.500,0.000
186618.800,208424.500,712032.600,316471.300,711829.700,176250.500,697865.600,187483.800,0.000
186556.300,208349.500,712027.600,316407.500,711825.900,176188.800,697874.100,187461.900,0.000
186244.400,208095.000,712013.800,316211.600,711806.800,175930.000,697478.700,187201.900,0.000
186113.900,208016.400,712012.400,316147.900,711799.600,175840.300,697159.500,187065.000,0.000
186343.200,208221.300,712023.400,316267.900,711812.600,176033.800,697285.300,187237.100,0.000
186607.800,208418.800,712028.600,316382.800,711823.600,176238.000,697606.500,187473.400,0.000
186540.600,208333.400,712020.500,316302.100,711816.900,176170.500,697614.100,187448.700,0.000
186240.600,208088.000,712012.400,316137.200,711803.800,175927.500,697237.600,187205.900,0.000
186115.300,208016.000,712012.100,316081.300,711797.600,175836.300,696923.500,187073.200,0.000
186333.500,208208.800,712020.100,316172.900,711808.500,176015.200,697033.900,187228.500,0.000
186597.600,208406.200,712025.700,316284.300,711820.900,176224.600,697357.300,187464.000,0.000
186542.000,208334.600,712022.900,316220.700,711819.100,176170.600,697379.200,187450.600,0.000
186248.900,208094.400,712015.500,316056.900,711806.400,175931.400,697006.200,187206.200,0.000
186117.400,208012.800,712014.900,316005.200,711800.600,175842.400,696692.100,187073.700,0.000
186330.800,208200.300,712021.500,316091.900,711809.900,176022.500,696801.400,187231.800,0.000
186595.100,208399.500,712023.900,316208.600,711818.400,176228.100,697109.800,187464.000,0.000
186530.000,208320.300,712013.300,316137.300,711808.900,176162.100,697103.000,187434.900,0.000
186229.500,208077.900,712003.900,315975.300,711793.900,175925.000,696722.500,187192.300,0.000
186089.600,208003.800,712001.800,315907.500,711785.400,175831.000,696395.000,187054.300,0.000
186321.300,208204.800,712009.400,316030.600,711795.900,176023.600,696513.800,187229.900,0.000
186589.800,208399.100,712014.900,316151.900,711808.400,176234.000,696841.100,187473.600,0.000
186536.600,208326.000,712012.000,316078.800,711807.100,176176.700,696864.700,187455.900,0.000
186230.100,208076.100,712001.000,315894.900,711790.100,175925.000,696484.500,187200.500,0.000
186089.700,207994.300,712000.800,315822.800,711782.900,175826.800,696162.400,187058.500,0.000
186311.500,208194.100,712008.100,315947.400,711793.800,176016.000,696273.500,187225.500,0.000
186583.100,208394.600,712014.700,316069.100,711807.800,176229.000,696597.900,187466.300,0.000
186538.600,208328.500,712009.400,316014.000,711803.800,176174.000,696622.800,187454.200,0.000
186233.900,208076.200,711998.100,315841.900,711786.100,175921.800,696240.100,187200.300,0.000
186089.800,207987.300,711996.700,315766.500,711777.500,175822.900,695913.800,187055.300,0.000
186302.300,208176.000,712003.100,315871.000,711787.700,176003.700,696017.500,187214.600,0.000
186586.400,208393.900,712011.200,316005.200,711803.700,176227.700,696352.000,187466.100,0.000
186540.600,208327.800,712004.100,315959.900,711797.500,176171.000,696372.400,187454.800,0.000
186227.900,208074.100,711992.300,315772.100,711778.800,175916.800,695983.800,187197.400,0.000
186083.200,207985.200,711990.600,315681.400,711769.800,175816.800,695657.700,187048.400,0.000
186318.600,208194.700,712002.500,315808.300,711785.400,176013.700,695782.900,187220.600,0.000
186593.300,208405.800,712009.800,315935.500,711801.300,176225.500,696109.900,187466.200,0.000
186536.900,208334.300,712001.400,315870.400,711794.400,176161.900,696123.100,187447.600,0.000
186228.000,208085.300,711990.600,315691.000,711776.100,175912.200,695736.800,187191.300,0.000
186102.700,208000.300,711992.600,315636.700,711769.900,175825.200,695421.800,187057.100,0.000
186320.400,208188.500,711999.900,315749.700,711781.300,176009.700,695531.200,187217.000,0.000
186586.800,208384.800,712006.400,315873.600,711796.800,176216.300,695855.400,187459.000,0.000
186542.400,208322.800,712002.100,315815.800,711794.600,176164.300,695881.600,187450.600,0.000
186238.900,208079.000,711989.000,315643.500,711773.800,175917.700,695497.100,187196.900,0.000
186103.200,208002.000,711990.600,315567.600,711766.700,175829.700,695181.200,187059.900,0.000
186336.600,208210.600,712004.800,315700.200,711785.400,176029.000,695309.600,187236.200,0.000
186605.300,208414.400,712011.100,315821.800,711801.300,176238.500,695636.100,187478.000,0.000
186551.800,208335.600,712003.800,315760.400,711795.800,176177.200,695654.900,187460.800,0.000
186248.500,208083.900,711993.100,315584.600,711777.400,175924.700,695271.100,187204.500,0.000
186110.600,207997.600,711992.300,315513.800,711766.800,175821.600,694941.500,187056.200,0.000
186322.900,208185.900,711999.600,315617.700,711778.400,176001.500,695041.600,187210.100,0.000
186594.800,208388.700,712003.900,315738.300,711792.300,176210.300,695357.500,187446.600,0.000
186545.300,208319.100,711993.800,315675.900,711783.900,176151.300,695367.800,187424.400,0.000
186240.800,208074.000,711980.700,315501.400,711762.300,175903.200,694980.700,187170.800,0.000
186102.300,207989.600,711976.900,315443.800,711747.200,175805.500,694646.500,187028.200,0.000
186329.400,208177.700,711987.400,315578.100,711763.200,175995.200,694758.300,187197.800,0.000
186614.800,208395.000,711995.300,315724.800,711782.700,176216.200,695085.600,187446.800,0.000
186563.000,208322.400,711988.800,315644.000,711778.200,176162.100,695111.900,187437.600,0.000
186253.900,208065.200,711977.600,315454.600,711757.600,175912.300,694736.400,187185.000,0.000
186110.300,207976.800,711978.100,315384.400,711745.800,175811.300,694412.300,187038.600,0.000
186331.600,208176.900,711988.100,315507.900,711762.400,176002.700,694528.800,187206.600,0.000
186599.800,208382.100,711993.800,315631.600,711780.500,176211.000,694851.200,187452.700,0.000
186539.900,208299.200,711982.900,315577.200,711770.800,176143.500,694857.400,187433.100,0.000
186226.100,208045.900,711967.800,315395.200,711745.500,175892.900,694467.100,187175.200,0.000
186081.500,207959.100,711967.300,315318.100,711730.400,175796.500,694140.900,187029.100,0.000
186301.200,208149.600,711975.900,315449.200,711746.400,175981.700,694250.500,187190.300,0.000
186569.500,208355.200,711982.700,315559.700,711767.100,176195.300,694578.400,187430.900,0.000
186521.700,208292.000,711978.800,315496.100,711766.100,176147.900,694616.500,187429.600,0.000
186215.100,208044.100,711972.600,315324.400,711749.400,175901.300,694246.800,187181.000,0.000
186070.100,207954.000,711973.200,315260.600,711733.800,175802.000,693920.100,187032.800,0.000
186291.900,208152.300,711983.400,315382.800,711751.800,175990.500,694029.200,187193.100,0.000
186558.500,208350.700,711986.600,315499.400,711770.300,176196.500,694344.900,187426.500,0.000
186512.100,208282.100,711979.400,315450.400,711765.500,176145.400,694367.800,187415.400,0.000
186210.700,208039.400,711968.300,315277.500,711741.800,175902.300,693987.900,187166.200,0.000
186079.500,207961.600,711970.900,315224.100,711725.600,175807.600,693672.100,187032.100,0.000
186290.100,208150.800,711980.300,315334.000,711744.200,175988.000,693777.300,187189.700,0.000
186549.700,208343.700,711986.600,315444.000,711768.200,176191.200,694095.400,187424.700,0.000
186508.600,208284.200,711979.400,315391.500,711763.900,176140.900,694123.300,187416.100,0.000
186211.000,208038.800,711968.800,315223.400,711740.200,175899.400,693754.400,187169.700,0.000
186066.100,207948.200,711965.900,315158.500,711713.600,175794.000,693422.800,187020.300,0.000
186279.000,208147.100,711973.400,315280.500,711731.900,175977.800,693518.300,187178.400,0.000
186548.000,208344.100,711979.200,315404.900,711759.700,176190.400,693839.100,187420.600,0.000
186512.300,208284.700,711974.700,315354.800,711758.500,176143.600,693879.400,187418.700,0.000
186209.800,208036.600,711964.600,315186.900,711733.500,175896.200,693507.400,187172.300,0.000
186068.400,207950.800,711965.900,315119.000,711706.300,175797.500,693179.300,187026.100,0.000
186284.600,208141.300,711975.300,315237.900,711728.800,175981.500,693280.900,187186.100,0.000
186563.400,208349.900,711983.800,315366.300,711763.100,176200.300,693614.900,187438.100,0.000
186519.300,208287.000,711976.700,315309.200,711759.700,176149.500,693643.900,187428.100,0.000
186211.800,208033.900,711964.200,315127.400,711729.400,175901.000,693268.000,187173.400,0.000
186060.500,207939.300,711960.500,315057.700,711685.800,175794.100,692925.700,187018.400,0.000
186279.200,208139.000,711974.100,315183.400,711718.400,175983.400,693035.300,187182.500,0.000
186546.100,208344.500,711981.100,315305.900,711758.100,176193.000,693358.800,187424.400,0.000
186503.100,208278.800,711975.200,315252.200,711756.000,176143.500,693394.600,187421.500,0.000
186197.400,208027.100,711965.900,315071.800,711725.100,175897.800,693027.400,187172.300,0.000
186042.600,207927.200,711960.900,314996.200,711661.300,175785.900,692687.000,187014.900,0.000
186255.600,208116.600,711969.500,315119.300,711694.600,175967.500,692785.000,187175.200,0.000
186537.100,208331.000,711975.900,315266.900,711749.400,176186.400,693111.300,187426.300,0.000
186495.700,208265.300,711970.700,315210.100,711749.300,176140.300,693147.600,187424.600,0.000
186186.100,208015.100,711957.400,315019.600,711705.400,175888.700,692768.800,187170.300,0.000
186041.900,207932.800,711958.700,314952.100,711613.500,175791.800,692442.700,187023.800,0.000
186251.600,208111.700,711966.400,315070.200,711662.300,175964.700,692538.800,187175.800,0.000
186518.200,208307.500,711969.700,315193.000,711739.600,176170.500,692854.100,187414.600,0.000
186483.200,208248.700,711966.300,315143.400,711743.100,176125.400,692896.300,187414.400,0.000
186188.600,208010.800,711958.200,314977.600,711697.200,175890.500,692537.300,187174.500,0.000
186034.400,207913.200,711956.600,314903.200,711570.300,175781.200,692199.900,187018.100,0.000
186238.300,208096.500,711963.400,315018.300,711627.000,175951.900,692282.600,187162.400,0.000
186509.700,208303.000,711967.000,315147.500,711731.400,176166.700,692599.900,187404.900,0.000
186481.800,208253.200,711964.900,315100.400,711739.100,176131.600,692651.800,187413.700,0.000
186175.100,208001.200,711951.400,314919.200,711671.000,175880.900,692275.300,187157.700,0.000
186023.800,207907.100,711949.600,314850.300,711505.100,175774.000,691939.900,187006.700,0.000
186234.800,208095.700,711961.700,314971.400,711591.000,175950.200,692042.100,187164.300,0.000
186503.500,208297.600,711965.900,315094.200,711726.700,176160.500,692361.300,187401.900,0.000
186471.900,208245.000,711963.600,315048.300,711737.100,176122.300,692408.700,187407.900,0.000
186184.600,208011.500,711958.800,314885.300,711677.300,175891.000,692060.100,187175.600,0.000
186027.700,207911.400,711957.600,314811.900,711505.900,175783.300,691722.900,187020.500,0.000
186236.700,208103.800,711967.400,314934.100,711585.600,175962.500,691818.000,187174.700,0.000
186520.500,208322.600,711978.900,315069.800,711737.100,176188.500,692158.100,187429.000,0.000
186476.900,208252.500,711970.000,315013.300,711741.400,176130.500,692184.300,187416.800,0.000
186175.100,208002.900,711955.800,314834.100,711647.500,175876.600,691803.100,187160.800,0.000
186015.300,207899.000,711948.600,314761.200,711415.000,175758.900,691447.100,186997.800,0.000
186224.300,208088.400,711954.800,314887.500,711502.400,175942.100,691531.600,187152.300,0.000
186506.200,208304.200,711964.200,315021.300,711707.500,176168.200,691861.900,187405.100,0.000
186480.500,208251.900,711961.800,314977.000,711728.800,176132.600,691915.300,187415.700,0.000
186176.700,208003.200,711953.400,314801.000,711610.600,175885.700,691547.000,187165.500,0.000
186002.600,207886.000,711943.100,314718.500,711320.300,175760.200,691172.600,186984.900,0.000
186226.800,208087.800,711954.100,314849.500,711431.500,175952.000,691267.400,187145.100,0.000
186520.100,208312.300,711964.300,314991.000,711688.600,176180.400,691607.400,187405.200,0.000
186482.300,208252.200,711959.100,314942.100,711717.300,176134.200,691648.300,187406.000,0.000
186176.800,208004.500,711948.100,314768.500,711559.100,175886.600,691275.200,187156.000,0.000
186031.900,207915.100,711945.600,314704.300,711269.900,175782.900,690936.400,187002.600,0.000
186253.200,208112.500,711957.800,314832.900,711403.500,175971.500,691035.800,187162.000,0.000
186541.400,208332.200,711966.900,314969.900,711680.800,176189.500,691368.800,187415.500,0.000
186514.900,208288.900,711964.300,314928.600,711723.000,176150.600,691422.900,187428.300,0.000
186219.200,208056.000,711956.100,314757.800,711580.200,175915.700,691063.800,187189.500,0.000
186052.800,207926.400,711950.300,314678.000,711291.400,175790.600,690703.200,187020.000,0.000
186259.900,208113.100,711954.400,314793.400,711399.600,175962.400,690776.800,187160.000,0.000
186550.600,208339.400,711964.500,314934.900,711682.000,176199.100,691114.400,187422.300,0.000
186527.800,208294.900,711963.400,314890.500,711723.600,176168.000,691173.000,187438.300,0.000
186225.800,208045.800,711954.800,314717.300,711577.500,175919.200,690810.100,187191.600,0.000
186064.300,207937.700,711949.300,314641.600,711253.200,175795.000,690449.400,187021.600,0.000
186268.200,208117.000,711956.400,314759.700,711331.700,175964.900,690520.600,187161.300,0.000
186545.500,208324.600,711964.300,314890.900,711645.000,176184.400,690843.800,187408.000,0.000
186507.300,208261.800,711959.300,314836.100,711700.300,176137.000,690884.800,187408.000,0.000
186208.000,208016.900,711950.400,314663.300,711473.900,175895.500,690526.100,187164.200,0.000
186047.100,207915.700,711950.100,314586.800,711121.300,175780.600,690190.300,187002.600,0.000
186249.700,208101.000,711962.600,314700.300,711247.600,175953.600,690284.500,187149.900,0.000
186530.500,208320.400,711969.800,314829.800,711613.500,176174.300,690619.700,187398.600,0.000
186495.500,208257.800,711960.300,314775.500,711687.600,176124.400,690658.600,187395.300,0.000
186201.300,208019.200,711949.400,314605.600,711433.100,175881.700,690298.300,187151.900,0.000
186044.400,207917.200,711946.600,314533.700,711088.100,175771.000,689961.800,186996.000,0.000
186245.700,208098.500,711954.800,314650.200,711203.700,175939.400,690045.300,187143.000,0.000
186530.100,208319.000,711965.100,314789.300,711592.300,176165.300,690379.400,187395.600,0.000
186520.000,208280.400,711964.900,314755.200,711684.100,176139.500,690452.600,187415.200,0.000
186211.300,208022.300,711951.400,314575.400,711396.300,175883.400,690076.200,187154.700,0.000
186047.500,207912.600,711945.000,314495.600,711000.900,175760.500,689718.800,186983.400,0.000
186248.800,208096.400,711948.600,314613.300,711095.500,175933.400,689791.800,187123.400,0.000
186534.600,208318.300,711956.800,314754.900,711513.200,176160.500,690120.300,187377.200,0.000
186519.400,208278.300,711955.900,314721.600,711633.600,176134.800,690192.800,187398.500,0.000
186219.000,208031.600,711944.100,314548.300,711299.900,175889.800,689834.600,187152.500,0.000
186057.500,207931.400,711942.800,314476.000,710905.300,175773.300,689489.800,186988.800,0.000
186265.000,208119.400,711953.300,314597.800,711023.900,175949.900,689579.400,187138.500,0.000
186544.400,208330.400,711959.300,314726.100,711451.900,176168.200,689908.900,187385.800,0.000
186535.000,208292.200,711960.300,314691.400,711596.900,176146.000,689983.900,187409.100,0.000
186228.600,208037.300,711950.800,314514.700,711234.300,175896.800,689623.900,187158.000,0.000
186063.800,207932.200,711946.600,314439.300,710828.300,175778.200,689274.600,186990.300,0.000
186271.300,208124.500,711959.800,314560.000,710951.700,175958.000,689369.900,187141.200,0.000
186540.800,208324.700,711964.900,314685.800,711389.800,176165.000,689689.800,187381.300,0.000
186511.300,208265.000,711955.300,314640.400,711505.500,176117.600,689725.300,187378.300,0.000
186229.700,208035.900,711950.800,314485.400,711153.900,175894.000,689389.800,187152.300,0.000
186069.900,207937.800,711948.900,314410.100,710751.000,175782.300,689049.100,186989.000,0.000
186273.700,208125.800,711957.600,314529.700,710875.100,175961.800,689132.400,187135.300,0.000
186548.400,208333.300,711962.000,314658.700,711316.700,176176.100,689452.300,187377.300,0.000
186540.400,208298.200,711962.600,314629.200,711481.400,176152.800,689528.900,187405.200,0.000
186252.200,208060.900,711956.900,314466.500,711130.500,175919.200,689194.700,187173.800,0.000
186082.000,207948.000,711953.900,314388.700,710730.000,175794.600,688844.500,187002.400,0.000
186260.900,208110.800,711952.900,314491.700,710811.400,175939.800,688887.300,187121.800,0.000
186539.000,208322.200,711953.700,314625.200,711251.900,176161.200,689197.200,187360.900,0.000
186530.100,208288.100,711954.300,314591.200,711410.400,176142.600,689274.400,187387.300,0.000
186242.500,208055.800,711948.900,314428.200,711055.300,175910.400,688935.800,187155.000,0.000
186073.300,207946.200,711947.300,314350.200,710645.300,175787.700,688585.700,186988.400,0.000
186269.200,208126.600,711954.500,314469.800,710756.800,175960.100,688657.400,187128.200,0.000
186549.300,208338.000,711960.300,314603.800,711219.500,176181.100,688986.200,187378.200,0.000
186528.900,208291.400,711955.300,314562.700,711366.800,176151.300,689046.800,187386.800,0.000
186233.900,208049.800,711946.200,314393.400,711006.400,175914.600,688698.800,187149.600,0.000
186067.800,207945.500,711942.800,314319.200,710585.400,175794.500,688347.100,186982.500,0.000
186267.100,208127.500,711951.400,314439.100,710702.400,175964.700,688423.100,187127.500,0.000
186551.600,208342.900,711956.600,314573.500,711160.100,176184.800,688753.900,187380.000,0.000
186525.100,208291.800,711948.800,314532.800,711312.300,176149.100,688802.200,187385.600,0.000
186229.100,208050.300,711940.600,314367.100,710939.900,175910.700,688452.900,187145.900,0.000
186062.800,207943.900,711938.500,314291.000,710547.500,175792.500,688108.100,186983.400,0.000
186259.000,208121.500,711948.300,314404.900,710674.300,175960.000,688184.700,187127.100,0.000
186549.600,208348.700,711957.400,314546.700,711155.900,176190.900,688519.100,187385.200,0.000
186530.300,208302.000,711951.800,314504.000,711326.600,176159.700,688581.800,187399.500,0.000
186232.200,208056.000,711941.000,314331.800,710963.300,175914.100,688228.100,187153.300,0.000
186063.600,207943.600,711938.500,314255.300,710560.400,175789.700,687878.100,186985.400,0.000
186256.300,208121.100,711945.500,314368.700,710673.400,175953.300,687942.900,187120.400,0.000
186549.600,208347.500,711954.100,314510.100,711152.400,176183.400,688277.800,187378.300,0.000
186544.500,208310.200,711952.600,314475.300,711331.200,176159.300,688358.900,187404.300,0.000
186251.900,208067.400,711948.300,314309.700,710982.200,175923.300,688021.500,187171.800,0.000
186067.500,207940.600,711942.100,314218.900,710546.200,175787.000,687651.800,186986.100,0.000
186243.000,208102.300,711939.400,314320.200,710620.000,175931.800,687685.100,187098.100,0.000
186533.200,208325.500,711947.300,314464.600,711079.700,176165.300,688015.300,187356.700,0.000
186516.900,208282.900,711944.900,314426.300,711249.100,176146.900,688087.700,187380.300,0.000
186204.900,208023.300,711933.900,314245.500,710858.400,175899.400,687727.600,187135.000,0.000
186015.400,207895.200,711930.600,314152.300,710423.500,175759.600,687368.900,186959.100,0.000
186191.400,208055.800,711939.100,314258.500,710518.700,175913.500,687428.800,187088.400,0.000
186484.500,208284.000,711950.900,314405.700,710971.300,176147.300,687775.400,187353.600,0.000
186458.900,208233.200,711942.200,314361.800,711120.300,176109.600,687829.600,187363.100,0.000
186153.700,207985.900,711927.900,314187.400,710750.600,175863.400,687471.800,187119.300,0.000
185990.500,207892.100,711930.000,314111.100,710389.100,175749.900,687132.300,186962.400,0.000
186180.700,208065.700,711940.600,314214.200,710554.500,175916.500,687212.400,187099.100,0.000
186471.300,208287.800,711949.400,314346.800,711081.400,176150.600,687555.600,187354.300,0.000
186460.000,208246.800,711947.900,314311.200,711285.600,176127.600,687632.300,187377.500,0.000
186165.900,208003.300,711942.900,314147.400,710926.400,175889.700,687294.200,187146.400,0.000
185992.700,207890.400,711939.400,314067.200,710498.300,175756.200,686940.100,186975.900,0.000
186183.900,208064.200,711948.800,314179.800,710584.800,175917.800,687007.200,187108.500,0.000
186479.300,208285.500,711958.000,314321.700,711048.000,176152.000,687344.600,187362.100,0.000
186466.800,208242.600,711954.500,314283.200,711218.300,176126.800,687418.400,187379.400,0.000
186161.200,207991.000,711941.600,314106.200,710831.900,175875.200,687059.100,187128.200,0.000
185990.200,207880.300,711937.900,314030.600,710398.600,175750.300,686706.700,186959.400,0.000
186186.400,208062.000,711950.400,314149.800,710510.500,175920.700,686786.500,187103.200,0.000
186466.500,208275.000,711955.500,314281.700,710971.900,176142.800,687112.700,187345.700,0.000
186458.500,208239.300,711951.600,314247.600,711141.600,176121.300,687190.300,187367.600,0.000
186162.600,207997.400,711941.300,314080.000,710768.800,175882.700,686849.000,187132.900,0.000
185983.800,207879.100,711937.500,313996.800,710323.300,175751.300,686491.500,186961.700,0.000
186177.600,208055.900,711948.100,314111.900,710421.600,175916.200,686559.900,187097.200,0.000
186484.500,208292.500,711963.300,314265.400,710904.100,176160.000,686913.800,187363.000,0.000
186470.900,208247.100,711955.900,314227.600,711054.200,176132.300,686983.500,187374.500,0.000
186163.400,207993.500,711939.900,314052.400,710649.700,175878.200,686620.300,187120.100,0.000
185992.700,207882.700,711937.400,313983.600,710205.800,175753.200,686268.300,186953.800,0.000
186182.800,208057.900,711944.400,314099.600,710298.100,175924.200,686336.200,187088.500,0.000
186470.300,208277.000,711949.900,314229.400,710765.100,176149.800,686656.200,187332.900,0.000
186474.000,208249.300,711948.500,314209.800,710945.200,176135.000,686741.100,187364.000,0.000
186188.300,208016.300,711943.900,314051.500,710576.200,175902.300,686416.800,187138.600,0.000
186012.800,207905.400,711942.700,313975.600,710145.400,175773.300,686074.100,186970.800,0.000
186202.900,208078.600,711951.900,314092.400,710251.200,175933.100,686142.500,187102.700,0.000
186485.100,208289.800,711955.300,314230.900,710712.600,176153.600,686459.500,187345.200,0.000
186488.800,208265.700,711951.000,314203.900,710889.100,176135.800,686540.900,187373.900,0.000
186198.100,208030.500,711941.800,314041.500,710514.400,175901.400,686206.900,187146.200,0.000
186018.700,207914.100,711938.700,313964.000,710072.300,175776.700,685856.900,186978.700,0.000
186202.700,208091.400,711946.800,314083.800,710172.200,175941.400,685919.900,187111.100,0.000
186497.700,208322.800,711959.700,314232.600,710637.800,176174.900,686253.200,187364.800,0.000
186501.100,208288.900,711957.300,314208.400,710818.400,176158.100,686339.100,187393.400,0.000
186213.300,208049.500,711945.900,314042.600,710430.600,175916.900,685998.300,187159.300,0.000
186026.800,207921.800,711934.200,313949.200,709980.400,175773.400,685644.100,186974.000,0.000
186213.100,208093.800,711941.200,314057.000,710080.900,175935.600,685702.800,187102.300,0.000
186518.300,208333.400,711960.500,314209.500,710592.200,176179.300,686044.900,187372.100,0.000
186519.300,208304.900,711961.800,314183.100,710778.000,176161.100,686135.400,187404.300,0.000
186214.700,208052.800,711947.900,314011.200,710383.100,175919.100,685832.100,187164.400,0.000
186030.300,207930.300,711942.400,313924.500,709930.500,175783.900,685698.900,186982.800,0.000
186204.200,208088.000,711946.200,314022.100,710027.200,175927.800,685734.600,187092.900,0.000
186499.300,208313.700,711956.800,314169.000,710534.000,176163.000,686007.400,187346.000,0.000
186497.500,208285.000,711954.400,314141.400,710727.200,176150.900,686094.300,187377.500,0.000
186197.700,208035.100,711942.400,313972.600,710341.600,175905.100,685801.100,187140.100,0.000
186026.700,207921.100,711943.000,313900.300,709895.600,175782.000,685689.300,186975.000,0.000
186212.200,208089.500,711952.600,314015.300,709997.300,175944.500,685727.900,187101.600,0.000
186483.400,208293.400,711957.900,314134.400,710460.100,176157.400,685978.800,187333.600,0.000
186460.500,208242.000,711946.100,314092.200,710621.700,176123.700,686035.900,187347.100,0.000
186181.700,208015.900,711935.800,313944.400,710232.600,175899.900,685779.600,187131.600,0.000
186004.300,207898.000,711934.900,313861.900,709780.300,175768.000,685670.600,186961.800,0.000
186190.600,208069.200,711945.000,313976.100,709880.200,175925.800,685715.600,187091.400,0.000
186484.200,208296.000,711955.300,314121.100,710369.500,176159.400,685991.700,187345.500,0.000
186478.600,208262.000,711949.400,314090.000,710560.400,176137.200,686070.600,187374.600,0.000
186180.700,208017.500,711936.100,313916.900,710159.400,175891.900,685777.800,187137.000,0.000
185998.400,207896.100,711937.100,313834.300,709720.300,175761.300,685664.500,186966.600,0.000
186175.600,208060.000,711945.900,313941.300,709834.200,175916.000,685708.800,187089.800,0.000
186465.100,208283.800,711955.900,314075.200,710345.000,176145.100,685984.600,187339.300,0.000
186475.600,208262.700,711953.500,314058.200,710540.400,176136.500,686072.600,187376.100,0.000
186183.000,208020.000,711942.700,313896.700,710154.900,175899.800,685790.900,187148.800,0.000
185994.200,207894.100,711938.100,313805.200,709687.400,175757.000,685661.800,186967.000,0.000
186184.600,208070.600,711949.700,313919.900,709800.800,175923.000,685713.000,187098.600,0.000
186475.800,208290.900,711960.100,314063.900,710310.300,176152.800,685986.500,187348.600,0.000
186466.000,208247.600,711949.400,314026.700,710466.700,176123.100,686049.600,187362.200,0.000
186175.600,208008.300,711937.900,313862.100,710078.400,175889.500,685781.800,187136.000,0.000
186003.500,207896.800,711940.600,313790.700,709615.800,175765.700,685684.900,186966.900,0.000
186179.400,208063.100,711949.900,313892.500,709711.600,175915.700,685718.300,187080.900,0.000
186473.600,208290.500,711962.800,314032.200,710206.400,176147.800,685990.600,187330.500,0.000
186483.500,208266.700,711957.900,314023.500,710378.100,176135.200,686073.300,187361.600,0.000
186185.200,208019.700,711942.200,313854.100,709953.100,175891.500,685785.400,187128.700,0.000
186006.800,207900.400,711939.400,313770.000,709459.400,175759.100,685672.900,186955.600,0.000
186181.600,208060.600,711943.900,313874.000,709540.900,175910.000,685708.000,187067.000,0.000
186483.200,208299.800,711954.700,314024.900,710048.400,176156.900,685979.200,187323.900,0.000
186488.900,208277.000,711953.700,314000.700,710230.500,176146.100,686071.900,187364.300,0.000
186184.800,208018.900,711937.900,313828.400,709795.300,175896.400,685784.100,187128.600,0.000
186000.100,207894.100,711936.400,313742.600,709319.600,175760.200,685673.400,186951.300,0.000
186174.500,208055.700,711943.100,313845.300,709428.600,175913.100,685717.500,187067.500,0.000
186472.200,208289.100,711956.100,313996.000,709943.200,176146.200,685991.900,187322.600,0.000
186470.500,208257.800,711953.700,313963.600,710151.900,176128.500,686082.700,187352.500,0.000
186177.800,208015.900,711939.600,313793.100,709745.300,175889.400,685796.400,187122.500,0.000
185994.200,207894.800,711935.400,313713.700,709267.400,175754.800,685665.900,186944.700,0.000
186174.800,208061.900,711944.300,313825.400,709376.200,175911.800,685710.700,187066.400,0.000
186471.600,208293.600,711957.100,313972.200,709904.900,176147.900,685984.900,187318.600,0.000
186484.900,208274.100,711959.800,313945.200,710123.600,176138.600,686092.400,187363.200,0.000
186186.400,208025.500,711946.800,313782.500,709721.500,175891.200,685808.600,187132.800,0.000
185996.200,207898.600,711941.600,313699.700,709232.600,175749.100,685678.000,186951.500,0.000
186173.900,208065.900,711948.300,313806.400,709320.100,175904.500,685711.300,187067.600,0.000
186479.800,208306.000,711959.500,313962.500,709843.800,176146.300,685984.100,187321.300,0.000
186500.500,208294.600,711958.700,313951.600,710035.100,176144.800,686078.700,187361.500,0.000
186206.500,208047.700,711945.000,313787.100,709625.300,175905.700,685812.400,187136.300,0.000
186031.500,207926.500,711946.800,313714.700,709145.900,175772.800,685706.800,186971.400,0.000
186204.500,208085.900,711949.300,313825.200,709225.700,175918.000,685710.900,187081.300,0.000
186499.800,208312.600,711953.000,313961.400,709719.900,176143.000,685964.900,187318.500,0.000
186521.200,208297.300,711951.100,313941.300,709924.000,176140.500,686060.800,187360.600,0.000
186232.000,208057.000,711939.700,313778.800,709525.700,175903.700,685783.800,187138.800,0.000
186057.500,207948.500,711943.100,313704.400,709068.000,175781.200,685689.100,186979.800,0.000
186216.700,208102.000,711944.300,313802.100,709149.300,175918.400,685716.600,187079.300,0.000
186496.500,208313.700,711946.600,313932.200,709644.100,176134.000,685943.800,187301.600,0.000
186528.800,208311.500,711946.100,313925.700,709880.100,176143.700,686052.600,187355.000,0.000
186246.300,208075.300,711936.400,313769.000,709492.800,175917.000,685792.300,187141.900,0.000
186048.200,207938.200,711932.500,313680.000,709004.100,175772.600,685667.500,186957.900,0.000
186226.100,208104.200,711941.600,313791.900,709091.000,175925.000,685701.800,187070.300,0.000
186527.900,208336.900,711952.400,313937.800,709617.900,176162.900,685961.100,187318.000,0.000
186566.400,208337.900,711957.600,313944.600,709868.100,176173.700,686081.800,187376.600,0.000
186264.300,208094.800,711945.400,313768.300,709585.600,175931.200,685807.400,187148.800,0.000
186060.800,207955.500,711939.100,313663.700,709278.100,175782.600,685675.400,186957.600,0.000
186238.000,208117.400,711948.900,313772.400,709378.300,175934.500,685727.900,187072.900,0.000
186533.400,208344.700,711960.600,313918.100,709877.300,176168.000,685993.500,187321.100,0.000
186539.100,208315.900,711954.500,313896.400,710103.300,176152.600,686076.400,187350.500,0.000
186241.500,208064.900,711937.300,313732.100,709681.300,175906.000,685785.100,187117.700,0.000
186045.800,207931.600,711931.600,313646.700,709202.900,175762.000,685673.600,186939.500,0.000
186221.400,208099.000,711943.600,313755.100,709301.000,175918.800,685734.800,187059.700,0.000
186521.500,208333.600,711958.600,313899.600,709838.800,176159.300,686000.400,187314.200,0.000
186527.600,208306.900,711956.600,313872.300,710053.300,176147.400,686094.200,187350.100,0.000
186211.000,208040.200,711937.800,313691.600,709621.700,175888.400,685799.600,187106.800,0.000
186004.000,207898.900,711927.500,313593.300,709121.000,175734.800,685669.000,186916.600,0.000
186170.000,208056.000,711936.100,313691.600,709198.900,175884.400,685721.100,187029.500,0.000
186466.400,208287.700,711949.100,313839.600,709721.800,176121.700,685977.800,187278.900,0.000
186480.600,208268.000,711947.700,313824.700,709934.900,176115.500,686074.100,187321.400,0.000
186193.700,208029.800,711938.900,313665.900,709535.900,175882.500,685809.100,187107.200,0.000
185991.000,207889.500,711933.500,313573.800,709049.100,175734.100,685680.300,186920.600,0.000
186153.700,208045.800,711939.300,313676.900,709140.800,175877.900,685717.400,187026.000,0.000
186452.500,208279.700,711953.400,313816.200,709691.000,176118.900,685984.800,187283.600,0.000
186466.900,208261.000,711948.500,313792.500,709908.300,176110.200,686078.700,187320.900,0.000
186184.900,208025.400,711937.500,313637.600,709520.500,175880.900,685813.800,187104.300,0.000
185992.300,207892.800,711935.900,313554.700,709028.300,175737.100,685695.800,186924.500,0.000
186158.100,208050.000,711943.300,313658.600,709106.100,175883.100,685727.300,187031.100,0.000
186456.400,208283.100,711954.400,313807.300,709634.100,176118.000,685984.400,187282.500,0.000
186472.200,208263.800,711949.300,313790.200,709845.700,176115.300,686076.800,187325.500,0.000
186183.200,208019.700,711936.600,313626.200,709445.000,175876.900,685801.400,187102.800,0.000
185990.200,207887.200,711934.400,313542.500,708954.800,175735.600,685678.500,186922.300,0.000
186160.800,208047.300,711941.600,313649.400,709045.800,175884.300,685711.400,187035.200,0.000
186440.300,208261.900,711946.600,313778.100,709566.600,176105.700,685954.300,187271.700,0.000
186463.000,208252.600,711944.600,313765.700,709797.300,176113.500,686055.600,187320.900,0.000
186183.800,208020.800,711937.100,313613.300,709420.900,175889.900,685795.900,187109.000,0.000
185982.700,207883.000,711932.000,313519.500,708921.300,175739.300,685669.100,186922.200,0.000
186144.900,208035.200,711935.400,313618.500,708988.800,175875.000,685715.200,187023.400,0.000
186448.200,208270.200,711947.400,313770.600,709526.200,176112.900,685966.800,187276.700,0.000
186474.700,208258.000,711945.600,313757.600,709750.400,176115.100,686071.400,187326.000,0.000
186193.300,208020.800,711933.900,313599.200,709361.600,175885.500,685798.400,187107.900,0.000
185997.400,207885.900,711933.700,313510.000,708861.100,175739.300,685677.900,186928.400,0.000
186151.100,208036.500,711940.900,313605.300,708930.600,175877.000,685719.300,187028.800,0.000
186443.700,208267.800,711949.700,313751.400,709460.600,176107.400,685964.300,187277.000,0.000
186469.400,208257.300,711946.100,313740.400,709683.000,176112.200,686062.800,187322.500,0.000
186181.500,208011.500,711930.900,313576.900,709286.900,175875.000,685795.600,187096.600,0.000
185991.100,207882.000,711930.200,313495.300,708779.100,175733.500,685677.700,186918.500,0.000
186154.300,208042.300,711939.800,313600.800,708872.300,175880.600,685704.400,187026.700,0.000
186453.100,208276.500,711951.200,313739.500,709404.700,176118.900,685970.300,187276.700,0.000
186477.800,208267.300,711950.300,313722.400,709652.200,176123.800,686085.700,187329.900,0.000
186182.100,208019.100,711935.200,313556.500,709251.400,175880.900,685806.900,187104.500,0.000
185985.200,207881.600,711934.500,313467.800,708749.800,175734.700,685684.100,186923.900,0.000
186155.800,208042.800,711944.100,313573.500,708849.700,175882.800,685716.800,187032.800,0.000
186460.400,208279.200,711955.100,313727.400,709368.800,176121.100,685979.400,187284.100,0.000
186480.400,208266.300,711951.100,313709.900,709616.500,176125.000,686079.600,187329.900,0.000
186204.300,208036.900,711943.700,313556.900,709219.800,175901.400,685822.400,187122.200,0.000
186000.200,207893.500,711940.300,313463.700,708711.000,175747.100,685693.500,186935.300,0.000
186152.000,208039.400,711943.100,313557.600,708762.500,175880.400,685732.300,187024.800,0.000
186456.100,208279.300,711953.000,313713.400,709286.300,176127.500,685979.100,187278.200,0.000
186488.600,208276.600,711951.200,313699.000,709539.900,176136.100,686090.500,187333.700,0.000
186205.100,208038.300,711936.900,313538.500,709130.900,175899.600,685827.900,187116.600,0.000
186006.000,207900.400,711932.900,313452.100,708630.900,175749.500,685695.700,186929.300,0.000
186175.600,208059.300,711943.400,313564.800,708709.100,175895.400,685716.600,187041.300,0.000
186484.700,208300.200,711956.100,313717.000,709254.500,176136.800,685988.400,187298.800,0.000
186502.300,208282.100,711948.000,313693.100,709486.700,176130.300,686083.200,187335.200,0.000
186228.600,208057.900,711936.700,313543.800,709096.100,175909.800,685818.300,187124.300,0.000
186024.200,207915.600,711933.100,313450.900,708592.900,175756.500,685683.700,186936.900,0.000
186185.800,208067.700,711941.400,313549.100,708654.900,175894.700,685711.900,187039.400,0.000
186494.700,208307.900,711955.700,313703.100,709212.300,176144.800,685982.500,187297.300,0.000
186526.800,208302.300,711952.300,313694.200,709451.600,176154.600,686091.600,187347.200,0.000
186246.200,208068.600,711939.700,313540.100,709051.400,175925.500,685819.900,187127.400,0.000
186039.100,207925.100,711939.200,313446.500,708532.800,175770.100,685683.000,186939.400,0.000
186200.000,208078.800,711947.900,313541.000,708607.400,175909.700,685717.300,187045.800,0.000
186500.900,208313.200,711958.700,313692.900,709152.400,176147.100,685978.000,187298.300,0.000
186542.000,208320.900,711961.400,313691.000,709419.600,176170.300,686109.300,187362.500,0.000
186242.600,208071.800,711942.800,313519.400,709005.700,175930.300,685826.800,187127.700,0.000
186035.600,207927.200,711933.600,313421.400,708468.900,175770.800,685687.700,186929.700,0.000
186185.800,208067.300,711938.300,313515.500,708513.500,175895.200,685732.800,187021.300,0.000
186491.300,208305.500,711951.400,313669.100,709047.300,176137.700,685977.900,187277.400,0.000
186533.600,208309.600,711952.900,313668.900,709309.100,176150.200,686104.100,187346.100,0.000
186254.300,208072.600,711940.600,313516.700,708917.700,175917.500,685843.800,187133.000,0.000
186044.800,207922.900,711933.900,313423.100,708394.900,175761.300,685701.100,186940.100,0.000
186196.600,208075.000,711944.100,313511.500,708459.700,175899.800,685729.800,187040.100,0.000
186501.700,208315.400,711955.700,313665.300,709000.800,176139.700,685989.400,187295.600,0.000
186542.800,208318.100,711958.300,313666.700,709262.800,176158.000,686114.100,187360.800,0.000
186262.500,208080.600,711948.000,313509.700,708878.200,175930.000,685843.800,187147.600,0.000
186060.500,207938.900,711945.900,313426.400,708370.600,175780.500,685698.800,186960.800,0.000
186198.700,208075.200,711951.600,313501.000,708413.900,175906.500,685710.300,187044.900,0.000
186490.400,208306.300,711957.000,313633.300,708932.400,176138.800,685951.200,187284.200,0.000
186528.100,208305.800,711954.900,313633.300,709192.600,176154.300,686072.100,187345.600,0.000
186246.200,208070.100,711942.400,313478.200,708800.300,175924.600,685807.000,187130.900,0.000
186042.400,207928.000,711940.000,313389.900,708289.900,175777.300,685684.100,186946.300,0.000
186184.100,208068.600,711943.100,313473.800,708335.400,175905.800,685722.600,187031.000,0.000
186481.400,208306.700,711954.400,313619.100,708874.300,176141.500,685970.300,187283.900,0.000
186514.800,208305.000,711952.100,313614.100,709127.000,176147.000,686083.900,187340.100,0.000
186224.500,208059.800,711934.500,313452.400,708713.500,175906.500,685809.800,187114.900,0.000
186021.000,207918.400,711931.800,313363.800,708186.200,175754.800,685672.900,186926.000,0.000
186188.300,208077.600,711943.400,313479.700,708258.300,175906.700,685714.300,187038.500,0.000
186492.100,208313.000,711953.900,313626.600,708804.700,176143.600,685973.800,187294.600,0.000
186530.600,208312.100,711953.100,313613.600,709070.100,176152.700,686096.900,187355.000,0.000
186244.700,208073.400,711938.900,313452.200,708669.300,175915.500,685822.400,187130.400,0.000
186039.500,207933.200,711936.400,313363.700,708152.500,175764.800,685691.000,186939.100,0.000
186190.800,208079.500,711943.600,313459.300,708213.800,175901.100,685726.900,187033.900,0.000
186497.800,208320.400,711955.800,313610.600,708765.700,176142.400,685983.200,187287.600,0.000
186530.600,208313.300,711949.100,313598.900,709014.300,176147.000,686088.400,187338.300,0.000
186254.300,208078.900,711938.800,313444.900,708627.500,175922.900,685826.500,187126.700,0.000
186040.400,207926.800,711934.900,313344.300,708097.300,175764.700,685685.800,186930.200,0.000
186180.000,208060.400,711936.900,313433.000,708123.400,175886.300,685706.300,187010.700,0.000
186481.800,208298.200,711946.100,313585.600,708655.000,176126.300,685946.800,187262.900,0.000
186542.000,208320.100,711950.800,313597.800,708941.300,176164.000,686091.200,187345.500,0.000
186263.900,208085.000,711940.900,313444.100,708558.900,175937.300,685833.300,187137.800,0.000
186042.300,207928.200,711935.400,313335.800,708025.300,175769.000,685682.100,186937.800,0.000
186194.000,208074.000,711945.800,313425.100,708083.300,175902.900,685715.900,187035.700,0.000
186500.400,208312.700,711959.500,313578.000,708628.500,176145.400,685972.000,187290.700,0.000
186540.300,208315.000,711957.300,313575.000,708899.400,176160.200,686097.900,187353.000,0.000
186258.000,208075.900,711945.500,313411.000,708511.100,175925.100,685834.700,187136.900,0.000
186049.000,207927.900,711940.800,313313.900,707986.600,175765.900,685691.600,186941.100,0.000
186195.500,208069.500,711946.400,313407.800,708034.400,175891.600,685712.400,187029.800,0.000
186495.000,208303.200,711956.600,313558.600,708574.500,176127.000,685961.800,187278.800,0.000
186540.600,208306.000,711956.500,313562.300,708849.600,176144.800,686090.900,187342.800,0.000
186259.400,208069.800,711942.300,313413.600,708462.600,175920.200,685824.600,187129.800,0.000
186033.200,207912.200,711937.000,313294.600,707933.100,175753.700,685675.100,186928.900,0.000
186188.800,208062.800,711944.400,313390.300,707986.900,175885.100,685702.600,187025.600,0.000
186498.800,208305.200,711955.900,313551.300,708534.500,176129.300,685959.700,187284.500,0.000
186541.200,208308.700,711953.400,313544.400,708804.100,176144.600,686084.100,187348.500,0.000
186264.200,208075.900,711942.700,313385.900,708430.600,175920.500,685828.400,187144.100,0.000
186046.100,207919.400,711939.100,313283.800,707898.900,175758.300,685679.800,186945.600,0.000
186180.800,208049.500,711944.100,313369.300,707920.800,175874.200,685695.300,187024.100,0.000
186477.200,208283.600,711949.900,313521.800,708437.500,176109.300,685927.800,187265.300,0.000
186532.800,208302.900,711951.400,313527.400,708716.100,176143.400,686063.300,187338.800,0.000
186262.800,208076.400,711942.700,313377.600,708336.600,175924.200,685815.800,187135.300,0.000
186043.500,207922.500,711937.200,313275.000,707793.600,175757.400,685670.900,186934.900,0.000
186195.900,208074.900,711949.400,313379.900,707846.900,175898.200,685711.300,187039.500,0.000
186500.400,208313.400,711960.100,313535.500,708389.300,176141.700,685966.500,187294.600,0.000
186546.300,208317.700,711959.300,313530.400,708667.100,176164.000,686097.800,187358.100,0.000
186258.500,208070.500,711944.900,313362.200,708265.800,175925.500,685828.200,187135.600,0.000
186038.100,207916.000,711938.300,313257.300,707720.000,175757.900,685678.900,186934.700,0.000
186177.400,208056.200,711943.400,313347.900,707749.800,175886.600,685696.700,187023.100,0.000
186485.900,208299.800,711952.200,313502.500,708285.600,176131.400,685942.800,187275.700,0.000
186538.600,208312.300,711953.200,313510.200,708572.900,176160.400,686083.700,187350.800,0.000
186263.300,208078.100,711944.100,313357.500,708200.700,175935.400,685831.900,187146.300,0.000
186044.100,207922.500,711941.700,313253.300,707667.000,175769.800,685685.800,186947.100,0.000
186182.200,208055.600,711945.500,313347.000,707689.700,175890.400,685715.000,187027.100,0.000
186488.700,208295.400,711952.600,313498.300,708219.700,176128.600,685947.400,187278.200,0.000
186544.500,208311.100,711951.900,313506.500,708507.800,176158.800,686082.600,187353.700,0.000
186259.200,208070.700,711940.400,313344.100,708128.900,175929.600,685827.400,187142.500,0.000
186034.400,207913.400,711935.800,313236.800,707593.500,175760.900,685686.400,186941.100,0.000
186179.100,208055.300,711942.100,313336.000,707629.800,175888.800,685721.100,187029.200,0.000
186492.900,208302.900,711953.600,313489.300,708178.900,176136.500,685969.500,187286.400,0.000
186544.200,208316.800,711955.500,313489.800,708471.800,176163.900,686110.700,187361.000,0.000
186269.300,208084.100,711946.000,313337.900,708098.600,175941.000,685850.100,187155.500,0.000
186052.700,207927.000,711941.700,313246.000,707565.700,175777.400,685692.400,186960.500,0.000
186177.200,208050.900,711944.900,313316.200,707580.700,175886.600,685721.700,187029.200,0.000
186483.100,208292.300,711956.400,313470.000,708122.000,176126.600,685965.400,187282.200,0.000
186528.300,208298.800,711952.200,313468.800,708400.500,176149.500,686093.400,187346.800,0.000
186251.100,208064.700,711935.600,313306.900,708008.900,175916.600,685824.900,187130.000,0.000
186032.400,207908.100,711931.000,313205.700,707471.100,175749.600,685675.200,186928.900,0.000
186174.600,208052.400,711940.000,313300.500,707507.500,175885.500,685707.100,187019.600,0.000
186490.700,208304.700,711956.200,313469.100,708062.800,176143.300,685967.900,187286.900,0.000
186540.900,208313.500,711955.900,313469.700,708354.600,176167.400,686109.400,187362.300,0.000
186257.500,208075.600,711941.600,313301.000,707969.000,175936.700,685841.900,187145.700,0.000
186030.500,207913.500,711935.400,313194.600,707426.300,175767.300,685679.300,186941.700,0.000
186170.500,208050.400,711944.300,313288.000,707459.700,175891.500,685701.300,187027.900,0.000
186478.300,208291.300,711954.900,313443.500,708003.300,176134.200,685950.900,187282.500,0.000
186528.600,208299.800,711952.900,313446.900,708290.400,176159.000,686083.300,187353.300,0.000
186252.700,208064.700,711938.400,313286.800,707912.300,175929.400,685821.800,187141.900,0.000
186028.700,207906.300,711931.800,313184.500,707373.900,175759.100,685669.800,186938.600,0.000
186166.000,208042.900,711938.700,313275.400,707403.400,175884.500,685694.800,187023.900,0.000
186475.100,208288.900,711951.900,313425.700,707949.300,176131.000,685946.400,187279.800,0.000
186533.000,208305.200,711949.500,313433.500,708238.900,176159.600,686084.700,187351.900,0.000
186261.300,208072.600,711938.500,313288.400,707867.600,175936.900,685831.100,187146.800,0.000
186032.600,207910.100,711934.500,313177.400,707330.800,175768.400,685681.400,186941.700,0.000
186160.500,208039.000,711938.400,313246.200,707341.400,175881.500,685703.600,187010.700,0.000
186471.900,208286.100,711948.500,313408.200,707884.900,176128.300,685949.100,187266.300,0.000
186531.000,208301.800,711948.500,313417.300,708181.600,176157.700,686089.100,187339.800,0.000
186260.800,208070.000,711938.100,313258.800,707813.600,175932.500,685830.100,187132.800,0.000
186039.100,207911.000,711934.800,313156.000,707283.400,175768.200,685676.900,186934.800,0.000
186172.100,208041.500,711940.000,313244.300,707301.300,175884.600,685699.300,187012.000,0.000
186476.200,208283.200,711949.800,313394.800,707834.800,176124.700,685938.800,187264.400,0.000
186542.800,208309.600,711954.500,313406.300,708149.600,176163.100,686098.000,187353.500,0.000
186277.100,208082.600,711947.900,313260.200,707802.200,175948.800,685856.100,187158.000,0.000
186049.300,207916.300,711941.400,313153.700,707266.400,175770.700,685692.400,186948.500,0.000
186171.800,208040.000,711944.900,313236.400,707266.800,175879.200,685710.800,187014.800,0.000
186485.300,208290.000,711957.800,313396.300,707808.000,176129.500,685957.800,187273.900,0.000
186532.000,208296.500,711950.100,313395.800,708081.400,176149.900,686079.100,187335.300,0.000
186266.500,208073.900,711940.000,313247.900,707717.700,175933.600,685834.700,187133.400,0.000
186035.500,207908.100,711930.900,313135.700,707163.400,175757.100,685673.100,186922.800,0.000
186168.200,208042.800,711937.100,313222.500,707179.200,175877.200,685692.800,187001.800,0.000
186469.500,208279.100,711944.500,313371.600,707699.400,176115.800,685924.900,187248.300,0.000
186536.400,208304.300,711945.900,313386.100,708000.800,176153.600,686072.500,187334.100,0.000
186264.500,208073.500,711932.600,313235.200,707630.700,175931.100,685816.600,187130.400,0.000
186041.200,207914.000,711928.600,313131.000,707097.600,175764.700,685667.900,186931.800,0.000
186173.500,208047.700,711936.800,313219.000,707115.900,175882.800,685698.600,187014.400,0.000
186481.200,208290.300,711949.900,313373.100,707649.400,176128.200,685940.500,187270.600,0.000
186544.200,208310.100,711949.100,313384.900,707949.900,176162.900,686084.800,187349.000,0.000
186276.900,208085.000,711936.600,313233.400,707594.100,175945.400,685834.100,187148.200,0.000
186045.000,207916.000,711932.000,313116.500,707057.100,175767.500,685672.400,186940.700,0.000
186163.300,208033.300,711936.600,313194.300,707063.600,175872.500,685684.400,187008.800,0.000
186464.600,208269.400,711947.600,313345.200,707595.800,176113.700,685926.200,187257.900,0.000
186534.800,208297.600,711947.700,313357.300,707906.300,176153.700,686078.100,187342.500,0.000
186266.300,208069.000,711935.800,313207.200,707553.600,175931.100,685828.000,187143.500,0.000
186027.600,207898.600,711929.600,313088.200,707016.800,175751.200,685665.600,186934.600,0.000
186150.300,208022.800,711937.500,313168.300,707030.300,175863.400,685686.400,187007.700,0.000
186456.700,208264.900,711949.100,313324.900,707566.500,176109.800,685931.600,187263.500,0.000
186517.500,208281.300,711947.800,313333.800,707872.100,176140.300,686080.400,187342.600,0.000
186237.000,208040.800,711931.900,313174.800,707499.400,175907.100,685818.900,187130.100,0.000
186014.900,207884.400,711927.100,313082.400,706965.300,175737.200,685666.300,186930.200,0.000
186135.700,208007.700,711932.400,313155.900,706975.300,175849.300,685687.300,187002.200,0.000
186445.800,208253.200,711946.400,313303.300,707517.800,176098.100,685936.900,187260.400,0.000
186513.500,208274.800,711948.100,313317.500,707825.600,176132.300,686087.200,187341.200,0.000
186240.000,208041.700,711936.100,313161.300,707469.100,175909.100,685839.900,187136.200,0.000
185994.600,207863.100,711924.200,313040.400,706903.600,175720.800,685659.800,186913.700,0.000
186123.900,207993.500,711927.900,313131.000,706904.300,175839.300,685674.800,186987.800,0.000
186439.100,208243.400,711939.300,313298.400,707438.400,176089.900,685917.300,187243.900,0.000
186513.500,208273.700,711941.700,313316.700,707751.100,176133.500,686072.200,187329.300,0.000
186241.500,208042.700,711929.500,313159.700,707395.600,175916.000,685824.900,187127.500,0.000
186011.600,207877.800,711922.500,313049.800,706854.800,175745.400,685667.500,186921.100,0.000
186142.200,208010.200,711931.400,313139.100,706864.000,175863.300,685693.200,187000.000,0.000
186448.100,208253.500,711944.100,313297.300,707392.000,176109.200,685929.800,187251.900,0.000
186520.000,208285.100,711944.600,313314.300,707712.300,176152.900,686087.800,187340.900,0.000
186241.100,208045.000,711930.400,313145.600,707356.400,175921.000,685830.600,187132.500,0.000
186015.500,207886.000,711926.700,313049.200,706829.500,175752.400,685672.100,186930.000,0.000
186139.000,208013.300,711931.700,313130.300,706835.300,175863.600,685684.100,187000.700,0.000
186448.400,208257.700,711942.400,313284.800,707368.300,176105.500,685924.400,187254.400,0.000
186512.600,208278.800,711943.300,313294.100,707683.400,176145.400,686076.600,187339.000,0.000
186236.900,208042.700,711927.700,313133.900,707329.400,175915.800,685820.300,187131.800,0.000
186005.400,207875.600,711922.300,313028.700,706797.100,175738.800,685660.100,186927.100,0.000
186134.500,208008.100,711931.600,313120.800,706807.300,175857.100,685689.800,187005.600,0.000
186457.800,208267.400,711948.400,313288.000,707356.100,176118.800,685940.100,187274.600,0.000
186540.300,208302.800,711953.000,313307.600,707691.300,176173.000,686109.700,187373.400,0.000
186239.100,208040.600,711929.400,313132.600,707303.600,175922.000,685835.900,187144.500,0.000
185993.700,207863.500,711918.600,313015.300,706751.400,175737.300,685672.900,186927.800,0.000
186115.100,207987.900,711927.500,313093.700,706752.400,175849.000,685681.400,187001.900,0.000
186423.700,208238.100,711940.400,313246.000,707285.900,176095.500,685922.700,187260.700,0.000
186522.200,208295.600,711953.700,313276.000,707655.800,176166.200,686123.600,187377.900,0.000
186270.800,208081.600,711953.200,313140.000,707350.100,175963.600,685895.300,187197.400,0.000
186030.100,207902.300,711944.600,313021.100,706808.100,175776.500,685698.900,186977.600,0.000
186144.100,208013.800,711946.000,313098.600,706789.200,175870.200,685716.300,187032.300,0.000
186437.400,208244.000,711950.500,313243.700,707288.700,176096.300,685926.200,187269.900,0.000
186485.100,208250.200,711938.700,313237.400,707555.100,176113.300,686038.900,187330.400,0.000
186211.100,208012.000,711917.900,313081.600,707161.700,175882.700,685771.600,187115.500,0.000
185997.900,207863.200,711919.600,312988.400,706631.800,175723.500,685644.100,186925.500,0.000
186141.900,208012.300,711938.900,313090.700,706669.300,175863.900,685707.300,187025.300,0.000
186446.700,208248.600,711950.100,313247.800,707193.900,176103.900,685946.600,187278.200,0.000
186497.200,208253.700,711946.600,313236.100,707487.800,176125.400,686085.300,187348.600,0.000
186216.100,208014.600,711927.900,313069.200,707117.400,175896.300,685822.000,187133.000,0.000
185983.800,207851.500,711919.400,312966.300,706565.600,175723.300,685657.600,186921.800,0.000
186109.700,207985.200,711927.900,313058.300,706567.400,175843.500,685678.100,186999.700,0.000
186429.300,208238.200,711941.200,313218.500,707102.100,176100.500,685921.500,187262.800,0.000
186510.200,208274.100,711943.600,313240.900,707429.500,176151.300,686088.100,187358.400,0.000
186246.100,208051.200,711931.200,313091.700,707092.200,175934.100,685841.500,187158.200,0.000
186003.900,207875.900,711925.100,312982.400,706555.600,175751.300,685670.300,186944.800,0.000
186109.000,207982.900,711929.100,313045.700,706542.900,175847.800,685691.800,187004.400,0.000
186418.600,208227.800,711939.700,313202.600,707075.400,176095.700,685924.800,187263.200,0.000
186496.100,208259.200,711940.400,313223.400,707406.100,176137.700,686085.600,187355.200,0.000
186231.000,208029.100,711929.100,313074.300,707068.900,175916.000,685839.300,187151.100,0.000
185993.200,207860.700,711924.300,312957.600,706539.300,175738.900,685674.900,186937.700,0.000
186114.500,207985.800,711931.800,313036.100,706541.000,175849.600,685698.300,187008.500,0.000
186425.300,208229.800,711943.900,313195.700,707074.500,176094.100,685937.900,187270.500,0.000
186506.800,208269.000,711948.600,313220.300,707413.000,176148.100,686111.300,187370.800,0.000
186235.300,208035.100,711937.600,313061.100,707075.600,175922.300,685859.400,187165.500,0.000
185990.600,207853.600,711927.300,312938.100,706521.600,175731.400,685667.900,186937.800,0.000
186106.700,207970.800,711935.200,313016.300,706509.800,175836.800,685706.500,187003.500,0.000
186421.000,208219.600,711945.200,313182.500,707033.800,176083.000,685935.600,187261.700,0.000
186492.800,208244.600,711940.600,313201.600,707343.400,176117.300,686080.900,187344.400,0.000
186223.800,208009.600,711922.800,313038.300,706983.800,175886.100,685821.800,187131.700,0.000
185985.900,207836.900,711915.300,312932.800,706433.100,175703.300,685655.300,186917.900,0.000
186094.200,207950.600,711921.300,313003.700,706411.600,175809.700,685673.700,186982.600,0.000
186405.400,208197.600,711929.800,313158.800,706925.700,176056.600,685899.600,187237.700,0.000
186491.000,208234.800,711931.800,313179.300,707258.600,176107.300,686069.700,187340.800,0.000
186224.500,208004.500,711918.600,313027.300,706914.300,175888.900,685822.800,187138.800,0.000
185989.200,207834.400,711914.200,312917.200,706369.400,175710.500,685658.700,186924.100,0.000
186108.800,207961.400,711923.600,312997.100,706356.900,175820.500,685695.600,186992.500,0.000
186425.900,208214.600,711936.400,313164.100,706886.300,176075.100,685933.600,187256.800,0.000
186505.300,208246.400,711936.400,313184.300,707217.200,176126.700,686097.600,187350.300,0.000
186249.000,208026.200,711926.900,313038.400,706901.300,175918.900,685864.900,187156.200,0.000
186003.100,207846.600,711921.700,312914.100,706361.900,175727.500,685690.600,186935.100,0.000
186111.800,207961.600,711928.400,312991.100,706344.100,175828.000,685710.600,186994.400,0.000
186417.000,208207.100,711940.600,313155.200,706860.200,176077.100,685935.100,187248.900,0.000
186501.700,208248.500,711937.900,313172.700,707183.400,176127.500,686092.800,187343.900,0.000
186242.400,208023.800,711924.200,313016.300,706853.700,175913.300,685846.100,187147.000,0.000
186008.800,207855.500,711923.100,312907.400,706331.200,175738.300,685674.600,186938.100,0.000
186123.300,207974.300,711932.000,312990.900,706322.900,175843.300,685702.000,187004.300,0.000
186439.400,208227.400,711946.100,313158.500,706853.700,176098.400,685949.700,187271.500,0.000
186508.400,208252.100,711943.300,313166.800,707168.800,176137.300,686102.800,187356.400,0.000
186238.600,208020.700,711925.300,313006.300,706816.400,175913.200,685841.300,187145.400,0.000
186001.800,207850.100,711919.100,312895.400,706268.300,175732.200,685663.300,186929.900,0.000
186108.600,207963.100,711925.900,312973.500,706239.900,175832.300,685682.200,186988.800,0.000
186413.400,208205.300,711934.200,313130.600,706739.500,176073.500,685901.700,187240.800,0.000
186502.800,208250.300,711936.400,313150.500,707077.300,176129.300,686079.100,187348.200,0.000
186243.100,208024.700,711926.600,312994.300,706759.300,175914.800,685843.400,187155.300,0.000
186006.600,207853.300,711922.900,312892.800,706222.600,175734.200,685669.400,186941.000,0.000
186115.500,207971.500,711929.400,312979.100,706196.300,175833.800,685698.800,187001.800,0.000
186414.900,208207.800,711937.900,313114.800,706703.300,176070.900,685918.800,187252.500,0.000
186492.300,208243.300,711935.600,313134.200,707026.100,176119.300,686079.400,187349.100,0.000
186237.300,208025.100,711924.000,312986.500,706707.600,175908.500,685845.400,187157.500,0.000
185997.200,207850.000,711918.500,312871.200,706167.400,175724.100,685671.800,186937.300,0.000
186103.600,207963.600,711926.100,312949.200,706143.400,175828.100,685693.500,186996.700,0.000
186414.400,208211.300,711937.600,313113.400,706655.900,176074.400,685922.100,187253.600,0.000
186495.600,208249.300,711937.300,313131.100,706984.300,176123.600,686088.400,187353.600,0.000
186235.000,208025.700,711924.400,312978.700,706657.900,175911.700,685849.600,187159.000,0.000
185989.600,207845.900,711918.400,312859.400,706111.900,175724.200,685672.000,186936.000,0.000
186096.700,207955.600,711925.300,312933.200,706078.300,175820.200,685688.400,186991.800,0.000
186411.100,208206.200,711936.300,313098.100,706592.900,176070.900,685921.300,187251.700,0.000
186505.900,208251.800,711939.500,313131.300,706935.100,176131.000,686099.600,187356.400,0.000
186248.500,208029.000,711928.900,312975.800,706615.400,175915.700,685855.300,187160.000,0.000
186006.000,207849.200,711923.900,312863.700,706069.800,175726.700,685660.200,186939.100,0.000
186108.200,207954.700,711930.600,312935.000,706033.800,175824.500,685676.600,186995.200,0.000
186422.500,208204.400,711943.000,313096.500,706545.500,176073.500,685913.400,187258.000,0.000
186511.800,208250.000,711942.900,313125.300,706874.500,176129.400,686085.300,187358.100,0.000
186249.100,208023.600,711926.400,312973.500,706532.900,175909.000,685832.800,187152.600,0.000
185996.600,207836.500,711917.400,312847.000,705970.100,175713.800,685643.800,186921.800,0.000
186098.900,207946.100,711922.900,312917.700,705917.600,175811.100,685660.700,186970.400,0.000
186414.300,208199.300,711936.000,313083.000,706424.900,176065.100,685889.100,187234.600,0.000
186507.300,208245.000,711939.200,313111.500,706764.300,176123.800,686069.900,187343.000,0.000
186258.800,208029.200,711928.900,312970.800,706452.900,175914.900,685847.100,187154.600,0.000
186011.000,207842.900,711920.600,312845.400,705899.900,175721.600,685668.800,186926.100,0.000
186112.100,207951.400,711926.200,312914.500,705858.800,175818.700,685682.600,186980.300,0.000
186420.000,208195.800,711935.300,313077.100,706360.300,176064.500,685906.800,187238.200,0.000
186510.800,208242.500,711936.400,313099.900,706701.900,176128.000,686087.600,187346.200,0.000
186252.500,208018.800,711925.200,312948.100,706386.900,175914.000,685851.500,187151.800,0.000
186001.300,207834.200,711919.400,312826.200,705839.100,175720.800,685660.000,186925.400,0.000
186098.800,207944.200,711926.100,312899.800,705795.800,175815.800,685676.800,186978.900,0.000
186404.400,208193.900,711936.700,313060.400,706295.600,176060.600,685898.900,187237.900,0.000
186496.100,208239.500,711935.400,313090.200,706628.400,176122.200,686069.700,187345.000,0.000
186248.100,208026.600,711925.700,312953.800,706325.700,175919.700,685842.700,187160.400,0.000
185993.900,207843.500,711919.200,312819.300,705781.500,175726.200,685656.400,186934.000,0.000
186096.000,207953.100,711925.700,312895.600,705740.800,175822.500,685674.300,186986.300,0.000
186406.500,208199.700,711935.400,313055.800,706245.300,176071.600,685898.300,187243.800,0.000
186490.800,208238.100,711937.600,313072.000,706588.600,176127.600,686077.700,187348.000,0.000
186243.100,208024.800,711927.600,312926.400,706288.400,175919.100,685852.500,187156.600,0.000
186000.300,207847.600,711921.700,312807.000,705748.800,175730.100,685664.600,186934.000,0.000
186104.000,207960.900,711930.600,312879.800,705714.200,175829.700,685675.200,186992.100,0.000
186419.800,208211.900,711943.000,313046.800,706218.000,176080.400,685908.000,187252.600,0.000
186507.100,208247.500,711939.100,313072.100,706544.500,176133.500,686075.600,187353.500,0.000
186248.900,208022.700,711926.400,312919.900,706229.600,175917.600,685843.900,187159.600,0.000
185999.000,207839.900,711920.700,312795.200,705685.300,175725.900,685669.200,186932.800,0.000
186097.500,207947.900,711927.500,312869.800,705641.600,175819.100,685694.000,186984.500,0.000
186409.400,208200.100,711938.300,313033.800,706145.200,176071.900,685917.800,187247.100,0.000
186501.400,208246.400,711940.400,313056.900,706488.900,176132.900,686094.900,187355.200,0.000
186242.300,208018.000,711925.800,312904.400,706173.900,175915.500,685858.100,187158.100,0.000
185992.500,207834.500,711916.800,312787.400,705621.600,175724.000,685667.900,186930.400,0.000
186084.600,207938.800,711920.900,312853.400,705563.300,175815.300,685665.800,186980.300,0.000
186398.900,208189.900,711934.900,313023.200,706062.600,176066.400,685897.600,187246.500,0.000
186499.800,208243.100,711936.600,313052.100,706411.600,176135.000,686088.000,187360.700,0.000
186241.200,208016.500,711923.800,312895.800,706107.100,175919.200,685853.900,187166.900,0.000
185996.100,207838.200,711918.000,312783.300,705571.000,175733.000,685663.100,186946.300,0.000
186086.600,207939.100,711920.900,312848.800,705510.400,175820.500,685662.500,186989.600,0.000
186388.400,208180.000,711929.300,313002.000,705994.400,176061.500,685876.400,187238.300,0.000
186487.400,208230.300,711932.900,313034.800,706342.800,176128.600,686062.800,187351.200,0.000
186225.700,208005.000,711919.100,312878.800,706039.100,175918.200,685834.600,187159.800,0.000
185979.000,207825.500,711913.400,312757.500,705502.200,175729.800,685658.500,186940.700,0.000
186080.300,207933.700,711922.400,312839.400,705453.400,175823.400,685666.800,186996.100,0.000
186401.800,208193.500,711937.600,313012.600,705959.700,176082.000,685904.900,187262.700,0.000
186514.700,208257.700,711942.400,313049.200,706316.100,176156.900,686102.800,187382.500,0.000
186260.800,208034.300,711929.800,312895.900,706007.900,175942.900,685862.500,187185.500,0.000
186008.400,207848.700,711922.700,312775.000,705462.100,175749.800,685663.300,186956.800,0.000
186078.200,207926.400,711920.800,312824.100,705375.800,175818.500,685669.400,186980.800,0.000
186394.700,208182.500,711932.800,312994.400,705875.100,176076.500,685894.400,187244.100,0.000
186506.400,208246.900,711940.000,313034.800,706236.500,176152.700,686092.400,187368.700,0.000
186251.000,208025.800,711928.900,312880.400,705943.500,175941.600,685864.400,187176.500,0.000
185987.900,207829.000,711916.700,312748.000,705385.400,175735.100,685650.200,186931.500,0.000
186073.300,207924.600,711920.600,312808.100,705306.800,175814.700,685677.000,186962.300,0.000
186401.000,208190.500,711933.100,312988.900,705806.100,176075.900,685904.400,187230.300,0.000
186525.700,208265.600,711940.200,313048.200,706178.400,176161.300,686105.500,187361.400,0.000
186262.800,208032.500,711925.300,312874.200,705874.600,175944.200,685868.600,187161.000,0.000
185945.900,207781.000,711897.800,312684.300,705259.100,175683.900,685614.400,186868.200,0.000
185988.100,207831.800,711889.900,312712.900,705152.600,175716.500,685619.100,186866.000,0.000
186310.700,208087.400,711902.000,312882.300,705644.400,175962.600,685840.300,187130.100,0.000
186459.100,208185.000,711914.700,312964.100,706020.800,176072.400,686051.300,187287.400,0.000
186307.700,208062.700,711927.900,312910.500,705816.800,175962.200,685895.900,187193.500,0.000
186105.600,207919.000,711932.300,312830.900,705316.400,175810.300,685690.800,187009.000,0.000
186189.400,208013.800,711939.800,312893.500,705251.500,175891.900,685691.800,187050.500,0.000
186497.400,208257.100,711956.200,313056.100,705742.000,176141.000,685941.200,187315.000,0.000
186589.800,208294.800,711959.900,313076.400,706075.400,176194.900,686134.400,187423.700,0.000
186326.000,208055.900,711945.600,312921.000,705765.600,175961.200,685895.400,187220.400,0.000
186033.800,207828.500,711921.300,312768.700,705152.400,175720.400,685659.100,186944.700,0.000
186100.600,207910.200,711912.300,312821.400,705013.600,175783.600,685661.300,186958.000,0.000
186405.000,208159.700,711914.800,312983.800,705455.600,176025.800,685847.300,187210.700,0.000
186526.300,208227.500,711921.900,313035.300,705793.400,176110.700,686046.700,187346.900,0.000
186292.700,208022.300,711913.100,312904.700,705494.700,175912.200,685830.600,187169.900,0.000
186035.400,207832.200,711907.200,312769.600,704921.400,175712.300,685643.800,186931.800,0.000
186122.400,207933.400,711913.000,312835.800,704834.100,175798.400,685638.100,186971.700,0.000
186437.300,208192.500,711926.000,313009.600,705328.800,176053.900,685868.100,187236.500,0.000
186548.400,208258.500,711928.200,313046.800,705678.500,176131.200,686072.600,187356.700,0.000
186296.100,208037.100,711917.700,312890.600,705385.900,175922.500,685850.000,187163.100,0.000
186015.700,207823.800,711906.100,312737.500,704830.900,175704.100,685636.800,186904.600,0.000
186074.900,207891.700,711902.800,312783.900,704725.800,175760.800,685630.600,186919.900,0.000
186378.100,208127.200,711910.900,312948.300,705204.400,176000.200,685838.600,187180.500,0.000
186452.500,208149.600,711899.000,312962.800,705517.300,176034.400,685988.800,187271.200,0.000
186187.000,207916.700,711884.300,312784.300,705215.900,175810.900,685763.600,187067.400,0.000
185940.700,207740.700,711884.300,312665.000,704690.900,175627.800,685605.000,186841.900,0.000
186085.800,207898.000,711907.100,312795.300,704686.100,175772.100,685661.100,186945.900,0.000
186484.700,208236.100,711944.400,313053.300,705261.900,176112.500,685963.600,187303.200,0.000
186588.600,208288.000,711946.100,313088.700,705613.300,176181.000,686150.900,187427.300,0.000
186305.700,208036.500,711926.200,312911.200,705291.400,175944.700,685882.900,187207.100,0.000
186031.900,207834.900,711916.100,312762.600,704722.200,175736.500,685659.400,186957.400,0.000
186117.000,207930.600,711925.300,312829.800,704657.900,175813.700,685677.200,187004.400,0.000
186432.500,208184.500,711944.300,313003.400,705165.300,176062.200,685929.100,187288.000,0.000
186541.700,208246.100,711948.900,313039.900,705528.800,176131.100,686140.400,187417.500,0.000
186277.600,208017.100,711931.400,312880.800,705207.700,175907.900,685898.000,187203.600,0.000
185988.000,207801.800,711912.400,312724.900,704593.000,175686.300,685651.900,186922.500,0.000
186060.200,207887.700,711910.700,312786.800,704467.400,175756.600,685643.600,186941.300,0.000
186377.700,208139.500,711916.800,312962.300,704918.600,176006.800,685853.600,187213.300,0.000
186496.200,208206.200,711920.200,313001.400,705258.400,176083.600,686058.100,187345.400,0.000
186255.200,208000.400,711910.900,312850.600,704971.000,175884.000,685840.800,187148.800,0.000
186002.500,207818.100,711906.800,312725.400,704421.000,175694.400,685647.900,186898.400,0.000
186086.400,207910.300,711913.900,312795.300,704345.600,175775.800,685656.600,186929.300,0.000
186412.900,208171.500,711927.900,312980.800,704841.100,176035.500,685888.900,187212.500,0.000
186532.800,208242.300,711931.600,313020.700,705210.400,176119.500,686097.900,187350.100,0.000
186281.800,208021.500,711918.600,312869.400,704926.300,175910.100,685864.300,187143.500,0.000
185986.600,207797.900,711902.100,312704.600,704345.600,175673.200,685626.800,186853.300,0.000
185984.500,207810.100,711884.600,312684.100,704190.300,175669.300,685596.700,186808.500,0.000
186222.900,207981.900,711870.300,312783.300,704600.900,175839.500,685731.700,187011.300,0.000
186299.000,208005.300,711857.100,312791.500,704925.100,175881.400,685883.300,187110.000,0.000
186200.400,207946.200,711891.000,312784.600,704811.900,175844.900,685795.000,187065.200,0.000
186139.300,207958.000,711945.400,312855.900,704489.400,175849.900,685668.800,187016.400,0.000
186265.700,208098.000,711967.800,312960.800,704470.300,175979.700,685679.700,187106.600,0.000
186524.600,208291.400,711964.500,313073.100,704909.600,176171.800,685920.200,187345.300,0.000
186616.800,208323.800,711965.600,313080.300,705272.900,176212.200,686139.700,187472.200,0.000
186376.400,208111.900,711965.300,312930.900,705031.000,176010.000,685948.200,187294.500,0.000
186086.800,207897.300,711958.300,312770.500,704482.600,175777.000,685694.700,187023.200,0.000
186105.800,207935.800,711936.400,312797.700,704302.900,175786.800,685687.900,186997.000,0.000
186379.500,208149.600,711921.300,312948.000,704666.600,175991.000,685837.800,187238.300,0.000
186501.500,208218.800,711922.600,312999.400,704996.100,176077.800,686043.600,187390.900,0.000
186265.400,208017.300,711914.800,312852.300,704683.800,175889.500,685845.900,187202.000,0.000
186012.800,207839.000,711913.200,312722.100,704112.400,175703.000,685660.200,186945.300,0.000
186092.000,207930.300,711919.000,312787.900,703998.400,175782.500,685662.900,186971.300,0.000
186408.500,208187.600,711928.900,312969.300,704463.000,176031.100,685883.600,187254.000,0.000
186529.300,208261.100,711932.300,313018.100,704874.200,176119.100,686095.500,187395.800,0.000
186281.100,208044.300,711923.300,312860.100,704587.200,175921.500,685876.400,187187.600,0.000
186015.300,207847.500,711916.900,312715.800,704022.100,175724.000,685664.200,186913.600,0.000
186097.800,207937.700,711922.600,312794.700,703942.400,175806.400,685675.800,186943.600,0.000
186423.500,208190.600,711935.100,312981.600,704435.600,176059.000,685907.800,187237.500,0.000
186536.800,208250.100,711936.100,313012.900,704823.500,176132.300,686118.500,187378.400,0.000
186289.300,208041.900,711925.600,312854.500,704553.100,175929.300,685894.900,187175.600,0.000
186020.200,207848.800,711919.200,312712.500,704019.300,175732.500,685672.300,186906.500,0.000
186098.600,207939.600,711928.200,312787.200,703954.600,175816.300,685668.800,186945.000,0.000
186416.600,208189.100,711940.800,312976.100,704468.800,176067.300,685904.300,187241.700,0.000
186506.200,208221.300,711932.900,312976.000,704833.100,176109.600,686087.200,187352.600,0.000
186205.800,207957.000,711907.600,312769.700,704521.500,175852.600,685836.500,187092.100,0.000
185878.300,207707.900,711884.300,312580.200,703921.200,175591.900,685591.900,186755.900,0.000
185979.800,207825.000,711897.800,312676.200,703874.300,175695.300,685634.500,186809.100,0.000
186433.900,208210.400,711944.900,312984.200,704528.600,176083.300,685994.800,187240.600,0.000
186620.900,208345.200,711966.700,313096.000,705003.100,176236.900,686277.000,187459.400,0.000
186331.800,208098.400,711946.200,312906.800,704711.000,176003.300,686007.800,187220.500,0.000
186026.800,207870.000,711926.300,312728.500,704125.300,175762.100,685699.900,186909.200,0.000
186112.600,207968.400,711940.200,312793.700,704067.400,175838.600,685719.400,186951.000,0.000
186456.700,208240.200,711968.600,312990.700,704624.800,176112.200,686019.600,187278.200,0.000
186584.500,208310.300,711976.100,313042.800,705026.200,176194.200,686258.100,187431.500,0.000
186297.200,208057.100,711949.300,312853.600,704687.800,175943.400,685983.400,187173.800,0.000
185973.000,207812.000,711913.600,312673.900,704002.800,175687.700,685664.800,186827.200,0.000
186057.800,207912.300,711914.300,312747.700,703869.900,175769.700,685654.600,186855.800,0.000
186390.400,208173.800,711926.100,312942.800,704337.800,176030.300,685882.800,187165.400,0.000
186523.300,208247.500,711927.600,312998.500,704692.700,176119.100,686095.600,187324.000,0.000
186276.600,208038.500,711918.600,312833.600,704412.300,175928.600,685880.800,187128.700,0.000
186006.500,207848.300,711917.100,312696.500,703854.100,175736.100,685664.000,186860.700,0.000
186089.500,207945.700,711925.100,312766.700,703768.300,175816.500,685676.400,186893.400,0.000
186431.100,208215.700,711941.200,312968.100,704284.000,176083.800,685927.900,187205.800,0.000
186528.700,208256.500,711933.400,312984.200,704646.400,176137.100,686117.800,187328.500,0.000
186222.500,207984.600,711906.100,312777.200,704330.300,175883.500,685843.900,187070.100,0.000
185890.200,207727.200,711882.500,312574.600,703724.800,175626.600,685571.900,186734.900,0.000
185929.900,207776.800,711879.300,312593.100,703603.800,175663.600,685584.300,186728.100,0.000
186382.200,208158.800,711926.400,312904.000,704237.700,176039.600,685938.100,187156.400,0.000
186555.800,208273.600,711943.000,313003.300,704681.600,176170.300,686197.400,187359.000,0.000
186317.400,208073.100,711937.600,312855.500,704436.400,175980.900,685979.800,187167.800,0.000
186062.900,207897.700,711937.800,312729.900,703908.400,175798.800,685712.700,186914.500,0.000
186132.300,207979.200,711944.600,312793.100,703815.900,175872.100,685720.600,186945.400,0.000
186441.600,208215.500,711953.300,312964.500,704294.900,176110.100,685954.000,187234.300,0.000
186569.400,208285.100,711952.400,313017.600,704680.900,176192.500,686180.000,187391.500,0.000
186309.800,208064.300,711938.400,312841.300,704403.800,175979.700,685948.200,187178.600,0.000
186021.800,207857.000,711930.900,312680.300,703832.600,175755.200,685697.800,186889.600,0.000
186097.400,207946.000,711940.600,312749.700,703740.900,175825.400,685699.400,186923.000,0.000
186432.700,208209.700,711956.800,312950.900,704248.900,176089.600,685957.400,187238.100,0.000
186542.200,208264.400,711952.900,312988.700,704616.200,176156.700,686167.800,187378.600,0.000
186276.900,208033.400,711932.000,312817.000,704313.700,175937.500,685919.600,187151.500,0.000
185989.600,207826.600,711917.100,312648.200,703716.900,175720.600,685662.700,186850.400,0.000
186062.900,207919.300,711923.100,312716.200,703603.100,175797.500,685670.000,186877.800,0.000
186397.500,208179.100,711936.300,312911.800,704088.400,176056.800,685902.500,187185.000,0.000
186532.600,208252.400,711939.400,312966.100,704475.000,176141.200,686134.400,187346.500,0.000
186289.500,208043.300,711930.400,312811.700,704210.200,175942.200,685921.800,187143.600,0.000
185993.300,207829.500,711921.700,312649.900,703628.400,175723.500,685667.800,186847.900,0.000
186029.800,207884.100,711917.300,312682.000,703476.200,175758.900,685660.100,186838.300,0.000
186367.000,208148.500,711930.800,312880.500,703967.700,176018.000,685898.900,187152.000,0.000
186517.800,208239.400,711937.800,312953.100,704371.800,176121.800,686141.600,187332.800,0.000
186266.700,208026.300,711926.900,312793.300,704105.800,175922.300,685921.000,187124.300,0.000
185976.300,207819.000,711917.100,312637.800,703529.100,175713.300,685667.100,186829.200,0.000
186022.500,207881.000,711918.800,312675.900,703396.600,175768.700,685671.600,186836.800,0.000
186412.600,208193.800,711943.700,312924.600,703933.100,176079.500,685953.900,187199.800,0.000
186613.300,208328.500,711964.600,313038.600,704390.800,176229.100,686248.100,187430.700,0.000
186342.700,208087.200,711948.100,312847.600,704106.900,175996.800,685997.100,187201.400,0.000
186046.800,207868.800,711939.200,312683.900,703543.400,175772.500,685716.400,186901.700,0.000
186114.600,207949.800,711949.600,312744.900,703460.800,175837.600,685727.800,186927.600,0.000
186440.600,208203.100,711965.500,312937.800,703968.900,176095.400,685980.500,187245.700,0.000
186553.000,208255.100,711960.400,312973.300,704319.100,176161.300,686190.900,187392.700,0.000
186273.500,208011.000,711928.700,312784.400,703974.600,175925.600,685910.900,187145.200,0.000
185989.000,207808.100,711913.200,312635.900,703364.600,175714.300,685655.400,186850.400,0.000
186060.000,207896.400,711917.400,312710.300,703228.800,175787.200,685671.200,186877.800,0.000
186392.600,208157.500,711929.600,312901.200,703708.600,176048.100,685901.500,187197.200,0.000
186529.300,208233.500,711932.100,312952.500,704091.100,176138.700,686133.600,187368.100,0.000
186292.800,208036.300,711922.900,312800.300,703834.600,175950.800,685928.500,187167.700,0.000
186017.000,207844.500,711917.300,312656.900,703268.300,175749.400,685688.800,186878.000,0.000
186077.000,207924.100,711921.500,312711.100,703150.100,175810.800,685680.800,186888.200,0.000
186411.400,208184.500,711936.900,312916.700,703648.300,176069.800,685921.700,187203.000,0.000
186523.300,208233.400,711934.000,312934.800,704019.100,176131.000,686131.600,187347.500,0.000
186254.100,207999.400,711914.700,312749.000,703734.300,175905.600,685893.500,187118.200,0.000
185971.100,207800.200,711908.300,312602.000,703164.800,175701.100,685657.500,186826.500,0.000
186071.000,207918.600,711926.500,312702.700,703088.100,175806.500,685679.900,186883.400,0.000
186428.400,208200.000,711945.400,312930.700,703603.700,176086.000,685939.400,187220.100,0.000
186542.000,208249.200,711937.800,312958.700,703978.300,176148.100,686145.200,187365.000,0.000
186275.300,208021.300,711920.500,312775.200,703698.800,175928.400,685909.600,187143.100,0.000
185986.200,207819.000,711912.800,312621.500,703127.400,175717.900,685655.400,186850.200,0.000
186086.500,207937.900,711932.100,312712.500,703064.100,175821.900,685675.400,186910.400,0.000
186417.000,208191.000,711944.800,312908.200,703554.100,176074.400,685917.500,187228.800,0.000
186542.800,208254.600,711943.500,312956.300,703944.000,176152.200,686144.600,187393.700,0.000
186322.600,208074.300,711940.300,312815.200,703718.900,175983.600,685956.100,187212.800,0.000
186047.100,207881.300,711934.000,312663.200,703154.400,175782.300,685707.400,186919.600,0.000
186091.900,207941.500,711936.900,312717.400,703012.300,175830.000,685693.300,186926.400,0.000
186418.100,208193.500,711945.900,312906.200,703478.800,176074.600,685922.300,187237.800,0.000
186556.000,208256.900,711947.700,312952.600,703882.200,176155.500,686159.300,187413.800,0.000
186312.200,208043.400,711935.400,312796.000,703628.500,175958.200,685941.900,187212.300,0.000
186034.400,207853.900,711933.900,312663.300,703068.200,175761.500,685700.700,186924.400,0.000
186084.800,207926.500,711938.900,312703.700,702944.800,175815.000,685694.100,186933.500,0.000
186408.700,208176.700,711945.200,312891.000,703382.000,176058.800,685915.400,187240.000,0.000
186550.300,208253.300,711943.800,312951.300,703768.900,176145.900,686142.500,187410.700,0.000
186302.300,208042.900,711929.400,312785.800,703501.600,175946.300,685923.400,187197.800,0.000
186008.100,207836.800,711921.300,312618.600,702911.800,175735.300,685683.800,186886.300,0.000
186047.500,207893.900,711921.000,312662.600,702772.700,175780.200,685671.700,186876.200,0.000
186361.600,208130.700,711925.300,312842.500,703228.200,176016.300,685881.200,187175.200,0.000
186495.700,208202.600,711924.600,312905.200,703616.700,176110.200,686104.000,187349.600,0.000
186289.600,208035.500,711926.300,312780.000,703419.200,175952.800,685932.500,187180.700,0.000
186005.100,207833.800,711922.500,312614.900,702856.400,175736.000,685681.200,186881.300,0.000
186046.400,207892.300,711922.800,312658.800,702715.000,175777.300,685674.300,186877.700,0.000
186391.100,208158.600,711938.500,312877.200,703213.600,176042.400,685922.100,187211.900,0.000
186565.400,208267.900,711950.400,312971.500,703647.800,176172.800,686201.600,187434.400,0.000
186351.600,208096.700,711948.100,312839.400,703434.100,176010.700,686016.600,187270.600,0.000
186040.200,207879.500,711933.700,312657.400,702867.100,175782.200,685699.900,186955.000,0.000
186086.900,207945.800,711933.600,312701.900,702765.300,175832.300,685685.500,186967.100,0.000
186422.800,208202.700,711947.400,312902.300,703257.700,176081.300,685931.400,187303.400,0.000
186571.800,208277.500,711950.700,312966.400,703639.600,176164.900,686198.900,187501.300,0.000
186326.800,208069.800,711940.600,312808.700,703387.600,175964.400,686004.200,187306.100,0.000
186027.900,207862.700,711934.500,312645.300,702780.200,175749.000,685704.100,187003.500,0.000
186085.500,207940.300,711943.100,312683.800,702672.400,175808.300,685719.000,187023.000,0.000
186420.400,208194.300,711956.800,312890.800,703138.400,176058.300,685974.700,187348.700,0.000
186562.700,208271.700,711955.500,312959.000,703535.900,176144.500,686210.300,187521.400,0.000
186301.600,208051.200,711933.500,312781.800,703250.600,175931.800,685965.300,187286.000,0.000
185995.200,207837.800,711921.500,312612.700,702643.100,175715.900,685681.900,186960.500,0.000
186061.100,207925.400,711930.200,312686.300,702529.300,175789.900,685694.300,186971.200,0.000
186408.200,208191.700,711941.600,312900.100,703001.800,176051.800,685935.400,187293.200,0.000
186542.700,208260.900,711941.000,312943.700,703396.900,176137.500,686173.000,187459.000,0.000
186290.900,208046.400,711929.000,312773.700,703152.000,175938.500,685961.400,187237.700,0.000
185984.800,207827.000,711917.900,312597.600,702560.500,175713.700,685685.300,186904.200,0.000
186034.500,207896.400,711921.900,312655.000,702421.800,175768.500,685670.300,186905.000,0.000
186377.300,208160.700,711935.600,312864.000,702906.900,176031.300,685911.500,187236.200,0.000
186556.900,208271.200,711945.200,312959.300,703341.200,176155.300,686188.400,187451.000,0.000
186349.800,208096.600,711942.500,312832.900,703131.400,175992.100,686010.600,187271.600,0.000
186049.800,207881.800,711933.100,312660.600,702556.400,175771.600,685718.900,186947.200,0.000
186098.700,207946.400,711936.200,312709.000,702407.800,175820.200,685699.300,186944.200,0.000
186447.700,208212.900,711947.800,312928.300,702886.900,176078.700,685940.900,187279.500,0.000
186599.600,208293.500,711950.600,312987.200,703293.000,176172.200,686190.200,187471.700,0.000
186350.600,208080.400,711939.800,312816.100,703045.400,175969.800,685984.300,187263.200,0.000
186044.800,207859.500,711927.500,312645.600,702459.400,175742.600,685697.400,186939.900,0.000
186099.400,207930.500,711931.200,312715.500,702315.400,175795.600,685689.600,186947.200,0.000
186439.100,208194.800,711943.900,312920.800,702790.400,176054.100,685933.900,187284.200,0.000
186586.500,208276.300,711945.200,312968.500,703188.300,176145.900,686183.200,187473.500,0.000
186346.800,208074.100,711933.500,312809.100,702950.500,175953.700,685977.800,187268.400,0.000
186049.800,207866.600,711923.300,312649.400,702385.900,175741.800,685688.800,186950.600,0.000
186098.100,207933.200,711927.500,312701.500,702258.100,175801.900,685679.600,186953.900,0.000
186453.400,208202.100,711948.900,312921.600,702758.400,176072.200,685942.700,187303.100,0.000
186602.300,208281.800,711953.500,312989.100,703177.300,176165.300,686195.600,187495.300,0.000
186350.000,208071.800,711941.400,312815.700,702924.500,175970.500,685987.100,187278.800,0.000
186045.600,207860.700,711931.900,312638.700,702349.000,175753.500,685707.600,186946.700,0.000
186081.000,207920.700,711929.300,312680.100,702184.400,175794.300,685685.800,186918.900,0.000
186416.300,208175.900,711935.200,312890.700,702630.200,176044.100,685896.700,187234.800,0.000
186581.300,208272.100,711941.300,312974.400,703058.900,176154.400,686153.400,187437.700,0.000
186345.600,208073.400,711931.400,312815.500,702836.900,175973.900,685958.800,187235.800,0.000
186036.200,207853.600,711921.800,312633.400,702260.600,175754.900,685687.000,186901.900,0.000
186081.700,207919.800,711924.800,312688.200,702122.700,175809.000,685690.700,186892.600,0.000
186426.400,208183.900,711936.000,312899.500,702600.800,176064.100,685919.300,187219.900,0.000
186584.500,208272.700,711941.000,312974.900,703023.800,176165.100,686173.800,187420.500,0.000
186343.400,208072.100,711930.900,312815.100,702804.600,175980.800,685975.400,187214.000,0.000
186032.600,207856.100,711920.400,312645.700,702232.600,175761.300,685693.400,186878.000,0.000
186080.400,207926.700,711928.900,312689.600,702101.100,175817.800,685685.700,186877.900,0.000
186417.500,208180.000,711941.200,312892.200,702582.900,176066.100,685912.900,187205.300,0.000
186575.600,208267.600,711942.300,312968.800,702996.600,176164.000,686156.900,187398.300,0.000
186326.000,208059.600,711929.600,312792.900,702766.900,175969.400,685949.800,187183.300,0.000
186012.500,207842.400,711919.600,312614.400,702195.600,175746.500,685673.600,186847.900,0.000
186063.400,207913.100,711926.800,312671.800,702055.800,175801.800,685682.500,186846.600,0.000
186423.000,208187.100,711944.700,312892.500,702550.300,176071.900,685926.900,187193.500,0.000
186598.100,208288.000,711953.800,312981.800,702982.100,176187.600,686193.100,187407.800,0.000
186364.300,208089.800,711939.600,312819.800,702747.600,175999.000,685989.600,187202.200,0.000
186061.100,207876.200,711929.400,312645.200,702169.700,175781.200,685710.900,186878.300,0.000
186108.200,207939.700,711935.600,312705.200,702018.200,175833.800,685700.100,186884.200,0.000
186454.600,208201.800,711946.800,312917.900,702483.600,176082.900,685929.600,187220.300,0.000
186617.900,208293.500,711949.400,312991.400,702897.700,176177.200,686186.200,187425.000,0.000
186384.100,208095.000,711940.100,312831.300,702673.700,175993.500,685991.400,187228.600,0.000
186071.000,207876.500,711929.200,312647.200,702089.200,175770.200,685699.700,186898.300,0.000
186111.200,207941.700,711932.400,312700.800,701927.100,175819.000,685689.300,186898.200,0.000
186458.900,208207.400,711946.800,312927.900,702398.900,176074.400,685925.200,187240.500,0.000
186608.500,208290.000,711947.100,312982.500,702797.800,176167.200,686168.300,187435.400,0.000
186373.800,208092.900,711937.300,312818.300,702567.600,175985.700,685975.100,187241.000,0.000
186069.900,207880.800,711928.400,312641.700,701998.300,175775.500,685710.300,186917.300,0.000
186105.500,207940.600,711933.800,312689.200,701843.800,175822.600,685697.900,186910.500,0.000
186439.800,208196.900,711944.300,312899.500,702304.000,176071.000,685918.400,187240.900,0.000
186595.300,208281.900,711945.000,312966.900,702708.300,176166.700,686161.800,187432.700,0.000
186366.000,208086.600,711937.200,312811.900,702499.600,175986.800,685978.800,187236.300,0.000
186060.500,207870.200,711927.100,312646.800,701925.800,175769.300,685693.900,186907.000,0.000
186096.400,207929.300,711930.800,312688.500,701764.700,175815.400,685681.600,186898.600,0.000
186434.500,208184.900,711944.400,312885.200,702234.000,176065.200,685913.800,187231.300,0.000
186592.500,208268.700,711945.500,312953.400,702646.400,176161.200,686167.800,187429.300,0.000
186354.900,208068.700,711934.600,312798.300,702423.400,175971.700,685974.900,187233.300,0.000
186047.500,207853.200,711926.700,312620.800,701851.300,175750.200,685694.400,186911.900,0.000
186091.600,207920.900,711933.500,312675.500,701699.800,175804.600,685695.900,186913.300,0.000
186431.500,208181.500,711946.000,312888.000,702163.400,176060.300,685930.800,187250.300,0.000
186593.100,208272.700,711948.800,312964.100,702572.500,176161.300,686187.400,187454.600,0.000
186351.100,208070.900,711938.400,312797.800,702348.300,175973.400,685998.300,187254.500,0.000
186040.100,207855.000,711929.800,312618.100,701769.200,175753.400,685708.600,186925.700,0.000
186088.400,207927.500,711936.900,312675.500,701620.600,175810.600,685701.800,186925.800,0.000
186425.500,208185.900,711951.000,312883.800,702077.600,176064.300,685932.400,187253.100,0.000
186595.000,208286.500,711956.500,312963.700,702503.400,176178.300,686205.400,187463.500,0.000
186359.800,208085.700,711945.000,312808.300,702286.800,175994.300,686017.300,187265.900,0.000
186050.500,207866.100,711934.800,312635.800,701708.800,175771.600,685717.100,186931.300,0.000
186077.300,207922.300,711937.300,312670.200,701564.300,175811.100,685693.400,186911.000,0.000
186401.000,208182.100,711948.100,312872.600,702093.600,176057.300,685907.700,187227.600,0.000
186565.400,208279.500,711953.300,312945.500,702588.900,176167.700,686163.600,187427.900,0.000
186330.000,208072.200,711939.600,312784.200,702338.600,175981.500,685961.300,187217.800,0.000
186023.300,207851.400,711928.600,312612.100,701757.600,175755.200,685688.200,186882.100,0.000
186062.100,207912.000,711933.700,312658.300,701601.600,175799.100,685689.700,186875.700,0.000
186407.200,208173.300,711949.700,312877.600,702063.700,176058.300,685921.200,187213.600,0.000
186578.600,208272.900,711957.200,312959.400,702495.400,176171.700,686187.900,187432.900,0.000
186346.600,208077.100,711945.900,312800.000,702272.400,175983.000,685999.600,187244.100,0.000
186039.600,207859.300,711935.200,312623.000,701700.300,175758.500,685717.600,186915.400,0.000
186070.100,207910.000,711936.400,312657.800,701529.300,175797.000,685686.100,186901.500,0.000
186389.300,208151.800,711941.300,312852.100,701967.000,176031.300,685884.300,187214.600,0.000
186566.800,208256.700,711944.300,312944.600,702389.100,176146.800,686150.100,187431.700,0.000
186337.100,208060.200,711935.800,312782.600,702184.600,175967.000,685966.200,187237.100,0.000
186027.100,207842.000,711928.600,312605.500,701618.700,175747.400,685696.000,186906.300,0.000
186068.500,207905.200,711936.900,312657.700,701465.600,175801.500,685688.100,186904.000,0.000
186402.300,208159.500,711947.400,312863.000,701930.400,176053.600,685906.300,187228.200,0.000
186567.800,208255.700,711949.700,312935.200,702352.300,176160.000,686163.600,187429.600,0.000
186339.200,208062.300,711937.900,312780.600,702143.800,175977.500,685975.800,187231.300,0.000
186028.500,207843.900,711930.000,312602.400,701573.600,175756.700,685698.700,186899.400,0.000
186063.800,207904.100,711935.200,312647.300,701409.700,175803.700,685688.700,186882.900,0.000
186396.200,208154.300,711944.800,312853.300,701862.900,176050.200,685901.100,187201.100,0.000
186558.100,208244.200,711947.500,312929.900,702282.400,176152.000,686157.600,187402.000,0.000
186318.000,208043.700,711937.200,312757.900,702068.700,175967.800,685967.600,187202.900,0.000
186020.100,207839.800,711929.300,312595.900,701505.900,175761.700,685700.500,186882.900,0.000
186059.100,207904.200,711933.900,312649.300,701350.800,175809.800,685668.300,186873.500,0.000
186387.800,208157.200,711943.900,312851.600,701805.100,176056.500,685881.800,187190.300,0.000
186545.200,208244.000,711946.200,312922.200,702225.100,176147.900,686134.600,187387.900,0.000
186316.500,208050.200,711936.000,312763.000,702019.600,175964.900,685949.300,187193.500,0.000
186019.500,207841.500,711929.800,312606.300,701460.600,175754.800,685688.900,186876.400,0.000
186058.600,207904.800,711932.800,312656.800,701295.400,175800.900,685681.800,186863.400,0.000
186394.500,208163.300,711945.400,312849.600,701752.600,176050.500,685900.100,187189.600,0.000
186568.200,208264.300,711948.800,312938.700,702178.800,176163.000,686162.100,187406.300,0.000
186333.800,208067.600,711937.900,312777.600,701966.900,175981.900,685973.900,187213.800,0.000
186018.000,207847.400,711929.800,312593.300,701394.900,175758.100,685691.200,186887.600,0.000
186053.200,207908.000,711936.800,312643.300,701232.200,175802.300,685680.800,186883.200,0.000
186389.700,208166.100,711947.900,312854.500,701684.100,176053.500,685898.100,187211.600,0.000
186562.200,208267.200,711950.800,312938.700,702103.800,176164.300,686155.600,187421.400,0.000
186330.800,208069.200,711939.100,312783.600,701893.400,175983.000,685969.800,187229.600,0.000
186009.100,207838.200,711924.800,312596.700,701304.400,175753.500,685688.800,186889.100,0.000
186042.800,207896.800,711930.400,312639.400,701138.700,175802.400,685671.000,186876.100,0.000
186392.600,208165.700,711945.400,312867.000,701604.100,176070.200,685895.300,187211.900,0.000
186562.600,208258.000,711949.100,312948.800,702022.900,176176.400,686149.900,187418.000,0.000
186337.000,208064.700,711937.000,312796.000,701819.900,175994.800,685962.600,187219.900,0.000
186025.200,207844.800,711927.500,312606.900,701256.800,175773.600,685694.700,186884.500,0.000
186054.700,207898.800,711933.700,312644.200,701101.200,175813.300,685676.600,186863.000,0.000
186389.200,208153.800,711947.400,312853.500,701559.400,176058.800,685889.100,187177.500,0.000
186555.500,208248.300,711949.100,312926.900,701986.000,176161.600,686146.100,187377.500,0.000
186327.200,208055.000,711937.500,312770.600,701789.800,175981.900,685963.200,187180.800,0.000
186020.700,207841.300,711930.600,312594.600,701228.700,175763.800,685696.800,186850.600,0.000
186049.700,207895.200,711935.300,312642.300,701060.600,175800.400,685683.900,186829.100,0.000
186384.300,208150.500,711947.500,312856.800,701515.100,176050.000,685894.600,187153.000,0.000
186551.200,208243.300,711949.900,312919.300,701935.800,176153.800,686146.800,187354.700,0.000
186327.400,208053.600,711940.100,312759.200,701738.300,175976.900,685969.000,187162.700,0.000
186022.700,207839.400,711934.300,312588.200,701174.800,175758.700,685704.100,186832.500,0.000
186048.000,207891.400,711937.200,312635.900,700997.500,175794.600,685686.800,186807.500,0.000
186390.800,208154.700,711948.300,312846.100,701453.300,176051.800,685903.400,187136.200,0.000
186567.900,208257.700,711953.300,312928.200,701883.900,176169.000,686166.700,187349.700,0.000
186343.900,208065.000,711942.300,312779.300,701681.800,175987.900,685981.100,187160.000,0.000
186025.900,207842.000,711932.100,312587.300,701108.600,175762.000,685690.600,186823.800,0.000
186056.900,207900.000,711937.000,312630.800,700938.300,175803.800,685680.500,186804.600,0.000
186395.100,208162.800,711948.900,312847.100,701396.300,176060.700,685896.700,187134.100,0.000
186568.100,208263.400,711953.000,312931.000,701829.500,176175.000,686156.400,187349.200,0.000
186332.700,208060.900,711939.100,312766.100,701625.300,175985.700,685962.800,187149.600,0.000
186027.000,207848.100,711931.100,312591.600,701067.500,175768.800,685696.100,186823.300,0.000
186058.300,207905.500,711936.000,312637.800,700902.800,175811.000,685682.200,186804.100,0.000
186391.800,208160.100,711948.100,312846.000,701355.900,176060.900,685887.900,187125.100,0.000
186568.900,208262.200,711954.700,312930.000,701799.100,176175.300,686155.800,187343.600,0.000
186345.000,208070.300,711942.900,312770.000,701611.800,175995.000,685978.900,187155.400,0.000
186029.200,207847.900,711930.900,312593.500,701041.400,175767.800,685704.600,186815.400,0.000
186059.600,207907.300,711937.200,312641.100,700877.400,175814.500,685693.800,186794.800,0.000
186391.800,208162.600,711950.300,312839.100,701337.800,176066.100,685906.300,187118.500,0.000
186567.700,208264.700,711953.200,312923.600,701780.100,176180.400,686168.200,187335.200,0.000
186341.200,208073.900,711941.600,312767.200,701595.000,176000.600,685987.700,187145.400,0.000
186031.700,207855.700,711931.600,312589.700,701034.900,175778.100,685706.100,186812.700,0.000
186052.000,207902.600,711935.400,312630.200,700863.500,175812.000,685678.500,186785.700,0.000
186379.800,208148.900,711945.200,312823.500,701312.100,176055.500,685879.900,187101.800,0.000
186560.300,208255.700,711948.400,312912.000,701754.600,176168.000,686144.900,187322.600,0.000
186341.400,208071.000,711938.600,312761.600,701575.300,175994.300,685971.800,187137.200,0.000
186029.900,207847.900,711927.500,312589.000,701011.000,175767.000,685692.000,186799.400,0.000
186050.900,207895.600,711933.900,312623.400,700837.900,175802.700,685687.100,186777.300,0.000
186385.400,208153.700,711946.100,312815.900,701287.900,176050.200,685901.100,187100.900,0.000
186562.500,208255.500,711949.100,312905.900,701714.800,176160.300,686159.300,187317.300,0.000
186340.200,208064.400,711940.000,312756.200,701519.800,175981.700,685981.300,187130.800,0.000
186027.400,207842.100,711930.600,312575.200,700952.600,175756.600,685706.100,186800.100,0.000
186048.000,207889.700,711933.900,312610.500,700768.900,175790.000,685704.400,186773.200,0.000
186381.600,208150.600,711946.800,312820.400,701213.900,176043.200,685911.900,187096.500,0.000
186570.700,208264.300,711952.200,312912.600,701656.200,176171.400,686178.600,187322.300,0.000
186359.100,208081.600,711943.600,312764.300,701478.300,176003.700,686009.300,187145.400,0.000
186042.900,207857.900,711932.100,312590.300,700910.900,175777.900,685714.900,186814.500,0.000
186061.300,207905.500,711936.400,312620.300,700728.000,175811.100,685691.600,186785.000,0.000
186393.400,208157.700,711948.600,312824.900,701166.200,176060.500,685895.100,187104.100,0.000
186570.800,208262.300,711951.300,312908.400,701602.000,176178.300,686160.100,187322.700,0.000
186351.600,208076.300,711939.500,312754.000,701417.600,176002.400,685983.400,187140.800,0.000
186038.900,207854.300,711929.600,312574.200,700853.300,175773.100,685697.300,186806.000,0.000
