EEG 1, EEG 2, EEG 3, EEG 4, EEG 5, EEG 6, EEG 7, EEG 8, TRIG
285753.000,313021.500,750000.100,750000.100,750000.100,253654.200,750000.100,271488.400,0.000
277495.200,304248.400,750000.100,750000.100,750000.100,246982.200,750000.100,264623.100,0.000
270899.900,297158.400,750000.100,749403.400,750000.100,241559.600,750000.100,259003.700,0.000
265175.200,291008.600,750000.100,710156.200,750000.100,236802.000,750000.100,254057.500,0.000
259628.800,285241.000,750000.100,678013.900,750000.100,232231.200,750000.100,249158.900,0.000
254372.300,279934.700,750000.100,651240.800,750000.100,227941.800,750000.100,244374.100,0.000
249978.100,275460.800,750000.100,628918.300,750000.100,224337.600,750000.100,240289.600,0.000
246555.800,271825.700,750000.100,610192.600,750000.100,221483.100,750000.100,237106.800,0.000
243482.300,268508.100,750000.100,594021.100,750000.100,218888.200,750000.100,234290.600,0.000
240201.300,265114.600,750000.100,579634.900,750000.100,216157.100,750000.100,231273.200,0.000
236883.200,261809.400,750000.100,566828.300,750000.100,213440.900,750000.100,228150.900,0.000
234149.500,259044.400,750000.100,555697.300,750000.100,211191.400,750000.100,225514.500,0.000
232124.300,256845.300,750000.100,546051.100,750000.100,209467.200,750000.100,223559.800,0.000
230261.200,254770.600,750000.100,537362.000,750000.100,207847.300,750000.100,221813.500,0.000
228076.900,252492.000,750000.100,529238.900,750000.100,206000.100,750000.100,219781.300,0.000
225744.500,250180.900,750000.100,521725.200,750000.100,204082.400,750000.100,217558.900,0.000
223866.800,248282.500,750000.100,515091.200,750000.100,202530.600,750000.100,215712.000,0.000
222605.700,246865.900,750000.100,509310.900,750000.100,201433.600,750000.100,214470.100,0.000
221434.500,245502.500,750000.100,503975.400,750000.100,200389.800,750000.100,213380.000,0.000
219870.500,243864.100,750000.100,498778.300,750000.100,199059.800,750000.100,211937.100,0.000
218107.200,242137.800,750000.100,493831.300,750000.100,197606.200,750000.100,210248.500,0.000
216740.300,240765.700,750000.100,489457.900,750000.100,196470.600,750000.100,208883.100,0.000
215923.600,239811.300,750000.100,485676.800,750000.100,195742.100,750000.100,208063.500,0.000
215179.300,238891.500,750000.100,482144.800,750000.100,195052.400,750000.100,207374.800,0.000
214019.000,237667.000,750000.100,478563.100,750000.100,194057.700,750000.100,206314.300,0.000
212633.600,236332.400,750000.100,475072.000,750000.100,192927.800,750000.100,204991.700,0.000
211604.600,235312.700,750000.100,472014.200,750000.100,192080.700,750000.100,203957.300,0.000
211099.000,234683.800,750000.100,469423.100,750000.100,191612.400,750000.100,203439.000,0.000
210636.100,234059.200,750000.100,466968.900,750000.100,191160.400,750000.100,203024.200,0.000
209745.700,233116.000,750000.100,464376.400,750000.100,190392.600,750000.100,202220.100,0.000
208620.100,232048.300,750000.100,461796.700,750000.100,189473.200,750000.100,201143.200,0.000
207827.600,231274.700,750000.100,459569.500,750000.100,188820.500,750000.100,200334.800,0.000
207528.000,230867.100,749100.900,457736.300,749076.600,188533.300,749605.400,200011.500,0.000
207251.000,230444.600,747081.400,455975.800,747057.500,188244.200,747585.400,199772.500,0.000
206554.100,229708.100,745159.600,454042.300,745135.900,187644.300,745663.200,199156.100,0.000
205613.300,228832.200,743339.200,452073.100,743316.100,186884.000,743842.800,198258.500,0.000
204990.200,228232.200,741627.600,450403.600,741604.600,186374.100,742130.300,197608.100,0.000
204849.400,227991.700,740020.000,449089.400,739996.800,186216.200,740521.800,197438.000,0.000
204723.600,227726.900,738496.700,447814.600,738473.100,186054.200,738998.000,197347.400,0.000
204162.700,227134.500,737038.400,446330.600,737015.300,185567.000,737539.600,196859.100,0.000
203352.500,226399.700,735656.600,444788.400,735633.500,184919.900,736157.300,196087.700,0.000
202854.500,225937.200,734360.900,443520.100,734337.800,184521.100,734861.600,195564.500,0.000
202822.400,225811.400,733145.900,442574.600,733122.800,184460.000,733646.100,195499.900,0.000
202797.800,225658.700,731989.600,441644.300,731966.600,184384.700,732489.300,195500.300,0.000
202350.200,225187.600,730885.900,440494.300,730863.100,183998.300,731385.300,195121.300,0.000
201640.700,224557.600,729836.200,439255.700,729814.000,183439.800,730335.300,194452.000,0.000
201241.800,224198.000,728857.500,438275.600,728835.100,183129.500,729355.900,194031.100,0.000
201297.200,224169.800,727943.900,437600.200,727921.500,183145.800,728442.100,194054.100,0.000
201353.300,224103.800,727072.400,436924.800,727049.900,183142.300,727570.900,194131.300,0.000
200975.500,223710.400,726233.400,436008.600,726211.300,182813.900,726731.600,193815.800,0.000
200343.700,223165.700,725438.800,435001.000,725416.600,182318.900,725936.300,193216.500,0.000
200009.700,222876.500,724699.500,434235.300,724677.300,182063.700,725196.900,192853.500,0.000
200125.700,222910.900,724009.700,433758.500,723987.200,182132.000,724507.000,192932.100,0.000
200252.200,222920.900,723358.600,433283.300,723336.300,182190.100,723855.800,193081.400,0.000
199942.100,222595.800,722726.800,432555.100,722704.200,181920.200,723223.400,192831.500,0.000
199371.600,222112.200,722124.300,431719.100,722101.800,181477.800,722620.900,192284.800,0.000
199093.900,221883.200,721568.500,431114.600,721546.100,181270.800,722065.000,191971.900,0.000
199265.100,221977.800,721055.900,430791.000,721034.100,181388.500,721552.400,192102.600,0.000
199437.800,222036.300,720568.900,430449.400,720546.900,181483.500,721064.900,192291.100,0.000
199176.100,221762.500,720096.200,429854.400,720074.300,181255.900,720591.600,192087.400,0.000
198648.700,221330.500,719642.900,429150.200,719620.500,180856.500,720138.400,191591.000,0.000
198405.900,221142.600,719227.900,428659.600,719205.500,180682.800,719723.600,191318.000,0.000
198611.900,221274.900,718846.800,428450.700,718824.900,180826.200,719342.600,191480.200,0.000
198828.200,221378.700,718484.700,428228.500,718462.500,180956.500,718980.300,191710.100,0.000
198594.300,221134.800,718128.700,427727.900,718106.300,180756.000,718624.300,191537.600,0.000
198097.300,220732.600,717786.600,427114.600,717764.100,180379.800,718282.300,191064.900,0.000
197888.600,220579.700,717476.600,426723.100,717454.100,180232.800,717971.400,190816.000,0.000
198131.400,220752.500,717199.500,426610.000,717177.100,180413.500,717694.400,191016.100,0.000
198358.700,220873.400,716930.100,426458.300,716907.800,180559.300,717424.900,191262.700,0.000
198150.200,220660.700,716659.400,426041.900,716637.000,180377.800,717154.300,191110.100,0.000
197684.100,220292.900,716404.600,425510.100,716382.200,180026.100,716898.800,190671.400,0.000
197492.300,220157.500,716176.400,425181.000,716154.100,179893.600,716670.800,190450.800,0.000
197743.800,220340.300,715971.000,425119.400,715948.400,180083.300,716465.400,190663.400,0.000
197990.600,220480.100,715770.400,425027.500,715748.300,180247.900,716264.900,190925.200,0.000
197804.700,220290.000,715570.800,424674.000,715548.800,180088.400,716065.300,190794.900,0.000
197357.600,219944.500,715377.000,424198.800,715354.900,179752.600,715871.300,190367.800,0.000
197184.800,219831.300,715203.800,423926.200,715181.400,179636.600,715697.900,190156.500,0.000
197448.000,220032.500,715051.600,423915.800,715028.900,179838.800,715545.400,190383.500,0.000
197707.600,220189.100,714902.300,423870.100,714879.600,180017.000,715396.100,190660.100,0.000
197538.400,220017.500,714750.200,423560.300,714727.400,179870.200,715243.900,190545.100,0.000
197106.500,219683.300,714602.100,423128.300,714579.700,179547.000,715096.100,190131.500,0.000
196952.700,219585.700,714474.600,422902.700,714452.400,179443.200,714968.500,189940.800,0.000
197226.300,219793.900,714367.000,422927.600,714344.700,179650.200,714861.100,190180.100,0.000
197505.200,219972.800,714261.800,422925.300,714239.800,179845.500,714755.600,190476.500,0.000
197346.300,219810.800,714145.900,422654.200,714123.900,179708.800,714639.300,190372.000,0.000
196924.200,219488.900,714035.600,422255.500,714012.800,179398.700,714528.500,189973.500,0.000
196774.000,219400.400,713941.200,422053.300,713918.100,179304.200,714434.400,189787.700,0.000
197064.500,219629.300,713862.600,422116.400,713840.300,179532.100,714356.800,190039.500,0.000
197351.400,219812.700,713783.600,422140.500,713761.100,179729.800,714276.900,190342.400,0.000
197200.400,219656.900,713696.700,421892.900,713674.300,179599.500,714190.100,190245.500,0.000
196774.700,219330.600,713608.900,421514.500,713586.800,179284.300,714102.300,189846.000,0.000
196631.800,219249.300,713535.500,421338.300,713512.900,179194.500,714028.600,189666.700,0.000
196920.800,219476.800,713475.600,421415.500,713452.800,179410.900,713968.900,189907.200,0.000
197211.500,219669.900,713415.700,421464.300,713393.000,179612.300,713908.800,190213.400,0.000
197070.800,219529.900,713346.800,421244.100,713324.300,179492.100,713840.200,190123.100,0.000
196660.300,219218.200,713278.800,420895.100,713256.300,179193.800,713772.300,189734.000,0.000
196519.700,219138.000,713221.500,420738.800,713198.600,179100.000,713714.800,189554.300,0.000
196830.200,219383.400,713182.700,420846.400,713160.300,179336.000,713675.900,189818.800,0.000
197131.300,219577.600,713142.600,420916.300,713119.800,179547.100,713635.700,190136.800,0.000
196989.200,219433.800,713088.600,420706.700,713065.500,179426.800,713581.600,190051.600,0.000
196589.600,219134.200,713035.100,420377.400,713011.900,179136.200,713528.100,189671.800,0.000
196460.100,219066.300,712994.700,420242.600,712971.800,179055.700,713487.800,189503.500,0.000
196767.700,219310.500,712965.300,420360.200,712942.600,179288.600,713458.300,189766.000,0.000
197077.700,219519.100,712934.300,420442.400,712911.900,179503.800,713427.300,190082.600,0.000
196940.300,219380.200,712890.000,420245.000,712867.900,179381.200,713383.100,189992.400,0.000
196532.800,219074.200,712842.300,419919.700,712819.800,179080.000,713335.200,189606.300,0.000
196408.400,219011.300,712811.800,419796.400,712789.000,179006.500,713304.300,189445.700,0.000
196729.600,219271.800,712797.200,419937.100,712774.300,179256.200,713289.700,189723.500,0.000
197035.100,219477.100,712773.100,420028.900,712750.400,179470.900,713265.800,190042.000,0.000
196898.600,219340.400,712736.600,419842.000,712713.700,179351.800,713229.100,189956.000,0.000
196499.500,219039.600,712699.400,419523.900,712676.200,179051.200,713191.800,189573.000,0.000
196377.400,218975.000,712676.400,419407.600,712653.500,178974.300,713168.800,189410.000,0.000
196693.200,219228.800,712666.100,419553.100,712643.500,179221.800,713158.800,189680.000,0.000
196995.200,219428.100,712648.800,419650.800,712626.300,179435.100,713141.900,189995.100,0.000
196854.300,219284.500,712615.900,419467.900,712593.400,179312.000,713108.900,189907.000,0.000
196455.600,218986.100,712584.900,419163.200,712562.400,179018.600,713077.600,189532.300,0.000
196336.200,218929.200,712568.600,419056.900,712545.500,178947.900,713061.000,189377.000,0.000
196648.300,219180.200,712561.500,419200.600,712538.700,179186.600,713053.900,189646.200,0.000
196950.900,219383.400,712548.900,419304.200,712526.300,179402.500,713041.300,189961.200,0.000
196812.800,219244.100,712519.800,419129.100,712497.100,179282.200,713011.800,189876.100,0.000
196413.600,218946.500,712493.400,418829.700,712470.500,178988.700,712985.000,189499.400,0.000
196298.700,218890.500,712480.500,418733.800,712457.700,178925.900,712972.600,189347.500,0.000
196612.900,219140.800,712478.500,418884.400,712456.100,179166.800,712971.300,189619.500,0.000
196921.300,219348.800,712470.600,418997.300,712447.900,179375.300,712963.200,189940.000,0.000
196792.300,219221.500,712449.600,418834.000,712426.600,179262.500,712941.900,189863.100,0.000
196391.900,218921.800,712424.400,418531.000,712401.200,178969.500,712916.800,189484.300,0.000
196271.400,218860.100,712412.400,418431.200,712389.400,178895.100,712905.000,189327.200,0.000
196584.600,219110.400,712413.700,418586.600,712390.000,179136.800,712905.700,189602.500,0.000
196883.900,219312.500,712407.000,418698.100,712383.600,179349.500,712899.000,189917.300,0.000
196747.000,219176.800,712385.800,418529.400,712362.800,179229.300,712878.000,189830.500,0.000
196340.300,218873.300,712361.700,418230.900,712338.300,178933.100,712853.400,189451.300,0.000
196221.900,218818.000,712353.600,418143.400,712330.100,178870.200,712845.600,189301.800,0.000
196532.500,219066.800,712356.600,418306.400,712333.100,179112.900,712848.400,189575.000,0.000
196837.600,219271.300,712353.800,418422.100,712330.600,179325.300,712845.400,189893.100,0.000
196703.900,219142.200,712336.000,418256.500,712312.900,179212.600,712827.800,189813.600,0.000
196304.700,218843.800,712314.000,417960.600,712290.500,178915.600,712805.800,189435.300,0.000
196199.200,218798.600,712310.100,417886.300,712287.200,178859.800,712802.000,189294.500,0.000
196510.300,219045.100,712314.300,418046.800,712291.200,179098.100,712806.300,189562.500,0.000
196818.100,219255.000,712313.800,418171.500,712290.300,179316.200,712805.100,189882.800,0.000
196690.700,219128.100,712298.100,418024.000,712274.900,179206.100,712789.600,189808.300,0.000
196306.300,218845.100,712280.200,417748.800,712256.600,178925.400,712771.900,189442.800,0.000
196187.900,218785.900,712276.000,417660.400,712252.600,178855.400,712768.000,189287.800,0.000
196499.300,219034.700,712280.800,417825.100,712257.300,179094.200,712772.500,189554.400,0.000
196799.800,219234.200,712278.200,417948.200,712254.900,179302.400,712770.200,189869.400,0.000
196665.000,219099.900,712261.200,417794.500,712238.100,179185.500,712753.400,189788.000,0.000
196275.200,218814.600,712245.600,417520.900,712222.600,178906.500,712737.800,189419.200,0.000
196165.500,218765.600,712242.300,417441.100,712219.100,178838.000,712734.100,189265.100,0.000
196480.300,219019.000,712247.300,417610.500,712224.300,179077.100,712739.100,189535.500,0.000
196787.000,219226.100,712247.400,417739.000,712223.900,179294.800,712738.400,189856.700,0.000
196659.200,219099.200,712234.200,417589.000,712211.200,179186.900,712725.800,189783.300,0.000
196267.800,218808.200,712220.600,417306.700,712197.900,178907.800,712712.500,189418.300,0.000
196151.100,218751.300,712220.300,417218.800,712197.000,178841.300,712711.900,189265.500,0.000
196470.700,219008.800,712228.200,417386.300,712204.900,179089.800,712719.800,189541.100,0.000
196774.400,219215.900,712229.500,417510.500,712206.200,179305.900,712720.900,189861.900,0.000
196636.500,219079.700,712214.500,417359.200,712191.300,179186.000,712706.100,189779.100,0.000
196238.400,218781.900,712194.500,417084.500,712171.300,178890.500,712686.100,189394.800,0.000
196130.400,218733.600,712192.600,417018.400,712169.600,178830.300,712684.100,189243.300,0.000
196437.800,218980.200,712197.600,417182.200,712174.700,179063.200,712689.400,189504.500,0.000
196748.100,219196.100,712200.000,417318.200,712177.400,179281.500,712692.000,189826.100,0.000
196619.700,219069.400,712189.400,417181.800,712166.800,179171.500,712681.500,189755.000,0.000
196226.700,218774.300,712175.300,416912.100,712152.400,178883.200,712667.200,189384.600,0.000
196123.400,218730.700,712174.300,416846.900,712150.700,178824.400,712665.600,189236.200,0.000
196447.300,218990.600,712184.900,417026.700,712161.400,179073.600,712676.600,189513.200,0.000
196748.600,219193.100,712187.300,417156.700,712163.600,179294.300,712678.800,189831.200,0.000
196614.400,219061.900,712173.000,417012.100,712149.700,179185.500,712664.300,189752.600,0.000
196214.200,218763.000,712156.300,416734.100,712132.900,178891.300,712647.900,189374.800,0.000
196103.000,218709.500,712154.300,416660.300,712131.200,178816.700,712646.000,189216.400,0.000
196421.700,218960.700,712164.900,416838.700,712141.900,179058.000,712656.500,189493.000,0.000
196726.100,219165.700,712167.800,416974.600,712144.900,179272.200,712659.700,189815.600,0.000
196603.900,219040.300,712158.900,416844.100,712135.800,179166.000,712650.900,189747.400,0.000
196224.100,218756.800,712146.600,416582.800,712123.300,178883.100,712638.800,189382.400,0.000
196106.300,218699.900,712144.700,416508.400,712121.200,178809.700,712636.300,189223.700,0.000
196419.800,218953.700,712154.400,416687.600,712131.000,179057.100,712645.700,189493.700,0.000
196721.100,219153.300,712155.700,416819.900,712132.500,179269.300,712646.900,189804.300,0.000
196584.400,219015.700,712143.900,416677.600,712120.600,179151.200,712635.600,189723.200,0.000
196185.600,218719.100,712127.100,416400.600,712103.900,178857.300,712618.700,189346.400,0.000
196072.400,218670.000,712126.500,416328.100,712103.000,178791.500,712618.000,189195.800,0.000
196386.000,218922.600,712136.000,416509.600,712112.400,179035.200,712627.400,189471.400,0.000
196691.300,219125.700,712138.100,416649.200,712115.000,179248.100,712630.000,189790.600,0.000
196571.600,219005.800,712130.400,416522.900,712107.200,179141.900,712622.300,189725.000,0.000
196178.000,218710.800,712117.300,416254.800,712093.600,178847.000,712608.500,189353.300,0.000
196063.600,218657.700,712116.900,416187.500,712093.600,178778.200,712608.300,189202.100,0.000
196372.900,218909.000,712124.600,416366.000,712100.900,179016.600,712615.900,189471.100,0.000
196683.600,219123.000,712129.500,416509.600,712105.700,179242.300,712620.900,189793.700,0.000
196554.100,218993.300,712119.100,416377.800,712095.700,179138.800,712611.000,189716.500,0.000
196164.600,218706.300,712106.900,416113.200,712083.600,178852.300,712598.600,189346.400,0.000
196054.000,218654.000,712107.500,416048.700,712084.100,178784.000,712598.900,189193.300,0.000
196371.400,218908.900,712120.000,416237.000,712096.600,179026.600,712611.600,189465.500,0.000
196672.900,219112.100,712122.800,416378.000,712099.200,179238.600,712614.400,189780.100,0.000
196549.900,218990.800,712112.800,416250.900,712089.100,179133.100,712604.400,189708.600,0.000
196151.900,218691.200,712096.800,415980.100,712073.300,178834.300,712588.400,189326.700,0.000
196041.500,218643.300,712096.600,415917.300,712073.100,178771.900,712588.300,189178.400,0.000
196364.900,218906.100,712109.600,416108.200,712086.600,179021.800,712601.400,189458.400,0.000
196675.800,219117.800,712115.700,416257.700,712092.400,179240.800,712608.000,189778.900,0.000
196541.100,218983.300,712102.800,416122.400,712079.400,179121.200,712595.000,189695.800,0.000
196149.600,218692.000,712091.100,415863.100,712067.300,178833.100,712582.900,189328.000,0.000
196045.800,218648.000,712093.700,415809.200,712070.400,178776.300,712585.800,189184.900,0.000
196369.500,218908.200,712102.300,415998.800,712079.100,179023.500,712594.200,189459.700,0.000
196679.600,219118.600,712106.900,416145.000,712083.900,179243.100,712598.900,189780.200,0.000
196547.200,218989.300,712098.600,416013.700,712075.300,179132.700,712590.800,189702.200,0.000
196155.000,218698.500,712085.500,415754.600,712062.600,178848.900,712577.500,189331.300,0.000
196044.100,218647.100,712085.100,415698.600,712062.100,178785.900,712576.700,189181.800,0.000
196373.600,218914.500,712101.600,415902.800,712078.100,179044.600,712592.900,189469.800,0.000
196685.200,219125.800,712107.800,416050.600,712084.600,179264.600,712599.700,189794.800,0.000
196553.000,218993.100,712097.900,415916.200,712075.100,179147.400,712589.600,189716.100,0.000
196145.600,218687.300,712080.200,415648.100,712057.400,178840.000,712572.100,189329.500,0.000
196023.600,218627.500,712076.400,415582.200,712053.000,178766.800,712568.400,189170.300,0.000
196339.400,218879.700,712084.600,415769.800,712061.000,179010.100,712576.100,189438.500,0.000
196653.700,219093.300,712091.000,415921.600,712068.100,179236.100,712582.900,189766.100,0.000
196532.300,218969.400,712084.100,415803.800,712061.000,179134.000,712576.000,189696.500,0.000
196143.400,218677.500,712072.900,415543.800,712050.300,178844.900,712565.400,189325.500,0.000
196020.500,218618.700,712070.000,415470.000,712047.100,178769.800,712562.100,189166.800,0.000
196339.300,218873.500,712078.600,415653.900,712055.400,179012.700,712570.800,189438.900,0.000
196646.200,219081.200,712081.900,415794.600,712058.600,179227.900,712574.000,189759.900,0.000
196515.500,218951.800,712073.700,415661.000,712050.700,179113.200,712565.700,189687.900,0.000
196116.600,218655.700,712060.300,415398.900,712037.800,178823.000,712552.400,189312.600,0.000
196005.400,218604.900,712060.100,415338.700,712037.000,178758.800,712552.000,189161.000,0.000
196323.800,218861.100,712071.700,415528.200,712048.300,179007.300,712563.600,189436.600,0.000
196640.700,219076.500,712080.000,415682.200,712056.400,179228.200,712572.100,189765.000,0.000
196516.400,218948.500,712073.700,415555.400,712050.400,179117.300,712565.700,189689.200,0.000
196120.300,218652.500,712060.400,415291.900,712037.300,178827.200,712552.000,189315.100,0.000
195994.500,218589.700,712058.100,415224.700,712034.800,178751.600,712549.700,189156.500,0.000
196314.200,218853.400,712066.500,415417.900,712043.600,178999.700,712558.400,189435.400,0.000
196630.100,219073.100,712073.900,415567.300,712051.100,179228.000,712565.900,189764.200,0.000
196504.400,218945.500,712066.900,415440.000,712044.200,179123.600,712558.700,189692.100,0.000
196115.600,218655.900,712056.900,415184.900,712034.300,178842.000,712549.000,189326.300,0.000
195998.100,218596.400,712054.800,415119.100,712032.200,178768.800,712546.800,189167.900,0.000
196308.900,218843.200,712061.100,415305.100,712038.000,179003.100,712552.600,189432.500,0.000
196626.700,219060.900,712070.800,415460.800,712047.400,179229.400,712562.500,189763.700,0.000
196500.200,218932.800,712064.100,415334.500,712040.500,179120.500,712555.900,189688.600,0.000
196099.900,218631.000,712048.900,415073.200,712025.500,178821.400,712540.600,189311.100,0.000
195990.000,218580.800,712049.100,415014.500,712025.600,178754.400,712540.500,189156.800,0.000
196306.100,218833.100,712056.700,415203.200,712033.300,178993.100,712548.400,189419.800,0.000
196613.200,219040.900,712059.800,415353.800,712036.300,179206.500,712551.600,189738.200,0.000
196495.900,218923.600,712055.000,415238.100,712031.800,179106.000,712546.800,189671.600,0.000
196105.100,218631.300,712043.400,414982.000,712019.700,178820.000,712534.800,189301.200,0.000
195994.300,218581.100,712045.400,414923.300,712021.600,178757.500,712537.100,189153.500,0.000
196314.800,218839.400,712056.900,415113.300,712033.100,179003.600,712548.100,189429.000,0.000
196625.300,219048.500,712063.900,415263.300,712040.100,179221.400,712555.100,189751.900,0.000
196494.000,218919.500,712054.100,415138.300,712030.300,179108.000,712545.400,189674.000,0.000
196110.500,218638.800,712042.600,414891.500,712019.100,178829.900,712533.900,189311.200,0.000
195998.300,218586.100,712043.800,414834.800,712020.500,178767.900,712535.200,189163.800,0.000
196314.800,218837.800,712052.900,415025.700,712029.800,179007.200,712544.400,189435.400,0.000
196623.900,219049.600,712058.100,415181.700,712035.000,179222.800,712549.300,189751.900,0.000
196500.400,218926.700,712050.900,415062.700,712027.800,179117.400,712542.300,189679.200,0.000
196117.300,218643.700,712041.500,414813.300,712018.000,178838.200,712532.800,189312.200,0.000
195997.500,218585.300,712040.400,414750.500,712016.600,178766.000,712531.400,189152.600,0.000
196306.700,218834.800,712047.600,414942.200,712024.100,179002.900,712538.900,189416.000,0.000
196622.800,219050.100,712054.800,415104.400,712031.300,179228.300,712546.000,189743.000,0.000
196499.000,218924.500,712048.000,414988.100,712024.500,179122.100,712539.300,189670.300,0.000
196114.900,218647.500,712039.400,414742.300,712016.000,178845.300,712530.900,189309.100,0.000
196008.500,218603.500,712041.900,414692.000,712018.500,178785.400,712533.300,189163.700,0.000
196325.100,218861.000,712052.300,414883.200,712029.200,179030.600,712544.100,189429.400,0.000
196633.800,219071.800,712056.900,415033.800,712033.900,179247.400,712548.400,189748.200,0.000
196512.200,218944.800,712047.800,414911.700,712024.300,179134.100,712539.100,189673.400,0.000
196121.000,218646.900,712034.800,414659.100,712011.600,178840.200,712526.400,189298.500,0.000
196016.000,218598.500,712035.300,414610.300,712012.000,178776.200,712527.000,189146.200,0.000
196339.000,218856.600,712045.600,414808.700,712022.200,179020.600,712537.300,189421.100,0.000
196650.700,219068.400,712052.100,414971.200,712028.700,179241.800,712543.600,189748.500,0.000
196525.800,218944.800,712041.500,414853.300,712018.100,179132.600,712533.100,189676.100,0.000
196135.900,218652.900,712028.900,414600.400,712005.300,178844.000,712520.200,189306.900,0.000
196031.200,218606.900,712031.500,414550.100,712007.800,178782.800,712523.400,189162.900,0.000
196350.800,218863.500,712045.800,414743.000,712021.800,179027.700,712537.400,189439.500,0.000
196655.600,219072.700,712051.000,414892.500,712026.800,179241.700,712542.600,189758.500,0.000
196525.100,218944.100,712040.700,414767.800,712016.900,179132.500,712532.700,189683.000,0.000
196140.500,218659.900,712028.900,414521.400,712005.400,178853.800,712521.100,189319.800,0.000
196033.900,218614.400,712032.100,414472.800,712008.800,178796.600,712524.100,189172.700,0.000
196355.300,218871.800,712045.200,414667.600,712021.600,179041.700,712537.000,189446.300,0.000
196668.600,219082.300,712051.400,414824.200,712027.800,179257.900,712543.000,189770.300,0.000
196547.500,218960.200,712043.400,414708.100,712019.900,179145.200,712534.900,189696.800,0.000
196158.400,218668.900,712029.900,414457.300,712006.600,178853.800,712521.600,189324.600,0.000
196043.400,218612.900,712030.300,414399.900,712006.900,178788.000,712522.100,189173.400,0.000
196363.600,218874.400,712043.800,414600.200,712020.300,179038.000,712535.400,189451.100,0.000
196678.700,219089.700,712053.200,414758.100,712030.300,179260.400,712544.900,189778.800,0.000
196545.000,218955.700,712044.600,414628.900,712021.300,179145.300,712536.300,189698.200,0.000
196156.500,218669.500,712035.100,414376.200,712011.200,178864.000,712526.600,189331.600,0.000
196035.500,218611.600,712035.100,414316.300,712011.600,178798.600,712526.600,189177.000,0.000
196346.700,218861.000,712041.500,414506.100,712018.100,179035.200,712532.900,189441.100,0.000
196660.000,219075.400,712046.400,414661.300,712022.800,179251.300,712537.500,189763.200,0.000
196532.500,218949.500,712038.200,414538.900,712014.800,179140.700,712529.800,189687.000,0.000
196139.700,218657.600,712028.200,414286.800,712004.700,178851.400,712519.900,189313.900,0.000
196022.800,218602.500,712025.800,414227.600,712002.200,178779.600,712517.300,189158.400,0.000
196342.000,218854.700,712036.300,414421.100,712012.400,179018.300,712527.900,189431.400,0.000
196665.200,219074.600,712047.200,414588.100,712023.700,179248.600,712538.800,189766.200,0.000
196532.400,218940.400,712037.500,414463.400,712014.100,179136.100,712529.200,189685.600,0.000
196142.500,218650.800,712025.400,414206.500,712002.100,178845.800,712517.400,189311.700,0.000
196033.100,218600.600,712029.900,414148.400,712005.600,178782.400,712521.300,189164.300,0.000
196350.100,218854.300,712039.800,414342.700,712015.700,179030.000,712531.000,189441.200,0.000
196652.200,219057.500,712043.800,414495.100,712019.900,179241.200,712535.300,189759.500,0.000
196521.600,218926.100,712032.800,414370.700,712009.800,179125.500,712524.600,189680.400,0.000
196117.700,218621.100,712018.200,414108.600,711995.300,178826.600,712510.300,189297.200,0.000
196003.300,218569.500,712016.300,414049.500,711993.100,178755.000,712508.200,189137.600,0.000
196318.500,218825.900,712026.800,414242.800,712002.700,178996.400,712518.200,189407.500,0.000
196638.700,219046.300,712035.700,414406.600,712011.400,179225.100,712526.900,189738.100,0.000
196522.200,218931.100,712031.300,414294.500,712007.700,179128.100,712522.800,189673.300,0.000
196148.900,218661.800,712027.300,414062.400,712004.100,178862.800,712518.900,189322.500,0.000
196028.900,218605.300,712029.100,414006.600,712006.000,178793.900,712520.900,189168.100,0.000
196344.000,218860.100,712038.800,414200.300,712015.200,179035.400,712531.000,189440.300,0.000
196657.200,219074.900,712046.300,414359.600,712022.900,179255.500,712538.100,189767.500,0.000
196539.800,218956.900,712038.200,414251.900,712015.100,179154.400,712530.200,189702.000,0.000
196153.900,218670.200,712027.900,414007.200,712004.600,178874.000,712519.400,189334.400,0.000
196036.000,218610.900,712027.200,413947.500,712003.600,178804.000,712518.300,189175.900,0.000
196359.300,218871.800,712043.100,414152.600,712019.500,179054.800,712533.900,189461.000,0.000
196660.600,219071.900,712049.000,414301.100,712025.400,179262.300,712540.200,189776.300,0.000
196529.800,218940.800,712037.300,414171.800,712013.600,179144.900,712528.500,189691.900,0.000
196142.600,218650.800,712025.100,413925.400,712001.100,178860.500,712516.300,189322.300,0.000
196028.900,218597.500,712025.700,413871.700,712001.800,178800.800,712516.900,189170.600,0.000
196343.200,218847.100,712038.000,414068.900,712014.700,179041.300,712529.400,189447.600,0.000
196649.100,219052.300,712041.600,414222.900,712018.300,179252.400,712533.100,189766.700,0.000
196526.100,218931.400,712032.800,414106.100,712008.900,179142.800,712523.900,189688.900,0.000
196137.400,218646.500,712023.100,413860.700,711999.200,178863.900,712514.400,189320.300,0.000
196024.300,218593.600,712021.000,413806.700,711997.500,178796.300,712512.500,189164.300,0.000
196343.200,218852.800,712029.300,414004.900,712006.000,179040.300,712520.700,189435.900,0.000
196652.400,219061.600,712036.300,414157.700,712012.700,179257.100,712527.700,189756.800,0.000
196525.400,218932.800,712029.100,414038.000,712005.800,179146.200,712520.800,189680.900,0.000
196127.000,218634.300,712015.100,413781.600,711991.700,178852.700,712506.400,189302.700,0.000
196001.200,218572.800,712012.400,413719.500,711988.800,178778.100,712503.800,189140.400,0.000
196318.800,218829.900,712022.400,413918.600,711998.300,179020.100,712513.600,189414.300,0.000
196626.600,219035.700,712028.600,414074.000,712004.400,179235.900,712519.600,189736.300,0.000
196494.500,218904.800,712018.900,413948.800,711995.000,179121.500,712510.000,189659.400,0.000
196110.300,218620.000,712011.900,413706.000,711987.800,178843.800,712502.900,189300.700,0.000
196021.400,218591.300,712020.500,413675.700,711996.400,178804.700,712511.900,189173.500,0.000
196342.700,218849.000,712031.500,413872.400,712007.500,179050.700,712522.900,189444.500,0.000
196642.000,219048.500,712033.200,414020.800,712009.100,179254.800,712524.800,189752.400,0.000
196497.100,218907.300,712021.100,413895.000,711996.700,179134.600,712512.300,189668.400,0.000
196108.100,218617.800,712010.800,413650.200,711986.800,178849.500,712501.800,189300.700,0.000
195994.600,218563.300,712011.400,413600.400,711987.500,178785.400,712502.600,189148.600,0.000
196313.100,218819.200,712023.900,413794.100,712000.000,179031.800,712514.900,189426.000,0.000
196612.300,219019.700,712029.500,413940.100,712005.600,179236.500,712520.600,189739.500,0.000
196479.500,218889.400,712020.100,413815.200,711996.000,179121.800,712511.000,189661.300,0.000
196080.100,218594.300,712007.400,413561.300,711983.500,178830.700,712498.400,189289.300,0.000
195970.300,218543.600,712010.900,413505.600,711986.600,178765.300,712501.900,189139.900,0.000
196285.800,218794.900,712022.800,413700.400,711999.100,179007.300,712513.900,189415.300,0.000
196569.400,218982.000,712020.600,413837.100,711996.900,179204.100,712511.800,189714.700,0.000
196448.000,218863.500,712011.200,413722.600,711987.300,179099.300,712502.400,189643.300,0.000
196050.100,218566.300,711999.800,413469.000,711975.900,178807.600,712490.900,189271.200,0.000
195933.100,218507.800,712001.100,413419.300,711977.300,178738.200,712491.800,189121.300,0.000
196263.800,218773.200,712016.100,413624.800,711992.100,178989.500,712506.900,189404.100,0.000
196565.600,218975.400,712021.100,413773.800,711997.300,179197.200,712511.900,189719.900,0.000
196431.000,218839.800,712011.600,413649.800,711987.900,179084.100,712502.500,189643.200,0.000
196040.500,218551.700,712000.900,413402.700,711977.300,178802.700,712491.900,189276.300,0.000
195920.900,218493.800,711998.100,413339.300,711974.400,178723.500,712488.900,189111.200,0.000
196246.900,218758.000,712010.100,413543.200,711986.500,178975.000,712501.100,189390.800,0.000
196560.000,218970.500,712019.300,413705.900,711995.600,179198.100,712510.300,189717.800,0.000
196427.100,218837.300,712009.600,413583.800,711985.900,179085.500,712500.600,189639.200,0.000
196041.000,218548.600,711999.300,413336.900,711975.400,178800.900,712489.900,189269.100,0.000
195922.300,218488.800,711999.300,413283.000,711975.400,178730.700,712489.900,189114.000,0.000
196231.000,218735.700,712007.300,413472.000,711983.600,178965.600,712498.000,189377.500,0.000
196538.400,218945.500,712013.700,413627.300,711989.800,179180.600,712503.900,189696.800,0.000
196417.400,218824.800,712006.200,413511.800,711982.100,179071.800,712496.800,189624.300,0.000
196023.100,218530.900,711993.800,413259.500,711969.600,178781.700,712484.800,189251.500,0.000
195915.900,218487.200,711996.800,413213.100,711972.500,178723.900,712487.600,189106.600,0.000
196239.900,218750.200,712010.500,413417.100,711986.400,178976.200,712501.300,189387.100,0.000
196557.000,218966.400,712019.800,413583.400,711995.600,179206.100,712510.500,189719.100,0.000
196423.700,218833.800,712012.300,413459.200,711988.300,179088.600,712503.600,189640.500,0.000
196036.100,218545.700,711999.500,413207.400,711975.400,178795.600,712490.300,189265.900,0.000
195922.200,218491.600,711998.700,413155.800,711974.700,178725.900,712489.000,189110.000,0.000
196235.300,218743.000,712008.100,413352.400,711984.800,178968.500,712499.400,189380.900,0.000
196547.800,218955.800,712014.300,413517.100,711990.800,179190.500,712505.300,189709.400,0.000
196425.900,218836.900,712009.400,413405.500,711985.700,179090.300,712500.300,189639.900,0.000
196039.600,218553.100,711999.000,413161.600,711975.900,178811.300,712490.400,189274.400,0.000
195923.300,218498.500,711998.700,413106.700,711975.400,178742.500,712489.500,189120.800,0.000
196237.800,218751.100,712009.400,413299.700,711985.900,178981.600,712500.400,189390.000,0.000
196537.800,218953.400,712014.900,413447.700,711990.900,179190.500,712505.900,189703.100,0.000
196400.600,218812.300,712005.400,413323.000,711981.100,179072.000,712496.300,189622.600,0.000
196013.100,218521.700,711994.800,413081.700,711971.100,178786.700,712485.400,189252.500,0.000
195912.400,218483.700,711998.500,413039.300,711975.100,178729.200,712489.400,189107.300,0.000
196239.100,218752.300,712011.200,413245.400,711987.600,178987.500,712502.700,189392.700,0.000
196546.800,218960.000,712017.200,413399.900,711993.700,179206.100,712508.200,189713.500,0.000
196419.500,218829.000,712011.800,413280.000,711988.100,179095.100,712502.700,189637.300,0.000
196021.000,218528.500,711999.300,413027.400,711975.300,178798.200,712490.100,189261.200,0.000
195907.800,218474.100,712000.600,412980.800,711976.800,178732.400,712491.700,189110.500,0.000
196231.000,218734.800,712009.400,413180.600,711985.700,178980.200,712501.300,189385.800,0.000
196543.500,218947.300,712015.100,413339.800,711991.500,179197.700,712506.900,189705.700,0.000
196415.000,218819.800,712005.400,413224.100,711981.400,179083.300,712496.300,189626.200,0.000
196024.300,218528.000,711993.900,412980.300,711970.100,178794.700,712485.300,189254.100,0.000
195914.300,218479.300,711992.800,412934.600,711968.900,178731.600,712483.700,189103.200,0.000
196241.700,218747.000,712005.300,413139.200,711981.100,178986.600,712496.300,189381.700,0.000
196541.400,218944.600,712006.000,413288.500,711982.100,179193.000,712497.800,189691.300,0.000
196407.800,218812.400,711994.100,413164.500,711970.300,179076.300,712485.700,189609.200,0.000
196028.300,218534.200,711988.500,412927.300,711964.400,178804.000,712480.100,189254.300,0.000
195923.200,218488.500,711991.300,412883.900,711967.600,178746.400,712482.800,189110.600,0.000
196242.300,218742.500,712004.800,413083.300,711980.900,178990.500,712495.900,189386.700,0.000
196550.400,218950.000,712011.900,413239.300,711987.700,179211.100,712502.900,189709.100,0.000
196424.600,218826.600,712004.900,413127.800,711980.600,179107.800,712496.100,189638.600,0.000
196041.600,218547.300,711995.600,412886.700,711971.100,178826.500,712486.400,189274.700,0.000
195930.200,218494.900,711996.200,412836.200,711971.800,178760.400,712486.800,189123.100,0.000
196241.100,218743.200,712005.200,413029.400,711981.600,178999.800,712496.700,189389.700,0.000
196547.100,218955.100,712009.400,413186.200,711985.600,179218.600,712500.600,189709.700,0.000
196424.300,218836.500,712002.900,413074.800,711978.600,179117.400,712493.700,189640.700,0.000
196032.600,218541.600,711992.300,412829.700,711967.800,178831.800,712483.000,189269.200,0.000
195922.500,218488.800,711993.600,412780.800,711969.200,178766.800,712484.100,189121.000,0.000
196245.000,218748.200,712004.800,412981.000,711980.800,179015.300,712495.900,189397.200,0.000
196555.300,218956.700,712011.400,413142.400,711987.500,179233.100,712502.200,189718.200,0.000
196430.100,218830.600,712004.100,413030.400,711979.900,179123.000,712494.900,189643.500,0.000
196037.000,218536.400,711991.400,412780.900,711967.300,178833.300,712482.100,189271.400,0.000
195925.600,218482.500,711991.200,412729.800,711967.400,178768.500,712482.300,189123.300,0.000
196233.900,218730.100,712000.900,412919.300,711976.900,179004.600,712491.500,189389.600,0.000
196548.200,218947.800,712010.000,413082.900,711986.100,179227.700,712500.900,189715.000,0.000
196427.000,218828.600,712005.800,412971.500,711981.900,179121.700,712496.800,189645.900,0.000
196032.000,218534.200,711991.300,412716.800,711967.200,178826.800,712482.100,189271.500,0.000
195917.500,218479.100,711992.100,412666.400,711968.300,178757.200,712483.300,189119.800,0.000
196233.500,218735.600,712000.600,412867.000,711976.300,179001.000,712491.400,189388.000,0.000
196543.800,218947.500,712007.300,413024.400,711983.000,179216.400,712497.900,189709.100,0.000
196422.600,218825.300,712002.500,412911.400,711978.800,179112.000,712493.600,189646.300,0.000
196028.200,218528.200,711989.100,412658.500,711965.300,178815.000,712480.300,189270.300,0.000
195922.300,218478.300,711991.300,412612.400,711967.300,178751.900,712482.300,189120.700,0.000
196242.000,218736.100,712003.400,412810.600,711979.600,178999.100,712494.300,189397.200,0.000
196540.100,218939.300,712005.400,412960.000,711981.700,179209.500,712496.900,189713.100,0.000
196406.700,218810.300,711996.100,412842.800,711972.000,179093.900,712487.200,189633.400,0.000
196027.000,218526.700,711988.800,412602.800,711964.500,178816.000,712479.400,189271.500,0.000
195917.000,218474.700,711991.700,412552.600,711967.400,178753.500,712482.800,189123.200,0.000
196238.800,218734.700,712003.100,412756.000,711978.900,179000.900,712494.000,189402.400,0.000
196542.400,218937.000,712007.300,412909.800,711983.400,179212.300,712498.400,189719.500,0.000
196411.800,218806.600,712000.300,412789.000,711976.100,179099.400,712491.500,189642.600,0.000
196022.500,218516.800,711989.800,412542.400,711965.600,178815.800,712480.600,189273.800,0.000
195913.600,218465.800,711993.200,412496.400,711969.400,178753.300,712483.900,189124.700,0.000
196234.100,218724.400,712006.900,412700.700,711983.600,179003.100,712498.000,189404.000,0.000
196531.900,218927.700,712008.900,412852.500,711985.600,179214.600,712500.600,189716.100,0.000
196402.800,218799.500,712000.600,412731.600,711977.100,179104.900,712492.000,189635.800,0.000
196012.200,218512.200,711988.400,412484.500,711964.900,178816.700,712479.600,189263.500,0.000
195900.700,218464.000,711989.100,412438.100,711965.300,178752.700,712480.100,189115.100,0.000
196224.100,218724.800,712002.300,412645.000,711978.300,179006.500,712493.000,189395.800,0.000
196522.800,218926.400,712004.700,412793.500,711980.600,179212.200,712496.100,189706.300,0.000
196394.500,218801.100,711996.800,412678.400,711972.800,179104.900,712488.200,189630.700,0.000
196010.600,218514.200,711989.800,412436.500,711965.400,178822.700,712480.700,189269.500,0.000
195901.300,218463.000,711992.100,412386.400,711968.000,178757.300,712482.800,189121.400,0.000
196222.500,218721.500,712005.600,412586.800,711981.400,179006.300,712496.500,189397.200,0.000
196524.500,218927.700,712011.600,412738.800,711987.500,179216.900,712502.500,189713.700,0.000
196381.100,218786.000,711997.100,412609.800,711972.900,179088.500,712488.100,189620.500,0.000
195987.100,218489.600,711984.900,412365.700,711960.700,178800.500,712476.100,189248.000,0.000
195882.000,218446.200,711989.900,412319.800,711965.300,178743.200,712480.500,189107.200,0.000
196190.400,218692.300,711997.900,412507.600,711973.800,178976.100,712488.700,189370.400,0.000
196494.300,218896.300,712002.300,412662.100,711978.200,179188.200,712493.100,189687.300,0.000
196361.500,218764.000,711992.700,412541.400,711968.400,179072.000,712483.500,189607.200,0.000
195983.100,218488.700,711986.100,412308.000,711962.200,178795.800,712477.200,189247.300,0.000
195875.100,218437.200,711989.900,412261.500,711966.100,178731.400,712481.000,189102.600,0.000
196191.900,218690.800,712000.200,412457.900,711976.300,178972.300,712491.300,189376.500,0.000
196502.200,218901.300,712007.100,412618.900,711983.400,179192.600,712497.800,189699.700,0.000
196376.900,218776.900,712002.900,412507.000,711979.100,179090.000,712493.600,189633.900,0.000
195993.800,218492.700,711992.300,412264.800,711968.300,178810.700,712482.800,189272.900,0.000
195876.400,218433.100,711990.300,412206.700,711966.300,178732.600,712480.800,189109.900,0.000
196195.200,218689.100,712002.300,412403.000,711978.400,178974.700,712493.200,189381.200,0.000
196484.600,218883.200,712002.600,412546.000,711978.400,179175.900,712493.200,189684.300,0.000
196345.600,218748.000,711990.400,412428.300,711966.300,179062.600,712481.400,189601.500,0.000
195968.800,218471.700,711983.500,412188.000,711959.700,178787.000,712474.400,189245.100,0.000
195871.800,218432.800,711990.400,412147.300,711966.100,178731.600,712480.800,189108.800,0.000
196194.900,218696.200,712001.800,412354.700,711977.800,178983.200,712492.600,189388.900,0.000
196491.700,218896.700,712004.900,412506.000,711981.100,179198.300,712496.100,189706.300,0.000
196357.100,218758.900,711996.000,412380.900,711971.900,179078.200,712486.600,189623.200,0.000
195969.100,218467.100,711986.300,412128.500,711962.400,178783.400,712476.800,189248.800,0.000
195852.000,218408.200,711983.800,412072.800,711959.900,178710.500,712474.900,189089.900,0.000
196174.400,218668.300,711994.400,412276.700,711970.400,178962.800,712485.700,189370.300,0.000
196476.700,218869.700,712001.600,412436.300,711977.600,179183.000,712492.100,189691.800,0.000
196342.900,218738.600,711991.300,412317.200,711967.100,179068.700,712481.800,189611.600,0.000
195956.000,218455.000,711979.200,412073.100,711955.500,178785.600,712470.100,189240.200,0.000
195843.000,218399.300,711979.300,412021.800,711955.400,178719.900,712470.200,189088.000,0.000
196165.700,218657.900,711991.900,412223.000,711967.600,178965.400,712482.800,189365.500,0.000
196481.800,218876.200,712001.700,412391.400,711977.900,179188.500,712492.600,189694.300,0.000
196345.800,218739.000,711992.400,412268.700,711968.200,179067.300,712483.300,189609.100,0.000
195950.400,218444.000,711980.100,412019.700,711955.700,178772.700,712470.600,189230.600,0.000
195849.000,218402.100,711980.100,411981.300,711955.900,178712.000,712471.000,189081.800,0.000
196172.700,218663.100,711991.800,412188.800,711967.400,178963.400,712482.800,189360.500,0.000
196468.500,218862.500,711996.900,412336.800,711972.600,179173.900,712488.000,189673.300,0.000
196344.800,218742.100,711990.200,412218.500,711966.300,179066.100,712481.400,189598.900,0.000
195957.700,218455.000,711981.300,411974.000,711957.800,178782.400,712472.500,189233.300,0.000
195846.300,218403.700,711982.600,411925.100,711959.000,178715.100,712473.700,189084.300,0.000
196166.800,218660.300,711994.600,412125.000,711970.700,178962.200,712485.400,189358.500,0.000
196472.600,218866.000,711999.300,412281.200,711975.300,179177.500,712490.100,189675.800,0.000
196339.400,218735.300,711991.300,412166.000,711967.600,179063.900,712482.400,189595.700,0.000
195950.500,218444.800,711978.800,411924.400,711955.300,178775.600,712470.000,189222.800,0.000
195840.100,218394.700,711976.100,411876.000,711952.300,178706.900,712467.300,189066.400,0.000
196166.300,218658.500,711990.000,412083.800,711965.900,178956.800,712481.000,189346.400,0.000
196473.500,218866.600,711996.600,412241.900,711972.600,179172.300,712487.800,189663.000,0.000
196337.500,218734.500,711987.600,412123.000,711963.400,179060.600,712478.400,189579.500,0.000
195949.300,218445.700,711977.900,411882.800,711954.300,178775.800,712469.100,189214.000,0.000
195838.200,218393.900,711978.400,411835.700,711954.900,178709.000,712469.800,189065.200,0.000
196152.800,218644.200,711988.400,412031.900,711964.600,178948.800,712479.300,189331.600,0.000
196450.400,218845.000,711991.300,412185.700,711967.400,179156.900,712482.100,189642.000,0.000
196323.700,218720.700,711983.800,412074.600,711959.900,179048.300,712474.800,189569.500,0.000
195943.000,218438.200,711977.100,411838.200,711953.200,178773.100,712467.700,189208.600,0.000
195838.500,218394.500,711979.600,411796.800,711955.300,178714.100,712470.400,189059.000,0.000
196165.500,218663.900,711994.200,412004.100,711970.000,178974.800,712484.900,189347.700,0.000
196469.900,218875.800,712000.900,412163.300,711977.100,179193.900,712491.600,189669.500,0.000
196340.300,218746.100,711992.300,412046.700,711968.600,179079.400,712482.900,189591.700,0.000
195956.000,218458.500,711982.400,411803.200,711958.800,178795.000,712472.900,189222.400,0.000
195850.100,218404.900,711985.000,411757.100,711961.300,178727.200,712475.400,189071.100,0.000
196163.000,218649.500,711994.300,411953.300,711970.400,178960.200,712484.600,189334.800,0.000
196465.900,218850.500,711996.700,412111.500,711972.800,179166.300,712487.000,189644.700,0.000
196328.600,218715.500,711983.200,411991.600,711959.100,179044.500,712473.600,189553.400,0.000
195952.500,218441.000,711972.800,411757.100,711949.300,178770.100,712463.600,189194.600,0.000
195853.000,218400.500,711979.100,411722.000,711955.600,178718.200,712470.400,189056.800,0.000
196172.200,218660.500,711993.100,411926.700,711969.400,178967.400,712484.300,189335.000,0.000
196478.800,218870.700,712001.600,412085.500,711977.800,179188.000,712492.600,189656.600,0.000
196347.200,218738.500,711992.100,411964.900,711968.100,179073.600,712482.800,189574.600,0.000
195967.800,218457.400,711982.900,411725.500,711958.400,178794.000,712473.100,189209.600,0.000
195853.700,218401.900,711982.100,411673.900,711957.900,178723.100,712472.500,189056.300,0.000
196168.000,218651.900,711990.600,411872.500,711966.700,178961.800,712481.000,189326.700,0.000
196482.200,218864.500,711997.900,412037.100,711973.800,179186.700,712488.400,189655.400,0.000
196361.300,218743.800,711995.400,411927.500,711971.500,179084.300,712486.100,189590.000,0.000
195961.600,218446.400,711984.200,411676.500,711960.400,178792.200,712474.900,189214.000,0.000
195848.000,218393.000,711984.600,411630.300,711960.400,178722.400,712475.200,189063.100,0.000
196161.000,218644.200,711992.100,411826.100,711967.900,178961.800,712482.400,189332.300,0.000
196461.800,218847.400,711994.100,411978.300,711970.100,179172.000,712484.400,189644.900,0.000
196337.200,218724.800,711989.800,411869.200,711965.800,179069.100,712480.100,189572.200,0.000
195947.700,218435.500,711979.400,411630.500,711955.300,178786.100,712469.700,189206.100,0.000
195834.000,218380.000,711978.900,411580.500,711954.900,178716.300,712469.400,189054.300,0.000
196157.700,218643.600,711991.400,411780.300,711967.100,178968.700,712482.100,189336.500,0.000
196456.500,218845.000,711994.800,411932.100,711970.300,179176.600,712485.400,189650.600,0.000
196325.300,218714.000,711986.400,411812.800,711961.700,179062.600,712476.600,189567.300,0.000
195940.500,218426.300,711977.100,411570.700,711952.600,178777.800,712467.800,189198.000,0.000
195835.800,218375.800,711978.800,411530.600,711954.400,178717.300,712469.800,189053.200,0.000
196158.400,218634.000,711989.200,411742.200,711965.400,178968.900,712480.300,189334.600,0.000
196461.900,218837.800,711993.700,411900.500,711969.800,179179.500,712484.700,189651.400,0.000
196335.900,218716.600,711987.100,411788.500,711963.200,179070.000,712477.800,189577.800,0.000
195951.000,218432.300,711977.800,411551.600,711954.100,178786.500,712468.500,189213.000,0.000
195843.900,218382.700,711980.100,411508.000,711955.900,178722.900,712470.800,189061.600,0.000
196173.200,218649.100,711991.900,411720.200,711967.800,178975.900,712482.600,189342.000,0.000
196474.900,218851.100,711996.100,411875.300,711972.100,179191.200,712486.600,189654.400,0.000
196338.500,218717.200,711990.100,411755.900,711966.100,179076.900,712480.600,189574.100,0.000
195948.800,218432.300,711979.800,411503.500,711956.000,178793.800,712470.600,189209.000,0.000
195848.300,218390.600,711985.300,411455.800,711961.000,178741.700,712475.800,189072.800,0.000
196170.900,218646.400,711996.900,411659.200,711972.900,178988.800,712487.400,189351.000,0.000
196474.400,218845.900,712000.900,411821.600,711977.100,179194.000,712492.100,189665.600,0.000
196344.200,218714.600,711990.900,411710.100,711967.100,179072.500,712481.800,189579.700,0.000
195954.900,218424.200,711981.100,411464.900,711957.100,178788.800,712472.000,189209.400,0.000
195839.900,218364.300,711979.800,411416.300,711955.700,178718.000,712470.300,189054.500,0.000
196154.200,218617.100,711989.600,411609.400,711965.100,178960.400,712480.100,189327.800,0.000
196458.400,218829.600,711995.400,411767.300,711971.100,179172.800,712486.000,189643.300,0.000
196329.000,218704.200,711986.800,411651.300,711962.400,179057.200,712477.300,189562.300,0.000
195946.600,218422.200,711977.900,411410.700,711953.200,178781.700,712468.400,189198.500,0.000
195830.700,218369.300,711974.900,411356.000,711950.100,178714.100,712465.400,189041.000,0.000
196142.600,218623.900,711985.600,411546.600,711960.900,178963.300,712476.000,189317.700,0.000
196454.400,218836.000,711993.200,411705.800,711968.200,179183.100,712483.700,189644.800,0.000
196325.800,218710.000,711986.800,411589.300,711962.000,179077.200,712477.400,189574.900,0.000
195936.000,218423.200,711975.900,411341.300,711951.300,178792.000,712466.600,189206.500,0.000
195830.800,218376.900,711977.100,411295.200,711952.600,178728.200,712467.700,189057.400,0.000
196155.300,218640.800,711990.200,411503.700,711965.900,178978.700,712480.500,189339.300,0.000
196462.100,218845.300,711995.800,411663.800,711971.500,179190.500,712486.500,189657.900,0.000
196320.200,218700.000,711985.200,411535.200,711961.400,179064.900,712476.000,189574.000,0.000
195933.900,218408.600,711975.800,411298.300,711951.800,178778.000,712466.600,189207.900,0.000
195809.300,218347.400,711974.100,411239.600,711950.100,178704.800,712465.100,189049.600,0.000
196133.700,218610.000,711989.800,411444.500,711965.600,178958.000,712480.800,189331.000,0.000
196433.100,218811.200,711993.400,411602.100,711969.400,179170.600,712484.500,189648.300,0.000
196313.900,218697.600,711989.300,411496.100,711964.800,179074.500,712479.500,189584.500,0.000
195935.800,218419.600,711983.100,411256.400,711958.600,178798.900,712473.800,189225.300,0.000
195822.000,218366.200,711984.300,411209.200,711959.900,178732.800,712475.400,189075.700,0.000
196135.200,218612.000,711993.300,411405.600,711969.000,178966.400,712483.800,189345.500,0.000
196451.500,218827.500,712001.100,411569.800,711976.600,179189.200,712491.900,189675.200,0.000
196311.800,218691.400,711992.300,411441.700,711967.900,179072.300,712482.900,189593.200,0.000
195924.000,218404.500,711982.100,411199.300,711957.800,178787.200,712472.700,189225.000,0.000
195814.000,218351.400,711981.100,411151.500,711957.100,178719.900,712471.800,189077.100,0.000
196134.000,218611.200,711992.700,411355.600,711968.400,178968.800,712482.800,189355.800,0.000
196428.300,218807.100,711996.400,411507.000,711971.900,179176.200,712486.800,189667.600,0.000
196284.000,218667.500,711981.700,411382.100,711957.400,179052.500,712472.400,189574.000,0.000
195896.000,218382.900,711970.900,411139.500,711946.800,178769.900,712461.400,189203.700,0.000
195798.500,218339.900,711975.300,411099.900,711951.300,178715.900,712466.200,189069.700,0.000
196125.300,218603.600,711989.600,411310.600,711965.100,178967.800,712480.500,189355.900,0.000
196429.000,218809.400,711997.000,411463.000,711972.900,179180.000,712487.800,189675.000,0.000
196289.800,218670.700,711987.900,411339.100,711963.800,179058.800,712478.500,189589.800,0.000
195912.500,218392.800,711979.900,411106.100,711955.700,178785.400,712470.500,189230.900,0.000
195800.900,218340.300,711980.600,411058.900,711956.200,178720.100,712471.800,189082.300,0.000
196119.000,218593.900,711990.600,411258.200,711966.200,178963.100,712481.400,189359.600,0.000
196425.600,218800.300,711997.300,411420.500,711972.600,179181.000,712488.000,189680.400,0.000
196289.100,218667.600,711989.800,411298.800,711965.700,179070.500,712480.700,189600.100,0.000
195895.500,218375.800,711979.900,411047.600,711955.800,178783.600,712470.800,189229.900,0.000
195782.700,218320.000,711981.100,410999.500,711956.600,178715.500,712471.800,189078.100,0.000
196097.700,218571.300,711990.200,411201.300,711965.300,178956.500,712480.800,189352.500,0.000
196398.000,218777.400,711996.800,411355.300,711971.900,179170.000,712487.400,189669.000,0.000
196266.800,218648.900,711988.600,411238.500,711963.900,179053.300,712478.900,189585.500,0.000
195885.300,218365.200,711980.300,411002.600,711955.500,178771.400,712470.800,189221.100,0.000
195776.300,218314.900,711982.100,410955.500,711957.300,178702.500,712472.700,189069.700,0.000
196097.300,218575.300,711994.600,411157.800,711970.100,178950.400,712485.400,189347.100,0.000
196406.000,218784.600,712002.000,411317.000,711977.500,179167.700,712492.600,189668.800,0.000
196261.900,218645.600,711991.300,411189.500,711966.300,179044.100,712481.300,189574.600,0.000
195876.000,218362.300,711981.100,410948.600,711956.200,178759.000,712471.100,189204.800,0.000
195768.800,218311.900,711982.100,410903.400,711957.800,178696.400,712472.500,189055.000,0.000
196091.900,218568.900,711992.400,411110.200,711968.000,178945.000,712483.100,189333.000,0.000
196397.700,218776.100,712002.200,411272.500,711977.400,179163.700,712492.600,189656.900,0.000
196254.500,218635.600,711991.100,411149.000,711966.300,179040.400,712481.400,189567.700,0.000
195869.600,218353.700,711979.600,410912.100,711955.100,178761.000,712469.800,189201.600,0.000
195762.400,218308.000,711979.300,410869.700,711954.800,178696.300,712469.300,189048.500,0.000
196085.100,218567.400,711989.600,411079.500,711964.900,178944.900,712479.700,189323.700,0.000
196384.300,218765.500,711992.700,411235.300,711968.000,179149.200,712483.300,189631.700,0.000
196247.300,218629.900,711982.100,411116.400,711957.400,179030.000,712472.700,189545.900,0.000
195859.200,218342.900,711970.900,410872.600,711946.600,178744.900,712461.200,189176.100,0.000
195754.300,218292.900,711972.600,410832.500,711948.100,178685.800,712462.900,189030.600,0.000
196082.200,218555.800,711986.100,411043.800,711961.600,178937.500,712476.400,189310.700,0.000
196385.500,218760.400,711991.300,411201.900,711967.000,179151.400,712481.600,189623.800,0.000
196259.200,218636.900,711985.400,411089.100,711960.900,179045.100,712475.400,189548.300,0.000
195878.000,218355.200,711976.600,410854.000,711951.900,178766.200,712466.800,189183.900,0.000
195770.100,218303.000,711976.100,410810.300,711951.400,178698.400,712466.700,189033.500,0.000
196094.700,218566.500,711989.600,411019.700,711965.300,178948.900,712480.300,189314.300,0.000
196395.200,218768.400,711992.900,411175.200,711968.800,179157.200,712483.700,189632.200,0.000
196266.500,218642.100,711987.500,411064.900,711963.600,179047.400,712478.200,189560.200,0.000
195878.500,218352.700,711976.500,410824.200,711952.100,178761.000,712466.800,189191.900,0.000
195777.200,218307.200,711979.200,410782.000,711954.500,178698.200,712469.300,189047.000,0.000
196103.700,218571.700,711992.900,410994.000,711968.300,178949.500,712483.600,189329.900,0.000
196407.100,218776.300,711997.100,411153.800,711972.600,179157.700,712487.600,189639.300,0.000
196277.600,218646.200,711988.600,411043.900,711963.700,179041.300,712478.800,189553.700,0.000
195893.600,218359.000,711977.400,410811.900,711952.700,178759.200,712467.600,189186.200,0.000
195794.400,218316.700,711981.900,410778.000,711957.200,178704.200,712471.800,189048.700,0.000
196111.200,218569.800,711993.800,410978.300,711969.500,178942.600,712484.100,189323.000,0.000
196407.700,218770.300,711997.300,411129.900,711972.900,179152.200,712487.900,189635.200,0.000
196266.500,218633.400,711986.100,411005.900,711961.500,179034.600,712476.600,189551.100,0.000
195870.300,218339.100,711974.500,410758.500,711949.700,178746.100,712464.500,189180.300,0.000
195767.000,218295.400,711977.200,410715.500,711952.900,178685.800,712468.100,189037.900,0.000
196082.900,218549.600,711986.300,410912.300,711962.200,178928.200,712477.400,189311.600,0.000
196383.100,218749.500,711990.200,411067.500,711965.700,179137.100,712481.200,189625.300,0.000
196248.200,218616.900,711983.400,410949.100,711958.400,179023.200,712474.100,189541.700,0.000
195859.900,218330.200,711972.400,410706.000,711947.600,178738.500,712463.300,189173.000,0.000
195763.600,218292.000,711975.900,410672.900,711951.600,178685.900,712467.300,189039.300,0.000
196088.300,218554.800,711991.000,410883.800,711966.500,178937.900,712481.900,189323.500,0.000
196399.300,218767.200,711999.800,411045.800,711974.500,179155.900,712490.700,189645.800,0.000
196257.200,218630.300,711989.800,410920.700,711964.400,179034.600,712480.300,189557.500,0.000
195859.500,218333.700,711976.500,410670.600,711950.800,178742.700,712466.300,189178.800,0.000
195760.100,218294.600,711982.100,410633.800,711956.600,178689.000,712471.800,189040.600,0.000
196087.600,218559.400,711995.800,410844.500,711970.400,178939.700,712485.100,189322.100,0.000
196387.800,218761.900,711998.300,410998.400,711972.800,179148.700,712488.100,189636.000,0.000
196254.200,218630.800,711989.000,410880.300,711964.100,179031.600,712479.100,189552.700,0.000
195857.000,218332.000,711974.000,410630.500,711949.100,178733.200,712464.100,189170.700,0.000
195760.400,218293.700,711978.400,410599.000,711953.400,178684.200,712468.500,189036.600,0.000
196095.700,218563.200,711989.600,410810.600,711964.600,178943.300,712480.100,189320.100,0.000
196395.800,218761.500,711991.300,410963.000,711966.200,179152.500,712481.400,189631.700,0.000
196249.800,218618.700,711982.100,410836.200,711957.000,179027.500,712472.200,189540.400,0.000
195868.100,218335.900,711973.400,410594.900,711948.100,178744.900,712463.300,189170.800,0.000
195762.000,218287.700,711974.400,410552.900,711948.900,178685.100,712464.700,189025.700,0.000
196078.800,218545.000,711985.400,410752.100,711960.400,178931.300,712475.600,189299.900,0.000
196396.200,218766.600,711991.900,410923.300,711966.900,179160.900,712482.100,189630.600,0.000
196265.300,218634.300,711982.300,410809.400,711957.300,179041.600,712472.400,189548.100,0.000
195868.200,218336.300,711973.000,410560.100,711947.900,178746.700,712463.700,189173.700,0.000
195759.400,218285.900,711977.700,410518.500,711952.400,178685.600,712468.100,189029.800,0.000
196080.300,218542.400,711985.200,410721.000,711959.700,178924.700,712475.400,189298.400,0.000
196374.700,218738.800,711989.600,410871.200,711965.100,179128.900,712480.100,189607.000,0.000
196246.300,218616.700,711983.100,410763.800,711958.400,179022.000,712473.300,189528.600,0.000
195873.600,218345.400,711977.200,410534.300,711952.200,178749.300,712467.400,189172.000,0.000
195761.600,218288.800,711977.400,410482.800,711952.200,178677.500,712467.600,189014.500,0.000
196077.000,218543.200,711986.600,410685.300,711961.500,178923.100,712476.600,189283.000,0.000
196376.400,218746.500,711991.300,410839.000,711965.900,179133.100,712481.000,189598.000,0.000
196231.700,218604.800,711984.400,410706.700,711959.300,179008.700,712474.500,189507.900,0.000
195842.300,218314.600,711972.400,410461.600,711947.600,178720.900,712462.600,189136.000,0.000
195737.000,218266.800,711973.900,410422.300,711949.100,178658.900,712464.100,188989.000,0.000
196069.900,218537.800,711989.200,410638.600,711964.400,178921.200,712479.400,189280.700,0.000
196371.500,218741.800,711992.800,410790.500,711968.300,179131.500,712483.200,189592.500,0.000
196221.700,218597.700,711979.700,410666.500,711954.800,179003.600,712469.800,189494.500,0.000
195838.200,218314.200,711970.700,410423.000,711945.300,178726.400,712460.600,189130.800,0.000
195736.900,218272.300,711972.400,410377.500,711947.000,178669.400,712462.500,188987.400,0.000
196062.200,218536.500,711985.800,410588.300,711960.900,178923.300,712476.000,189271.800,0.000
196366.900,218743.800,711993.300,410747.900,711967.800,179140.500,712483.000,189592.300,0.000
196232.400,218611.900,711986.300,410636.700,711961.100,179025.000,712476.300,189510.300,0.000
195842.500,218318.500,711975.300,410399.800,711950.200,178737.000,712465.300,189139.000,0.000
195729.300,218261.900,711970.600,410352.800,711945.900,178664.100,712460.600,188981.700,0.000
196044.400,218510.500,711979.000,410552.800,711954.300,178904.100,712469.100,189250.500,0.000
196358.000,218719.900,711986.900,410723.800,711961.800,179125.900,712476.800,189573.900,0.000
196226.500,218589.300,711979.100,410616.400,711954.800,179013.900,712469.100,189495.700,0.000
195844.900,218309.600,711968.600,410385.700,711944.300,178731.700,712458.700,189129.200,0.000
195739.900,218266.200,711970.900,410351.000,711946.100,178674.300,712460.900,188985.600,0.000
196070.800,218536.700,711985.300,410566.100,711960.600,178931.400,712475.800,189274.100,0.000
196370.300,218737.100,711991.400,410721.500,711966.600,179137.300,712481.900,189583.200,0.000
196247.300,218614.000,711985.300,410615.400,711960.700,179034.900,712475.300,189510.400,0.000
195865.100,218328.400,711975.400,410381.400,711951.200,178754.600,712465.100,189145.700,0.000
195768.400,218290.100,711978.400,410343.500,711953.700,178699.000,712468.700,189005.900,0.000
196088.300,218549.200,711990.700,410550.200,711965.900,178946.400,712481.000,189284.700,0.000
196382.600,218746.200,711993.200,410705.500,711968.400,179148.900,712483.300,189590.700,0.000
196247.500,218609.800,711981.400,410587.800,711956.500,179028.500,712471.000,189501.000,0.000
195862.800,218322.100,711968.800,410349.700,711943.500,178742.500,712458.100,189130.100,0.000
195763.900,218279.800,711971.300,410316.200,711946.300,178690.600,712460.900,188993.300,0.000
196089.700,218544.300,711985.100,410526.200,711960.300,178942.400,712474.700,189279.600,0.000
196390.600,218748.100,711989.300,410682.800,711964.400,179154.000,712479.100,189595.500,0.000
196262.900,218623.400,711982.800,410573.900,711957.900,179047.600,712472.400,189520.900,0.000
195885.900,218347.300,711975.700,410341.700,711950.800,178773.800,712465.200,189161.600,0.000
195783.500,218298.400,711976.300,410295.500,711951.400,178713.000,712466.200,189017.900,0.000
196095.500,218542.800,711984.800,410493.800,711960.100,178944.000,712475.100,189284.700,0.000
196403.500,218752.500,711991.900,410660.300,711966.800,179155.800,712482.100,189605.000,0.000
196275.600,218625.500,711985.800,410553.000,711960.800,179045.500,712476.000,189529.800,0.000
195890.200,218338.800,711975.100,410312.400,711950.300,178761.300,712465.100,189160.200,0.000
195790.400,218296.000,711975.900,410272.800,711950.800,178703.700,712466.000,189017.700,0.000
196118.300,218559.200,711986.500,410479.200,711961.500,178956.700,712476.600,189301.000,0.000
196418.600,218762.800,711991.000,410631.900,711965.900,179167.700,712481.000,189612.400,0.000
196294.600,218642.800,711987.300,410524.000,711962.000,179067.200,712477.300,189541.300,0.000
195914.500,218367.600,711978.100,410292.500,711953.200,178793.900,712468.100,189182.500,0.000
195801.400,218315.000,711976.300,410246.000,711951.200,178724.100,712466.400,189030.100,0.000
196119.700,218572.400,711986.700,410441.300,711962.100,178967.100,712477.000,189306.900,0.000
196419.600,218776.500,711992.500,410594.900,711967.900,179178.700,712482.900,189624.100,0.000
196286.100,218641.700,711984.000,410476.000,711959.000,179058.100,712474.100,189539.500,0.000
195902.000,218354.900,711974.100,410241.100,711949.100,178777.200,712463.900,189174.600,0.000
195802.700,218308.000,711976.900,410199.100,711951.800,178717.500,712466.600,189032.800,0.000
196124.600,218565.500,711988.200,410400.200,711962.900,178960.100,712478.000,189311.300,0.000
196430.800,218775.700,711998.100,410566.000,711973.100,179180.000,712488.200,189636.900,0.000
196296.000,218644.900,711990.200,410447.000,711965.400,179067.000,712480.200,189556.700,0.000
195903.200,218353.700,711978.800,410200.300,711954.100,178782.500,712468.600,189184.200,0.000
195791.100,218299.600,711976.800,410153.900,711951.900,178717.500,712466.400,189028.400,0.000
196108.900,218553.600,711985.300,410358.000,711960.300,178960.200,712475.000,189300.600,0.000
196417.300,218763.000,711989.800,410517.100,711964.600,179173.700,712479.900,189617.300,0.000
196284.600,218631.400,711981.400,410400.900,711956.200,179058.400,712471.400,189535.000,0.000
195902.000,218348.400,711972.400,410166.300,711947.000,178776.900,712462.200,189174.700,0.000
195799.000,218305.200,711976.500,410123.500,711951.000,178718.600,712466.300,189036.600,0.000
196124.400,218567.600,711990.800,410332.700,711965.600,178971.000,712481.100,189321.500,0.000
196417.100,218762.200,711996.200,410481.600,711970.700,179177.300,712486.300,189632.600,0.000
196283.300,218630.100,711985.200,410361.200,711960.100,179060.600,712475.400,189548.100,0.000
195899.700,218345.600,711973.200,410120.100,711948.000,178780.200,712463.300,189179.300,0.000
195795.600,218304.800,711975.500,410083.000,711950.600,178725.800,712465.800,189041.500,0.000
196102.600,218554.100,711984.100,410278.200,711958.600,178964.700,712474.100,189309.100,0.000
196396.400,218750.500,711989.200,410427.100,711964.000,179168.300,712479.400,189618.100,0.000
196262.000,218616.700,711981.800,410310.600,711956.600,179051.100,712471.800,189538.100,0.000
195873.200,218325.300,711968.900,410068.400,711942.800,178761.500,712458.600,189165.100,0.000
195774.600,218282.800,711971.800,410031.500,711945.900,178705.900,712461.700,189027.700,0.000
196089.000,218533.000,711983.900,410228.200,711958.500,178949.800,712474.100,189303.000,0.000
196397.300,218743.600,711993.800,410388.100,711968.400,179173.200,712483.800,189628.700,0.000
196261.300,218612.200,711984.100,410268.000,711958.400,179055.300,712473.900,189548.000,0.000
195878.300,218329.000,711977.200,410036.100,711951.900,178774.300,712467.100,189186.500,0.000
195767.200,218276.400,711976.800,409991.800,711952.200,178707.500,712467.000,189037.900,0.000
196084.600,218530.000,711986.100,410189.800,711961.100,178956.400,712476.100,189313.100,0.000
196384.700,218730.500,711991.900,410339.100,711966.600,179164.300,712482.000,189625.200,0.000
196247.800,218592.000,711981.900,410216.200,711956.800,179042.400,712472.100,189538.700,0.000
195861.700,218306.300,711970.300,409975.300,711945.000,178759.500,712460.200,189173.200,0.000
195752.900,218255.400,711969.400,409928.300,711943.900,178694.900,712459.100,189025.500,0.000
196070.700,218508.400,711983.200,410133.700,711957.900,178940.800,712473.100,189304.900,0.000
196378.100,218718.600,711993.200,410302.000,711968.000,179158.600,712483.000,189631.000,0.000
196233.800,218577.600,711982.400,410174.300,711956.800,179030.200,712472.300,189541.100,0.000
195835.400,218280.700,711970.700,409916.700,711944.900,178738.100,712460.000,189162.200,0.000
195720.200,218227.100,711970.900,409863.500,711945.200,178673.800,712460.600,189009.500,0.000
196043.700,218491.700,711981.600,410064.800,711956.000,178926.500,712471.800,189287.000,0.000
196355.100,218706.600,711987.600,410229.500,711961.800,179147.100,712477.600,189607.300,0.000
196209.200,218565.200,711976.900,410102.800,711951.400,179027.000,712466.700,189516.300,0.000
195815.200,218269.600,711966.100,409847.400,711940.900,178740.800,712456.200,189144.400,0.000
195723.100,218239.700,711969.200,409813.400,711943.700,178693.400,712459.100,189008.100,0.000
196043.500,218501.400,711980.300,410017.400,711954.900,178942.600,712470.500,189289.200,0.000
196348.000,218705.200,711988.800,410179.800,711963.600,179155.400,712479.100,189606.200,0.000
196218.900,218577.900,711982.100,410069.000,711956.800,179045.000,712472.500,189522.700,0.000
195845.500,218300.700,711972.600,409848.000,711947.300,178765.000,712462.800,189159.500,0.000
195729.900,218239.700,711967.300,409791.000,711942.100,178689.200,712457.300,189007.600,0.000
196043.900,218490.800,711976.700,409976.700,711951.800,178929.200,712467.300,189278.900,0.000
196350.800,218693.100,711983.800,410140.100,711959.300,179133.500,712474.300,189597.000,0.000
196224.300,218563.100,711978.300,410034.300,711953.700,179020.200,712468.900,189526.300,0.000
195828.100,218267.500,711965.600,409788.100,711940.800,178728.600,712456.200,189148.200,0.000
195724.300,218226.600,711966.700,409756.500,711941.700,178665.900,712456.900,189003.100,0.000
196052.700,218501.400,711978.400,409966.000,711953.100,178924.700,712468.400,189290.300,0.000
196353.200,218702.500,711982.100,410115.000,711956.600,179136.900,712471.600,189597.700,0.000
196238.600,218580.700,711979.400,410015.600,711953.800,179035.500,712469.100,189532.300,0.000
195859.900,218293.600,711971.700,409778.900,711945.800,178755.000,712461.200,189171.900,0.000
195749.100,218235.600,711970.400,409733.100,711944.900,178681.700,712460.000,189021.100,0.000
196079.900,218500.400,711985.200,409950.400,711959.500,178936.800,712474.800,189311.800,0.000
196387.000,218704.600,711991.700,410117.600,711966.500,179155.000,712481.600,189639.000,0.000
196243.700,218559.800,711981.700,409991.700,711956.600,179037.700,712471.600,189551.300,0.000
195861.200,218273.100,711972.600,409756.800,711947.200,178759.400,712462.200,189188.800,0.000
195741.500,218208.600,711962.200,409713.800,711936.100,178676.800,712451.400,189021.100,0.000
196069.300,218473.200,711969.100,409919.100,711943.600,178924.400,712458.700,189300.200,0.000
196379.700,218682.600,711980.900,410080.800,711955.500,179147.500,712470.900,189629.900,0.000
196247.700,218552.600,711972.900,409974.000,711947.300,179036.900,712462.900,189547.100,0.000
195858.400,218262.600,711960.900,409731.100,711935.200,178754.000,712450.600,189179.900,0.000
195756.200,218214.400,711963.800,409687.600,711937.900,178699.400,712453.100,189041.000,0.000
196076.100,218470.700,711972.900,409896.800,711947.300,178946.600,712462.600,189319.500,0.000
196384.000,218681.600,711980.700,410064.500,711954.800,179165.700,712470.200,189644.600,0.000
196249.500,218546.600,711975.800,409951.900,711949.700,179053.700,712464.900,189567.800,0.000
195851.100,218246.700,711963.600,409691.300,711937.600,178758.800,712453.100,189192.900,0.000
195747.100,218200.600,711966.200,409654.700,711940.600,178700.800,712455.900,189049.500,0.000
196073.800,218464.900,711980.300,409878.500,711954.100,178950.800,712469.800,189331.400,0.000
196368.000,218665.000,711986.300,410031.400,711959.900,179155.700,712475.800,189640.100,0.000
196227.700,218524.500,711974.100,409911.200,711947.700,179032.500,712463.800,189545.100,0.000
195852.400,218244.700,711967.600,409689.500,711941.400,178757.000,712457.100,189184.400,0.000
195743.000,218190.700,711967.400,409657.700,711941.400,178687.300,712456.700,189035.500,0.000
196056.900,218440.100,711977.400,409859.300,711951.400,178927.500,712466.600,189305.000,0.000
196360.400,218648.000,711984.200,410017.100,711958.500,179142.300,712473.800,189619.400,0.000
196211.500,218508.700,711974.400,409895.600,711948.600,179017.000,712464.200,189527.300,0.000
195810.300,218212.300,711960.900,409642.600,711935.200,178719.700,712450.700,189150.500,0.000
195717.200,218180.200,711965.700,409607.000,711940.400,178671.900,712455.400,189019.700,0.000
196060.900,218459.600,711985.700,409833.800,711960.300,178947.400,712475.600,189327.100,0.000
196376.900,218676.100,711997.300,410005.600,711971.900,179183.100,712487.200,189666.500,0.000
196247.000,218543.600,711990.900,409887.300,711965.100,179063.000,712480.800,189579.400,0.000
195854.600,218251.300,711981.900,409635.000,711956.200,178763.400,712472.000,189198.500,0.000
195715.100,218172.000,711970.000,409567.600,711944.300,178657.100,712459.800,189007.500,0.000
196019.900,218416.300,711971.100,409764.500,711945.300,178889.300,712460.900,189262.000,0.000
196325.200,218627.900,711978.900,409922.900,711952.800,179113.800,712468.300,189583.500,0.000
196195.700,218497.400,711971.400,409811.300,711945.500,179000.200,712461.300,189500.000,0.000
195814.200,218214.500,711963.000,409581.100,711937.300,178722.000,712452.800,189133.200,0.000
195702.300,218161.800,711962.900,409535.400,711936.900,178657.100,712452.400,188981.100,0.000
196025.400,218425.400,711976.100,409749.000,711949.700,178911.100,712465.600,189263.000,0.000
196327.800,218633.700,711984.800,409911.200,711958.800,179125.400,712474.600,189581.600,0.000
196191.200,218499.100,711973.400,409792.000,711947.400,179004.600,712463.100,189491.800,0.000
195809.400,218220.100,711965.500,409554.700,711939.500,178728.300,712455.100,189129.600,0.000
195707.000,218176.100,711966.900,409517.100,711941.600,178671.200,712457.000,188985.200,0.000
196023.100,218431.000,711975.700,409719.900,711950.200,178915.400,712466.000,189261.000,0.000
196327.600,218637.100,711982.900,409880.000,711957.300,179127.400,712473.000,189581.400,0.000
196195.500,218506.900,711975.900,409775.400,711950.100,179011.900,712465.600,189497.800,0.000
195804.100,218216.400,711966.400,409535.900,711940.200,178726.300,712455.400,189124.200,0.000
195685.200,218155.100,711965.500,409474.700,711939.500,178653.100,712454.600,188967.600,0.000
196011.300,218417.200,711979.000,409685.600,711953.200,178903.700,712468.300,189248.000,0.000
196318.400,218625.600,711985.400,409850.900,711959.300,179117.300,712474.500,189567.100,0.000
196197.200,218507.300,711979.800,409747.500,711953.900,179015.800,712468.900,189494.300,0.000
195805.300,218220.500,711970.400,409502.400,711944.500,178728.400,712460.000,189124.600,0.000
195687.600,218167.200,711970.000,409456.000,711943.900,178658.500,712459.500,188968.400,0.000
196003.300,218426.100,711979.200,409661.800,711953.100,178902.300,712468.800,189239.800,0.000
196307.500,218634.600,711983.600,409824.800,711957.900,179116.400,712473.800,189559.900,0.000
196184.200,218510.300,711978.900,409719.400,711953.100,179007.300,712468.600,189486.400,0.000
195791.300,218217.300,711966.100,409466.600,711940.400,178716.900,712456.200,189110.900,0.000
195686.900,218171.800,711969.200,409426.600,711943.100,178657.100,712458.900,188971.000,0.000
196013.000,218435.000,711982.500,409638.400,711956.600,178907.200,712472.200,189256.200,0.000
196311.600,218635.000,711987.100,409792.400,711961.300,179116.000,712476.900,189569.400,0.000
196172.900,218497.700,711977.100,409675.100,711951.000,178998.100,712466.600,189484.400,0.000
195785.700,218208.300,711964.600,409441.300,711938.700,178711.400,712454.400,189112.800,0.000
195687.600,218168.100,711968.900,409404.200,711942.900,178655.200,712458.600,188971.500,0.000
195995.000,218417.300,711978.600,409603.300,711952.600,178897.500,712468.300,189241.000,0.000
196289.400,218620.100,711981.300,409755.600,711955.300,179108.500,712470.600,189554.300,0.000
196153.500,218485.300,711972.800,409636.600,711946.600,178985.100,712462.500,189470.700,0.000
195773.400,218200.400,711963.800,409405.300,711937.600,178706.500,712453.500,189110.300,0.000
195677.300,218159.100,711967.000,409369.200,711941.200,178651.300,712457.100,188973.500,0.000
196000.900,218423.600,711978.300,409578.000,711951.900,178900.600,712468.500,189256.800,0.000
196307.000,218635.500,711983.200,409741.600,711957.600,179118.000,712473.400,189577.000,0.000
196190.000,218517.900,711981.400,409642.600,711955.700,179017.300,712471.600,189514.100,0.000
195806.500,218229.300,711972.800,409404.400,711947.100,178732.800,712462.900,189150.200,0.000
195700.800,218179.800,711974.300,409360.700,711948.800,178671.500,712464.500,189007.200,0.000
196023.600,218440.400,711988.800,409564.600,711963.400,178923.800,712479.100,189287.300,0.000
196327.000,218647.400,711993.100,409718.500,711967.600,179140.900,712483.000,189601.600,0.000
196184.700,218507.000,711982.900,409593.000,711957.200,179019.900,712472.600,189511.900,0.000
195793.200,218213.000,711970.900,409349.300,711945.100,178729.600,712460.200,189138.600,0.000
195691.000,218166.500,711973.600,409315.100,711947.900,178672.200,712462.900,188997.300,0.000
196010.600,218426.400,711984.800,409517.000,711959.100,178919.000,712474.300,189275.500,0.000
196304.900,218623.200,711987.300,409662.600,711961.600,179122.300,712476.800,189581.900,0.000
196167.500,218482.300,711978.400,409545.300,711952.600,178997.200,712467.800,189493.500,0.000
195779.600,218189.900,711963.300,409301.000,711937.600,178699.500,712452.900,189115.900,0.000
195683.600,218151.500,711966.500,409264.100,711940.900,178646.100,712456.300,188976.200,0.000
196001.500,218413.100,711978.000,409468.600,711952.600,178897.500,712468.100,189253.100,0.000
196302.300,218626.300,711983.900,409632.500,711957.900,179118.200,712473.500,189569.100,0.000
196167.600,218495.500,711976.900,409514.900,711950.800,179005.200,712466.200,189489.500,0.000
195787.500,218211.100,711969.100,409275.200,711943.600,178721.100,712458.900,189129.900,0.000
195677.500,218157.800,711968.900,409226.000,711943.600,178654.700,712459.000,188977.800,0.000
196011.500,218430.100,711982.900,409443.200,711957.400,178913.100,712473.300,189265.300,0.000
196313.100,218638.700,711989.400,409597.700,711964.000,179124.100,712479.300,189579.400,0.000
196177.400,218507.400,711979.800,409477.000,711953.900,179007.700,712468.900,189493.500,0.000
195794.500,218221.100,711970.300,409240.000,711944.500,178727.700,712459.400,189129.400,0.000
195689.000,218170.800,711969.800,409197.000,711944.100,178666.400,712459.200,188984.700,0.000
196004.600,218425.400,711979.600,409391.500,711953.400,178908.400,712469.400,189257.600,0.000
196303.400,218630.300,711986.100,409550.800,711960.700,179119.100,712476.000,189571.000,0.000
196170.100,218495.700,711976.800,409440.100,711951.600,179001.500,712466.400,189491.000,0.000
195788.900,218208.800,711968.600,409202.700,711943.000,178722.000,712458.300,189130.300,0.000
195688.000,218164.600,711971.800,409164.300,711945.900,178663.700,712461.300,188991.300,0.000
195999.900,218416.100,711980.300,409360.200,711954.800,178901.300,712469.800,189258.100,0.000
196311.300,218630.500,711990.100,409521.900,711964.300,179126.400,712479.100,189584.300,0.000
196174.900,218496.100,711980.300,409400.100,711954.600,179011.500,712469.600,189494.500,0.000
195789.800,218212.200,711968.000,409159.300,711942.600,178727.700,712457.300,189125.800,0.000
195687.200,218166.700,711970.700,409114.700,711945.400,178656.700,712460.300,188982.800,0.000
196013.100,218431.400,711984.200,409325.200,711958.500,178908.400,712473.600,189261.500,0.000
196298.500,218624.300,711985.700,409475.200,711960.300,179111.200,712474.900,189564.500,0.000
196157.100,218484.600,711974.000,409347.900,711948.900,178988.300,712463.900,189475.200,0.000
195789.800,218214.400,711967.100,409123.800,711941.900,178722.200,712456.800,189127.600,0.000
195687.800,218168.400,711968.800,409082.800,711943.600,178658.800,712458.400,188984.700,0.000
196007.500,218428.800,711981.400,409286.800,711955.700,178906.000,712470.800,189259.000,0.000
196312.300,218639.500,711989.800,409449.000,711964.000,179126.500,712479.700,189583.600,0.000
196175.400,218499.200,711981.600,409333.400,711955.900,179005.300,712471.600,189502.100,0.000
195781.300,218201.700,711965.900,409084.500,711940.300,178705.900,712455.800,189120.700,0.000
195678.700,218156.700,711966.700,409037.900,711941.200,178644.400,712456.600,188969.100,0.000
195997.800,218412.700,711977.700,409243.500,711952.200,178889.100,712467.800,189241.700,0.000
196292.000,218611.300,711983.600,409396.700,711958.300,179100.100,712473.700,189555.600,0.000
196153.100,218475.200,711975.800,409274.900,711950.800,178986.300,712466.000,189474.000,0.000
195775.800,218194.700,711967.900,409044.400,711942.600,178714.400,712457.900,189117.100,0.000
195680.200,218155.400,711969.200,409010.900,711943.600,178660.600,712459.100,188981.100,0.000
195986.600,218403.900,711977.700,409200.000,711952.200,178896.400,712467.700,189249.000,0.000
196289.500,218614.700,711986.300,409360.900,711960.600,179112.400,712476.000,189566.500,0.000
196165.300,218494.300,711982.300,409257.300,711956.400,179011.400,712471.800,189494.400,0.000
195789.200,218216.100,711975.600,409023.900,711949.500,178735.700,712464.800,189139.900,0.000
195679.800,218163.900,711974.300,408978.000,711948.100,178667.400,712463.900,188986.500,0.000
195996.800,218418.400,711981.300,409184.300,711955.900,178909.500,712471.100,189256.100,0.000
196295.000,218622.500,711986.600,409340.300,711961.200,179118.800,712476.000,189569.000,0.000
196173.100,218501.200,711982.100,409235.300,711956.600,179013.400,712471.800,189501.700,0.000
195789.000,218211.700,711972.400,408987.100,711946.800,178727.900,712462.100,189136.300,0.000
195682.100,218159.700,711972.300,408945.200,711947.200,178660.400,712462.600,188986.800,0.000
195999.700,218416.400,711985.300,409153.300,711959.700,178908.200,712474.800,189262.800,0.000
196293.500,218614.600,711989.400,409308.700,711964.300,179113.300,712479.300,189573.600,0.000
196166.500,218491.000,711982.800,409194.800,711957.000,179005.000,712472.400,189501.700,0.000
195781.000,218199.200,711972.600,408950.000,711947.100,178719.100,712462.200,189132.900,0.000
195666.800,218140.600,711970.900,408901.100,711945.000,178649.500,712460.600,188976.500,0.000
195982.300,218394.300,711979.400,409108.900,711953.100,178893.700,712469.300,189247.300,0.000
196279.100,218598.500,711984.400,409265.200,711958.700,179103.000,712474.400,189556.900,0.000
196145.100,218466.500,711975.300,409147.000,711949.600,178986.800,712465.000,189473.500,0.000
195761.400,218180.400,711963.700,408909.900,711938.100,178703.400,712453.500,189107.000,0.000
195654.400,218133.800,711965.100,408863.800,711939.600,178644.200,712455.100,188963.100,0.000
195970.900,218388.600,711978.300,409063.200,711952.400,178890.200,712467.800,189240.000,0.000
196283.500,218605.500,711988.100,409229.500,711962.300,179115.900,712477.600,189566.000,0.000
196145.600,218472.000,711978.400,409109.200,711952.400,178999.800,712468.300,189479.200,0.000
195765.000,218187.500,711968.600,408883.100,711942.400,178719.300,712458.300,189117.900,0.000
195660.300,218133.800,711970.100,408840.400,711944.100,178654.100,712459.800,188972.400,0.000
195974.400,218385.100,711980.700,409037.000,711955.300,178893.800,712470.600,189243.300,0.000
196265.900,218583.000,711985.400,409185.300,711959.900,179098.400,712475.700,189547.700,0.000
196137.700,218461.300,711979.000,409075.600,711953.300,178990.300,712468.900,189471.100,0.000
195758.800,218180.800,711969.000,408840.100,711943.100,178711.400,712458.400,189105.700,0.000
195652.300,218130.300,711969.600,408794.300,711943.500,178647.400,712458.700,188953.000,0.000
195972.000,218389.000,711981.400,408997.300,711955.900,178896.100,712470.900,189231.900,0.000
196268.000,218590.900,711988.300,409153.200,711962.800,179107.200,712477.800,189547.400,0.000
196132.500,218457.400,711979.600,409039.200,711953.600,178988.500,712468.900,189462.000,0.000
195746.400,218171.900,711968.100,408799.100,711942.300,178702.500,712457.600,189093.400,0.000
195643.800,218126.000,711969.600,408759.500,711943.600,178647.300,712459.200,188949.800,0.000
195968.800,218390.700,711983.800,408969.300,711957.300,178902.600,712473.100,189236.800,0.000
196268.800,218594.500,711988.900,409125.700,711962.400,179110.300,712478.300,189553.900,0.000
196137.400,218463.500,711981.600,409013.600,711955.300,178995.800,712471.200,189474.200,0.000
195748.500,218168.300,711968.400,408774.200,711942.800,178706.000,712458.500,189102.500,0.000
195649.900,218128.300,711972.300,408738.000,711946.400,178651.300,712462.200,188965.000,0.000
195974.400,218392.700,711984.600,408951.000,711958.400,178901.000,712473.900,189244.400,0.000
196273.500,218600.500,711991.100,409099.900,711964.800,179116.100,712480.600,189556.900,0.000
196131.000,218460.000,711981.300,408977.800,711955.100,178996.000,712471.000,189469.400,0.000
195746.700,218172.300,711969.500,408736.200,711943.600,178712.100,712458.900,189100.900,0.000
195647.800,218130.800,711973.100,408701.900,711947.000,178661.500,712462.300,188964.300,0.000
195962.500,218383.700,711982.400,408901.800,711956.200,178904.600,712471.600,189233.900,0.000
196265.100,218590.500,711987.100,409061.900,711960.700,179114.500,712476.600,189544.500,0.000
196140.200,218465.800,711982.300,408955.600,711955.800,179001.600,712471.600,189462.400,0.000
195746.600,218170.400,711971.600,408703.500,711945.200,178711.300,712461.100,189091.700,0.000
195640.000,218121.900,711970.700,408658.000,711945.100,178648.700,712460.400,188946.600,0.000
195960.700,218381.700,711981.100,408867.100,711955.500,178897.700,712471.000,189224.400,0.000
196252.900,218577.200,711985.900,409020.700,711959.800,179101.900,712475.600,189535.600,0.000
196115.800,218440.900,711975.700,408905.100,711949.600,178979.500,712464.900,189447.400,0.000
195725.100,218147.300,711962.000,408664.600,711935.900,178686.800,712451.500,189072.800,0.000
195626.300,218102.300,711963.300,408630.200,711937.000,178628.300,712452.900,188931.100,0.000
195957.600,218373.500,711978.300,408841.400,711952.400,178885.800,712468.400,189220.000,0.000
196261.600,218581.100,711984.800,408997.700,711958.700,179100.900,712474.500,189535.400,0.000
196129.300,218447.800,711977.700,408887.000,711951.400,178987.700,712466.800,189458.000,0.000
195748.000,218162.600,711968.800,408653.000,711942.500,178703.700,712457.900,189094.300,0.000
195647.600,218118.000,711970.100,408613.200,711944.100,178643.000,712459.400,188948.500,0.000
195973.700,218383.400,711982.900,408822.400,711956.800,178896.100,712472.300,189228.400,0.000
196275.300,218591.300,711989.200,408981.300,711963.300,179109.700,712478.500,189544.700,0.000
196142.600,218460.600,711984.400,408868.200,711958.400,178999.200,712473.300,189468.100,0.000
195755.700,218169.200,711973.600,408630.400,711947.600,178715.000,712463.100,189098.700,0.000
195654.900,218123.000,711973.900,408584.500,711947.900,178648.900,712463.400,188953.800,0.000
195973.000,218380.800,711985.200,408792.100,711959.000,178894.300,712474.600,189229.300,0.000
196262.300,218576.500,711989.600,408936.600,711963.700,179099.500,712478.700,189535.200,0.000
196125.100,218439.300,711980.500,408814.700,711954.300,178983.800,712469.400,189450.200,0.000
195749.400,218157.900,711970.900,408579.500,711944.600,178708.300,712459.800,189088.900,0.000
195648.400,218110.600,711973.400,408538.200,711947.600,178648.200,712463.100,188947.600,0.000
195960.200,218362.500,711982.100,408740.000,711956.800,178889.900,712471.800,189215.800,0.000
196253.400,218564.700,711985.700,408898.900,711959.900,179101.900,712474.800,189525.700,0.000
196125.700,218442.400,711976.900,408794.000,711951.100,178993.900,712466.200,189445.500,0.000
195740.000,218156.100,711966.800,408559.200,711940.600,178713.000,712456.000,189079.400,0.000
195625.600,218098.600,711966.200,408506.600,711940.200,178639.700,712455.600,188926.000,0.000
195952.000,218362.100,711978.800,408719.200,711953.300,178891.200,712468.800,189203.900,0.000
196252.900,218571.000,711986.100,408877.300,711960.400,179106.100,712475.800,189518.800,0.000
196114.000,218434.300,711977.400,408752.700,711951.800,178987.100,712467.300,189431.300,0.000
195727.000,218142.600,711965.100,408509.800,711939.400,178699.600,712454.900,189059.300,0.000
195629.300,218101.000,711968.300,408472.000,711942.600,178642.000,712458.100,188918.000,0.000
195946.000,218357.700,711979.900,408673.600,711954.300,178887.400,712469.900,189192.100,0.000
196245.700,218563.700,711985.800,408831.500,711960.100,179099.600,712475.800,189504.300,0.000
196115.100,218434.700,711980.300,408722.600,711954.100,178989.500,712470.100,189423.800,0.000
195734.300,218148.400,711970.000,408487.600,711944.500,178705.700,712459.800,189060.500,0.000
195628.100,218096.400,711971.400,408439.900,711946.100,178639.200,712461.300,188912.400,0.000
195950.700,218357.200,711981.300,408643.100,711955.500,178880.800,712470.800,189182.600,0.000
196254.000,218565.900,711987.700,408801.200,711962.000,179098.500,712477.000,189498.500,0.000
196116.400,218433.400,711978.400,408681.200,711952.800,178983.800,712467.800,189416.400,0.000
195734.900,218152.500,711971.700,408448.700,711945.600,178706.900,712460.900,189057.600,0.000
195628.200,218105.300,711974.500,408409.200,711948.300,178646.700,712463.700,188914.700,0.000
195939.800,218355.800,711984.100,408603.600,711958.400,178890.200,712473.900,189185.400,0.000
196245.100,218565.300,711990.600,408760.200,711964.600,179103.700,712480.300,189502.800,0.000
196113.900,218433.500,711983.900,408646.800,711957.900,178989.100,712473.300,189422.700,0.000
195726.700,218142.100,711973.200,408406.300,711947.400,178702.000,712462.600,189053.100,0.000
195625.300,218098.800,711974.400,408370.300,711948.100,178645.700,712463.800,188913.600,0.000
195933.900,218345.900,711982.700,408566.600,711956.500,178883.300,712471.800,189177.200,0.000
196228.600,218544.500,711988.100,408722.100,711962.400,179092.700,712477.400,189487.100,0.000
196099.500,218415.100,711979.900,408607.400,711954.300,178978.000,712469.600,189408.300,0.000
195728.200,218137.300,711970.500,408378.400,711944.500,178699.100,712460.200,189048.400,0.000
195624.200,218089.500,711973.200,408338.500,711947.400,178640.400,712463.100,188905.600,0.000
195941.300,218347.900,711984.600,408542.200,711958.900,178887.600,712474.300,189181.100,0.000
196240.300,218551.200,711989.000,408701.600,711963.800,179098.600,712478.600,189493.500,0.000
196117.000,218427.100,711984.400,408592.700,711958.800,178991.300,712474.100,189419.200,0.000
195738.800,218144.000,711973.400,408351.900,711947.400,178706.600,712462.900,189049.700,0.000
195637.600,218098.900,711975.200,408320.300,711948.900,178646.100,712464.700,188906.900,0.000
195943.000,218345.500,711978.900,408514.600,711953.500,178879.000,712468.900,189167.200,0.000
196240.600,218549.500,711983.800,408669.800,711958.400,179093.500,712473.900,189480.900,0.000
196117.800,218428.800,711978.600,408566.400,711952.300,178988.300,712467.900,189410.800,0.000
195729.700,218137.300,711967.600,408323.500,711941.200,178702.200,712456.900,189041.000,0.000
195628.100,218090.300,711969.200,408285.100,711943.300,178641.300,712459.000,188901.300,0.000
195950.100,218349.500,711981.800,408498.800,711955.500,178887.600,712471.100,189186.200,0.000
196243.200,218548.600,711987.700,408651.600,711960.900,179095.100,712476.800,189495.100,0.000
196112.500,218420.000,711980.500,408536.300,711953.700,178983.800,712469.600,189415.600,0.000
195733.300,218135.900,711970.800,408300.300,711944.100,178702.600,712460.200,189055.200,0.000
195637.800,218093.700,711973.600,408269.800,711947.300,178645.900,712462.900,188921.200,0.000
195956.500,218351.300,711984.400,408475.700,711958.600,178891.100,712473.900,189200.300,0.000
196250.700,218557.100,711990.600,408623.200,711964.700,179103.300,712480.100,189514.700,0.000
196113.900,218425.200,711984.100,408505.700,711957.800,178989.000,712473.100,189433.900,0.000
195731.300,218142.700,711975.300,408270.500,711949.500,178707.300,712464.600,189069.700,0.000
195630.600,218101.200,711981.100,408233.300,711955.500,178653.300,712470.600,188928.000,0.000
195949.300,218356.600,711991.000,408435.300,711965.100,178893.500,712480.700,189201.300,0.000
196247.800,218558.000,711995.300,408593.100,711969.700,179099.600,712485.100,189511.800,0.000
196108.300,218423.800,711985.500,408469.500,711959.800,178977.000,712475.200,189423.400,0.000
195718.000,218130.000,711972.200,408224.500,711946.100,178688.900,712461.500,189049.800,0.000
195621.000,218086.100,711975.600,408187.200,711949.300,178632.300,712464.900,188911.500,0.000
195947.000,218348.100,711989.600,408397.300,711963.400,178882.700,712479.300,189195.300,0.000
196247.300,218556.300,711996.400,408562.400,711970.100,179096.800,712486.100,189512.000,0.000
196112.300,218425.500,711985.300,408447.600,711959.100,178979.000,712475.300,189424.600,0.000
195729.400,218140.200,711974.100,408208.500,711948.100,178694.800,712463.900,189053.400,0.000
195625.400,218093.600,711973.600,408170.200,711947.600,178633.800,712463.100,188910.500,0.000
195940.400,218348.600,711983.000,408375.200,711956.900,178879.600,712472.700,189183.800,0.000
196240.400,218554.700,711990.100,408527.600,711964.000,179095.000,712480.100,189496.700,0.000
196115.000,218431.000,711982.500,408412.400,711956.100,178984.600,712471.800,189420.200,0.000
195734.100,218145.600,711972.500,408174.000,711945.500,178703.500,712462.000,189057.600,0.000
195626.300,218095.000,711972.300,408133.000,711945.800,178641.500,712461.500,188916.400,0.000
195943.500,218349.500,711982.600,408337.800,711956.400,178884.300,712472.000,189191.300,0.000
196253.000,218564.900,711991.300,408502.400,711965.100,179108.000,712480.900,189515.600,0.000
196116.100,218433.700,711983.400,408384.000,711957.100,178995.100,712472.800,189432.500,0.000
195725.800,218142.200,711971.800,408141.600,711945.500,178706.400,712461.400,189059.200,0.000
195619.100,218092.500,711971.400,408097.800,711945.000,178640.000,712460.900,188908.300,0.000
195935.500,218345.600,711981.900,408307.500,711955.600,178887.400,712471.000,189185.200,0.000
196239.300,218554.900,711987.100,408468.200,711960.900,179102.800,712476.400,189505.700,0.000
196101.800,218421.000,711977.200,408345.100,711951.200,178987.700,712466.900,189425.500,0.000
195719.800,218138.600,711969.500,408109.300,711943.300,178710.300,712458.900,189061.400,0.000
195619.600,218095.400,711971.900,408069.800,711945.500,178653.100,712461.400,188921.600,0.000
195941.600,218353.100,711983.600,408274.000,711957.800,178898.200,712473.600,189202.300,0.000
196238.400,218555.200,711990.300,408434.700,711964.400,179109.500,712479.900,189514.900,0.000
196106.000,218428.300,711984.000,408320.600,711957.900,178995.900,712473.600,189433.000,0.000
195729.400,218148.700,711975.600,408089.300,711949.300,178719.500,712465.000,189071.200,0.000
195624.400,218096.700,711976.700,408049.100,711950.800,178659.600,712466.600,188926.300,0.000
195946.100,218352.400,711988.700,408252.700,711962.400,178900.600,712478.000,189204.900,0.000
196244.900,218556.800,711992.900,408409.000,711966.700,179107.500,712482.200,189517.900,0.000
196105.500,218422.500,711983.800,408288.600,711957.800,178989.500,712473.100,189432.000,0.000
195721.200,218132.700,711972.600,408047.500,711946.900,178701.600,712462.200,189061.400,0.000
195621.900,218088.800,711974.800,408015.400,711948.600,178642.800,712464.100,188921.200,0.000
195945.100,218351.800,711988.300,408224.800,711962.000,178894.000,712477.600,189203.900,0.000
196234.600,218549.900,711990.100,408369.200,711964.000,179097.400,712479.300,189508.600,0.000
196098.900,218417.300,711979.200,408252.100,711952.800,178979.500,712468.100,189421.200,0.000
195720.700,218138.200,711967.800,408019.600,711941.700,178699.600,712457.100,189057.700,0.000
195626.900,218103.300,711972.600,407986.700,711946.400,178650.500,712461.800,188929.600,0.000
195945.100,218359.100,711985.900,408191.200,711959.500,178896.300,712475.500,189211.800,0.000
196233.700,218553.000,711989.100,408340.200,711963.000,179095.200,712479.100,189518.200,0.000
196093.800,218416.300,711977.700,408220.900,711951.800,178979.900,712467.500,189428.900,0.000
195720.400,218142.100,711971.100,407991.000,711945.200,178711.400,712460.800,189073.700,0.000
195616.800,218095.000,711977.100,407952.300,711951.400,178649.300,712466.900,188932.200,0.000
195938.500,218355.000,711987.900,408156.800,711962.400,178894.500,712477.800,189208.900,0.000
196241.300,218561.300,711994.200,408319.100,711968.300,179106.100,712483.900,189526.300,0.000
196100.300,218422.800,711984.000,408188.800,711957.800,178985.900,712473.800,189435.800,0.000
195712.700,218131.800,711973.400,407943.200,711947.000,178702.700,712463.100,189064.800,0.000
195608.900,218084.300,711975.200,407899.500,711948.800,178641.600,712465.300,188919.600,0.000
195925.100,218339.500,711986.100,408104.600,711960.100,178886.500,712475.700,189194.200,0.000
196225.200,218545.900,711993.500,408264.300,711967.800,179097.000,712483.300,189510.800,0.000
196093.000,218417.100,711983.800,408147.100,711958.100,178981.000,712473.800,189426.800,0.000
195697.400,218119.800,711964.100,407896.700,711937.900,178681.700,712453.800,189042.700,0.000
195593.500,218073.400,711964.700,407856.500,711938.600,178620.900,712454.200,188897.800,0.000
195922.600,218339.200,711981.100,408071.100,711955.300,178877.400,712470.600,189186.300,0.000
196233.900,218555.600,711991.300,408238.600,711965.300,179103.800,712480.900,189514.700,0.000
196095.600,218422.100,711981.400,408116.700,711955.600,178988.400,712470.900,189429.400,0.000
195717.300,218143.100,711974.400,407879.000,711948.300,178708.600,712464.100,189068.900,0.000
195615.700,218098.400,711977.400,407839.900,711951.400,178649.100,712466.900,188928.500,0.000
195930.500,218351.000,711987.300,408042.700,711961.200,178892.100,712477.000,189198.100,0.000
196228.700,218551.800,711992.100,408197.400,711965.900,179105.400,712481.400,189510.500,0.000
196091.500,218415.800,711983.800,408075.600,711957.300,178987.200,712472.800,189422.900,0.000
195701.900,218124.300,711972.600,407833.300,711946.300,178701.700,712461.700,189052.000,0.000
195601.200,218080.200,711972.800,407794.200,711946.800,178641.700,712461.900,188909.300,0.000
195920.000,218335.800,711983.800,407997.500,711957.800,178886.200,712473.000,189186.300,0.000
196217.300,218538.000,711990.400,408161.800,711964.100,179098.000,712479.700,189504.000,0.000
196083.900,218408.200,711982.600,408044.600,711956.500,178985.100,712472.000,189423.600,0.000
195696.200,218118.300,711971.600,407798.500,711945.800,178697.600,712461.300,189053.800,0.000
195589.700,218069.100,711973.600,407757.400,711947.200,178636.800,712463.100,188907.800,0.000
195915.900,218332.600,711986.800,407971.700,711960.400,178891.700,712476.100,189190.400,0.000
196213.300,218530.400,711989.800,408133.300,711964.000,179095.900,712479.300,189499.500,0.000
196071.100,218390.500,711980.200,408007.700,711954.400,178971.800,712469.900,189410.800,0.000
195683.100,218103.100,711969.600,407758.100,711943.500,178685.900,712459.500,189041.700,0.000
195581.400,218060.000,711971.700,407719.800,711945.200,178629.500,712461.000,188902.600,0.000
195907.300,218321.400,711984.900,407926.700,711958.500,178879.900,712474.300,189184.100,0.000
196205.600,218520.400,711991.600,408081.500,711964.900,179089.900,712480.600,189494.200,0.000
196073.500,218392.000,711983.200,407966.400,711956.300,178974.500,712472.400,189413.900,0.000
195686.300,218102.300,711971.300,407724.800,711944.500,178686.300,712460.400,189042.700,0.000
195582.800,218056.000,711972.900,407682.400,711946.400,178624.300,712462.300,188896.600,0.000
195908.500,218315.400,711987.100,407890.600,711960.400,178876.500,712476.400,189183.000,0.000
196210.900,218519.400,711993.900,408050.000,711967.300,179088.400,712483.000,189501.000,0.000
196079.900,218389.200,711985.900,407939.800,711959.300,178977.500,712475.200,189419.200,0.000
195683.200,218093.800,711972.500,407689.800,711946.100,178685.000,712461.700,189039.100,0.000
195581.700,218051.000,711974.400,407651.400,711947.900,178626.000,712463.800,188895.700,0.000
195913.800,218315.700,711988.400,407864.500,711961.800,178881.300,712477.700,189182.400,0.000
196210.900,218517.000,711993.300,408013.700,711966.400,179093.600,712482.100,189492.400,0.000
196071.700,218386.100,711985.800,407892.300,711959.100,178979.700,712474.800,189405.000,0.000
195685.900,218102.700,711977.500,407654.500,711950.800,178701.700,712466.600,189038.000,0.000
195584.600,218058.700,711981.100,407615.800,711954.500,178642.200,712470.400,188895.900,0.000
195908.100,218317.600,711993.500,407824.800,711966.800,178886.700,712482.800,189173.400,0.000
196211.100,218520.100,711996.400,407987.000,711969.600,179097.000,712485.700,189485.700,0.000
196076.200,218388.500,711984.600,407867.300,711957.600,178983.000,712473.700,189398.500,0.000
195689.900,218103.300,711973.800,407621.900,711947.000,178698.500,712462.700,189025.800,0.000
195588.400,218060.800,711977.100,407586.300,711950.400,178639.200,712466.200,188886.600,0.000
195907.200,218318.500,711988.200,407793.200,711961.400,178882.800,712477.800,189165.400,0.000
196204.200,218518.800,711991.100,407946.400,711964.500,179088.900,712480.600,189474.500,0.000
196076.300,218393.200,711983.600,407834.400,711957.400,178977.400,712472.900,189395.500,0.000
195698.200,218115.600,711975.900,407603.700,711949.300,178697.500,712464.900,189035.100,0.000
195601.900,218075.300,711979.800,407566.800,711953.200,178642.500,712468.700,188897.500,0.000
195915.900,218325.300,711991.100,407766.400,711964.400,178887.800,712480.100,189176.100,0.000
196217.900,218532.000,711996.400,407929.700,711970.100,179101.400,712485.800,189494.700,0.000
196088.700,218406.200,711987.100,407813.200,711961.000,178988.000,712476.800,189410.800,0.000
195693.800,218110.200,711973.800,407566.600,711947.500,178693.800,712463.100,189030.800,0.000
195583.000,218059.700,711976.600,407517.700,711950.100,178629.500,712465.800,188882.500,0.000
195911.300,218322.800,711989.800,407731.000,711963.600,178884.000,712479.100,189168.300,0.000
196216.300,218529.400,711996.200,407892.500,711970.100,179101.500,712485.400,189486.800,0.000
196073.200,218385.900,711984.400,407767.900,711958.400,178978.900,712473.600,189393.800,0.000
195678.500,218093.300,711973.800,407523.600,711947.900,178692.000,712463.100,189020.800,0.000
195571.300,218044.200,711975.800,407479.800,711949.900,178629.600,712464.900,188876.100,0.000
195893.700,218302.700,711987.300,407691.200,711961.000,178880.000,712475.900,189158.900,0.000
196201.900,218513.400,711992.300,407858.100,711965.900,179094.500,712481.200,189478.300,0.000
196069.300,218382.900,711984.600,407734.100,711958.400,178979.900,712473.600,189396.300,0.000
195682.000,218096.500,711973.900,407491.300,711947.900,178696.200,712462.400,189026.800,0.000
195570.100,218043.600,711975.900,407450.700,711949.900,178637.500,712464.700,188879.200,0.000
195887.200,218299.800,711987.300,407655.600,711961.300,178884.500,712475.800,189156.100,0.000
196194.600,218511.000,711993.100,407815.300,711967.100,179094.100,712482.100,189474.200,0.000
196066.000,218382.500,711990.300,407701.100,711964.400,178985.000,712479.300,189397.900,0.000
195680.800,218094.800,711980.300,407461.900,711954.300,178700.300,712469.300,189030.300,0.000
195578.600,218053.200,711981.700,407424.700,711955.600,178637.500,712470.600,188888.300,0.000
195894.900,218309.200,711991.300,407627.300,711965.100,178879.000,712480.200,189161.400,0.000
196182.400,218499.900,711991.300,407775.000,711965.100,179079.400,712480.500,189461.800,0.000
196045.000,218366.600,711982.500,407658.500,711956.600,178964.000,712471.800,189375.200,0.000
195673.300,218093.100,711976.300,407428.600,711950.400,178694.300,712465.300,189017.100,0.000
195572.500,218047.500,711979.000,407395.300,711953.400,178637.500,712468.300,188877.900,0.000
195888.200,218303.100,711988.900,407592.500,711963.600,178883.200,712478.700,189155.500,0.000
196190.500,218510.300,711995.600,407746.300,711969.400,179093.900,712484.600,189471.000,0.000
196054.400,218373.100,711984.900,407627.900,711958.600,178974.200,712473.800,189383.500,0.000
195670.400,218084.000,711975.400,407391.200,711949.700,178692.900,712464.700,189014.500,0.000
195557.300,218028.600,711976.500,407348.400,711950.900,178623.900,712466.100,188865.500,0.000
195882.200,218290.800,711988.400,407560.500,711962.900,178870.600,712477.800,189144.400,0.000
196191.800,218500.300,711996.500,407720.300,711970.900,179086.500,712485.800,189465.600,0.000
196053.500,218364.000,711986.700,407597.000,711960.600,178967.200,712475.600,189381.400,0.000
195663.400,218077.500,711974.100,407353.300,711947.900,178682.400,712463.100,189012.400,0.000
195561.000,218030.900,711977.900,407310.800,711952.000,178623.400,712467.300,188870.300,0.000
195879.000,218285.100,711987.500,407510.400,711961.900,178863.900,712477.000,189143.900,0.000
196186.700,218498.400,711994.100,407678.200,711968.100,179083.900,712483.700,189469.200,0.000
196053.300,218372.600,711988.200,407564.200,711962.000,178974.800,712477.200,189390.500,0.000
195666.100,218084.500,711979.000,407327.300,711952.400,178692.200,712467.400,189021.200,0.000
195558.000,218033.100,711977.100,407282.600,711950.600,178628.000,712465.800,188870.500,0.000
195873.100,218286.700,711986.700,407483.300,711960.400,178871.100,712475.800,189143.700,0.000
196179.700,218496.300,711995.100,407645.000,711968.300,179089.600,712484.100,189466.600,0.000
196039.700,218362.600,711986.900,407525.300,711960.100,178970.800,712475.600,189382.800,0.000
195655.300,218077.000,711976.300,407286.200,711949.500,178684.500,712464.700,189010.800,0.000
195549.800,218030.400,711977.100,407247.700,711950.600,178623.600,712466.200,188864.700,0.000
195867.300,218285.800,711986.400,407452.400,711959.900,178870.500,712475.800,189141.700,0.000
196175.000,218493.500,711994.000,407612.500,711968.000,179086.200,712483.200,189466.200,0.000
196035.500,218355.900,711985.300,407490.000,711959.400,178962.900,712474.700,189377.600,0.000
195647.600,218068.000,711974.300,407251.700,711948.300,178676.600,712463.800,189008.600,0.000
195557.600,218035.000,711979.200,407224.300,711953.000,178628.700,712468.300,188879.300,0.000
195881.800,218295.300,711992.300,407437.700,711965.800,178877.200,712481.400,189162.300,0.000
196174.500,218495.500,711995.000,407586.800,711968.600,179080.900,712484.100,189469.100,0.000
196040.900,218367.900,711988.800,407465.900,711962.800,178968.500,712477.800,189388.700,0.000
195654.100,218079.500,711978.400,407222.800,711951.900,178684.900,712467.200,189021.700,0.000
195548.100,218029.600,711981.300,407183.000,711954.300,178625.100,712469.800,188881.000,0.000
195860.600,218280.300,711993.400,407382.900,711966.900,178864.400,712482.400,189152.400,0.000
196164.100,218484.900,711997.600,407539.700,711971.300,179077.300,712486.600,189465.700,0.000
196039.300,218362.400,711993.800,407434.200,711968.200,178975.300,712483.200,189395.200,0.000
195655.400,218080.100,711985.000,407196.900,711958.800,178693.200,712473.900,189030.300,0.000
195546.100,218027.900,711983.300,407151.800,711956.800,178625.900,712472.000,188881.100,0.000
195866.000,218281.000,711992.100,407354.800,711965.900,178868.100,712481.000,189154.200,0.000
196167.000,218483.600,711996.900,407511.100,711970.400,179079.600,712485.900,189465.700,0.000
196028.700,218349.600,711988.100,407392.000,711961.600,178962.300,712477.300,189380.300,0.000
195639.500,218062.600,711977.800,407150.800,711951.400,178676.000,712466.800,189011.900,0.000
195534.800,218015.900,711979.600,407111.500,711953.300,178621.800,712468.700,188869.500,0.000
195857.600,218274.400,711987.100,407315.400,711961.000,178872.200,712476.600,189146.700,0.000
196158.400,218475.200,711990.300,407474.800,711963.900,179078.300,712479.700,189458.400,0.000
196021.600,218340.500,711980.900,407354.700,711954.800,178954.000,712469.900,189369.500,0.000
195633.100,218055.000,711968.400,407113.700,711942.100,178667.300,712457.100,188995.500,0.000
195532.800,218010.600,711970.900,407077.200,711945.000,178610.500,712459.800,188854.500,0.000
195856.600,218267.600,711983.200,407282.300,711956.800,178857.600,712472.100,189135.700,0.000
196159.200,218473.000,711988.900,407441.600,711963.100,179070.000,712477.900,189453.800,0.000
196027.000,218345.200,711982.300,407326.900,711956.300,178959.600,712471.400,189374.700,0.000
195639.100,218055.800,711971.300,407083.600,711945.100,178678.300,712460.400,189005.400,0.000
195544.600,218019.300,711977.700,407049.900,711951.200,178629.700,712466.400,188873.400,0.000
195867.700,218279.400,711990.200,407256.700,711964.000,178877.500,712479.600,189151.400,0.000
196163.700,218478.200,711995.900,407412.300,711969.500,179084.500,712485.100,189463.500,0.000
196027.100,218344.700,711988.800,407294.400,711961.900,178967.000,712477.800,189380.600,0.000
195644.700,218058.100,711978.100,407057.400,711951.800,178683.700,712467.700,189013.600,0.000
195535.800,218008.300,711977.600,407012.300,711951.000,178618.900,712466.700,188864.400,0.000
195852.300,218266.300,711988.600,407213.900,711962.200,178863.200,712477.600,189139.600,0.000
196155.700,218474.400,711995.800,407373.300,711969.500,179073.400,712484.700,189454.400,0.000
196022.000,218342.800,711986.100,407258.900,711959.900,178957.100,712475.200,189374.000,0.000
195634.700,218056.000,711976.900,407021.000,711950.500,178676.600,712465.800,189006.900,0.000
195535.700,218008.900,711980.500,406987.100,711953.800,178619.700,712469.100,188867.600,0.000
195856.600,218264.300,711992.600,407190.600,711966.300,178867.400,712481.400,189147.900,0.000
196150.300,218464.300,711997.300,407346.600,711971.600,179078.900,712486.600,189459.800,0.000
196019.600,218338.800,711989.300,407233.300,711963.700,178966.800,712478.300,189381.500,0.000
195627.800,218046.000,711978.100,406988.600,711951.800,178677.800,712466.700,189008.900,0.000
195524.200,217999.800,711980.100,406953.500,711953.500,178620.800,712468.800,188870.700,0.000
195851.600,218265.400,711993.500,407169.800,711967.400,178877.800,712482.400,189159.000,0.000
196156.500,218473.600,711998.100,407332.300,711972.000,179091.500,712487.000,189473.800,0.000
196020.700,218340.000,711989.100,407214.100,711962.800,178971.600,712478.300,189384.900,0.000
195625.600,218045.800,711975.000,406958.500,711948.400,178677.300,712464.100,189005.700,0.000
195525.800,218004.800,711978.600,406920.800,711951.800,178621.700,712467.500,188865.900,0.000
195847.000,218263.700,711990.100,407129.300,711963.600,178866.400,712479.300,189145.400,0.000
196147.300,218469.500,711994.000,407291.000,711967.400,179077.900,712483.000,189462.600,0.000
196013.500,218340.700,711987.600,407173.200,711960.700,178962.500,712476.400,189380.300,0.000
195623.900,218053.300,711977.200,406931.800,711950.600,178676.200,712466.300,189010.200,0.000
195521.100,218004.700,711977.800,406893.900,711951.100,178613.200,712466.400,188867.500,0.000
195843.000,218264.300,711988.100,407099.800,711961.800,178859.800,712477.100,189148.600,0.000
196149.000,218476.200,711995.800,407263.700,711969.200,179075.500,712484.300,189469.700,0.000
196015.500,218344.600,711987.100,407149.800,711960.400,178960.500,712475.200,189383.700,0.000
195626.000,218055.300,711976.500,406900.000,711949.500,178677.300,712464.700,189012.700,0.000
195519.700,218008.300,711980.200,406858.000,711953.200,178615.800,712468.400,188871.000,0.000
195841.300,218269.400,711993.300,407070.200,711966.900,178867.100,712482.100,189154.200,0.000
196139.800,218473.000,711998.900,407229.000,711972.600,179082.500,712488.100,189469.200,0.000
196006.400,218341.400,711989.300,407112.900,711962.800,178968.100,712478.300,189384.600,0.000
195624.200,218054.300,711980.500,406869.900,711953.900,178683.400,712469.400,189017.700,0.000
195519.500,218005.000,711981.100,406825.400,711954.300,178618.200,712469.500,188871.400,0.000
195845.900,218267.600,711993.600,407040.600,711966.800,178872.200,712482.400,189153.900,0.000
196146.200,218470.800,712000.400,407198.600,711973.600,179085.800,712488.700,189471.400,0.000
196005.400,218331.600,711992.500,407079.200,711966.200,178965.500,712481.200,189387.000,0.000
195622.900,218051.700,711983.800,406843.700,711957.600,178683.700,712472.400,189025.400,0.000
195515.700,218005.600,711982.100,406797.000,711956.400,178616.800,712471.000,188876.500,0.000
195835.900,218261.400,711992.900,407002.100,711967.000,178860.100,712481.900,189150.100,0.000
196138.600,218464.400,712000.300,407163.000,711974.100,179069.000,712489.300,189465.600,0.000
196001.500,218331.800,711989.400,407045.200,711962.900,178952.100,712478.300,189381.300,0.000
195614.000,218047.500,711977.700,406798.800,711951.100,178671.300,712466.900,189012.900,0.000
195510.200,218000.800,711977.700,406756.500,711951.400,178611.600,712466.800,188869.400,0.000
195832.600,218259.300,711991.500,406966.300,711965.100,178861.300,712480.900,189153.300,0.000
196137.700,218467.600,711996.900,407130.600,711970.400,179077.100,712486.100,189475.400,0.000
196004.400,218335.300,711987.300,407008.100,711960.700,178962.000,712476.400,189392.100,0.000
195613.300,218044.400,711974.800,406761.600,711948.600,178673.300,712463.900,189018.200,0.000
195504.400,217991.800,711974.400,406717.400,711948.000,178607.000,712463.600,188869.400,0.000
195830.200,218251.800,711987.100,406930.100,711960.700,178858.800,712476.300,189149.900,0.000
196139.400,218462.600,711995.100,407094.700,711968.600,179079.200,712484.100,189472.900,0.000
196005.100,218331.800,711987.700,406977.700,711961.100,178963.000,712476.400,189391.100,0.000
195617.700,218046.600,711975.800,406735.600,711949.400,178675.300,712464.700,189022.300,0.000
195516.400,218003.200,711976.500,406695.700,711950.100,178619.000,712465.600,188882.400,0.000
195838.000,218257.500,711988.800,406903.200,711962.400,178865.000,712477.600,189158.500,0.000
196145.300,218463.500,711996.400,407071.400,711970.300,179080.600,712485.400,189476.800,0.000
196006.100,218325.100,711985.400,406939.000,711958.600,178958.500,712474.100,189388.200,0.000
195621.000,218039.800,711973.400,406701.600,711946.800,178673.900,712462.400,189021.900,0.000
195515.700,217990.700,711977.800,406662.600,711951.600,178616.500,712467.200,188879.800,0.000
195836.000,218249.800,711990.100,406868.300,711963.900,178862.300,712479.300,189158.000,0.000
196130.800,218445.500,711992.100,407022.300,711965.500,179068.400,712480.900,189465.200,0.000
195994.000,218314.100,711982.700,406904.200,711956.100,178956.400,712471.600,189379.500,0.000
195609.300,218028.100,711973.600,406661.800,711947.200,178679.900,712462.400,189012.300,0.000
195500.100,217972.100,711974.800,406616.600,711948.700,178609.100,712463.600,188861.000,0.000
195825.500,218233.100,711988.100,406831.700,711962.200,178858.800,712476.800,189149.200,0.000
196129.000,218442.200,711996.400,406994.000,711970.400,179076.300,712485.900,189471.500,0.000
195992.700,218313.000,711987.100,406879.400,711961.100,178962.000,712476.400,189388.000,0.000
195614.800,218035.600,711975.400,406642.000,711949.500,178679.500,712464.600,189024.100,0.000
195505.400,217982.800,711976.700,406589.600,711950.800,178615.100,712465.400,188876.600,0.000
195828.200,218241.300,711988.800,406796.000,711962.400,178864.000,712477.600,189154.800,0.000
196125.800,218443.500,711991.300,406952.100,711964.900,179073.600,712480.400,189466.900,0.000
195987.500,218308.200,711981.500,406836.400,711955.300,178956.200,712470.600,189384.400,0.000
195590.800,218011.400,711970.400,406590.800,711943.900,178667.200,712459.500,189011.600,0.000
195494.600,217973.800,711974.500,406556.600,711947.500,178611.500,712463.500,188875.300,0.000
195819.300,218234.900,711989.200,406767.000,711962.300,178861.400,712477.900,189158.400,0.000
196115.600,218434.300,711993.600,406921.200,711967.000,179068.700,712482.600,189471.200,0.000
195980.700,218302.200,711985.000,406803.800,711958.400,178956.600,712473.900,189390.900,0.000
195595.100,218018.100,711974.100,406565.600,711947.600,178674.300,712462.900,189024.500,0.000
195482.200,217965.400,711974.300,406524.500,711947.600,178608.900,712463.100,188872.400,0.000
195802.000,218223.100,711986.100,406731.400,711959.700,178856.300,712474.900,189154.200,0.000
196108.500,218434.300,711994.200,406891.300,711967.600,179072.800,712483.400,189477.100,0.000
195970.400,218300.300,711984.400,406773.400,711957.600,178952.500,712473.300,189389.800,0.000
195589.900,218018.400,711975.900,406537.300,711949.300,178672.100,712465.200,189025.900,0.000
195482.400,217967.200,711975.900,406486.100,711949.100,178605.000,712464.900,188875.000,0.000
195803.000,218222.000,711983.200,406692.800,711956.600,178847.600,712472.300,189146.400,0.000
196105.600,218428.600,711986.600,406853.300,711960.300,179060.300,712475.600,189462.800,0.000
195974.800,218300.300,711978.900,406739.200,711952.400,178948.500,712467.800,189384.600,0.000
195584.600,218006.700,711966.100,406496.700,711939.400,178663.000,712455.300,189008.900,0.000
195478.600,217956.700,711967.900,406457.000,711940.900,178597.800,712456.900,188861.800,0.000
195802.300,218219.200,711980.600,406666.400,711953.500,178845.400,712469.400,189142.900,0.000
196108.200,218430.700,711988.700,406828.600,711961.900,179061.900,712477.400,189463.000,0.000
195973.200,218297.600,711978.800,406713.900,711952.200,178942.800,712467.600,189374.900,0.000
195590.500,218013.000,711967.600,406474.700,711941.200,178659.500,712456.400,189005.100,0.000
195490.700,217970.900,711970.900,406435.300,711944.500,178603.200,712459.800,188863.400,0.000
195809.400,218228.000,711983.800,406643.200,711957.900,178854.300,712473.000,189144.600,0.000
196101.200,218423.300,711986.600,406791.300,711960.300,179057.700,712475.600,189449.700,0.000
195962.900,218289.900,711978.800,406674.000,711952.100,178939.000,712467.600,189361.100,0.000
195579.400,218005.500,711969.900,406435.300,711943.400,178655.400,712459.000,188995.500,0.000
195474.400,217955.600,711972.000,406395.000,711945.600,178593.800,712460.800,188851.300,0.000
195798.000,218215.300,711984.300,406606.400,711957.400,178841.600,712472.700,189131.800,0.000
196104.700,218427.100,711991.300,406771.700,711964.800,179060.400,712480.100,189453.400,0.000
195969.800,218293.800,711983.000,406656.300,711956.100,178945.500,712471.600,189372.200,0.000
195580.700,218001.600,711972.600,406415.800,711945.600,178660.300,712461.200,189003.800,0.000
195473.500,217955.100,711975.200,406374.800,711948.600,178598.800,712464.300,188863.400,0.000
195793.300,218214.900,711987.100,406578.000,711960.300,178843.300,712475.800,189143.600,0.000
196090.900,218416.200,711991.500,406732.500,711964.900,179053.900,712480.100,189455.000,0.000
195957.200,218288.000,711981.800,406616.200,711955.300,178942.600,712470.600,189367.700,0.000
195575.000,218004.000,711971.100,406380.600,711944.300,178663.400,712459.900,188997.100,0.000
195470.400,217955.700,711972.800,406336.700,711946.200,178602.700,712461.600,188854.000,0.000
