EEG 1, EEG 2, EEG 3, EEG 4, EEG 5, EEG 6, EEG 7, EEG 8, TRIG
750000.100,750000.100,750000.100,750000.100,750000.100,750000.100,750000.100,750000.100,0.000
706994.200,750000.100,750000.100,750000.100,677121.000,750000.100,750000.100,750000.100,0.000
603492.800,639915.100,750000.100,750000.100,580949.700,719706.200,750000.100,692539.600,0.000
516836.200,547466.400,750000.100,750000.100,499923.600,620332.900,676710.600,597489.800,0.000
460722.000,487963.200,750000.100,750000.100,447430.800,556187.100,607571.300,536138.300,0.000
437524.100,463191.700,750000.100,750000.100,426151.900,530348.900,580118.600,511629.900,0.000
422058.500,446238.000,750000.100,750000.100,412057.800,512945.800,562068.900,495264.000,0.000
408231.700,431120.600,750000.100,750000.100,399506.000,497457.400,546179.300,480695.600,0.000
394566.600,416713.200,750000.100,750000.100,387119.800,482467.400,530584.300,466466.800,0.000
381631.900,403358.800,750000.100,750000.100,375226.600,468190.400,515445.900,452815.400,0.000
370809.600,391990.400,750000.100,750000.100,365084.800,455773.000,502296.600,440979.400,0.000
362184.500,382561.300,750000.100,750000.100,356914.900,445464.600,491641.200,431252.100,0.000
354191.200,373845.600,750000.100,750000.100,349434.500,436054.900,482072.100,422398.200,0.000
345687.000,365007.600,750000.100,750000.100,341555.500,426446.800,472087.600,413248.200,0.000
337289.900,356511.100,750000.100,750000.100,333668.900,416936.400,461948.600,404115.200,0.000
330358.200,349312.500,750000.100,750000.100,326981.600,408666.400,453144.000,396219.800,0.000
325029.200,343441.100,750000.100,750000.100,321758.400,401937.500,446220.800,389891.900,0.000
319979.400,337905.700,750000.100,750000.100,316918.500,395733.200,439974.300,384074.500,0.000
314215.100,331984.400,750000.100,750000.100,311501.300,389086.300,433083.500,377744.800,0.000
308293.800,326089.900,750000.100,750000.100,305859.000,382280.200,425790.100,371196.000,0.000
303529.200,321178.800,750000.100,750000.100,301152.600,376417.300,419514.700,365592.000,0.000
300091.300,317328.100,750000.100,750000.100,297662.100,371812.400,414802.700,361273.800,0.000
296758.000,313609.100,750000.100,750000.100,294398.500,367540.200,410555.800,357281.000,0.000
292617.100,309382.800,750000.100,750000.100,290467.100,362708.700,405555.600,352671.000,0.000
288231.500,305083.100,750000.100,750000.100,286242.100,357623.100,400067.500,347755.800,0.000
284819.600,301589.300,750000.100,750000.100,282796.600,353305.300,395413.400,343619.100,0.000
282553.000,298976.200,750000.100,750000.100,280410.000,350065.700,392128.900,340601.500,0.000
280308.400,296407.300,750000.100,750000.100,278160.600,347051.800,389192.700,337806.800,0.000
277213.200,293263.500,750000.100,750000.100,275204.300,343420.200,385447.600,334342.700,0.000
273808.500,289969.700,750000.100,750000.100,271906.500,339470.800,381157.000,330515.200,0.000
271267.300,287382.200,750000.100,750000.100,269292.900,336183.400,377584.700,327362.600,0.000
269783.300,285600.200,750000.100,750000.100,267652.700,333873.600,375265.300,325229.600,0.000
268274.900,283805.800,750000.100,750000.100,266105.900,331732.800,373234.600,323265.600,0.000
265906.800,281414.800,750000.100,750000.100,263844.700,328957.100,370385.300,320619.600,0.000
263180.500,278820.600,750000.100,750000.100,261196.900,325811.700,366942.200,317564.600,0.000
261250.200,276867.300,750000.100,750000.100,259175.600,323257.800,364149.500,315116.400,0.000
260307.400,275655.900,750000.100,750000.100,258062.300,321610.600,362524.600,313612.800,0.000
259304.500,274397.300,750000.100,750000.100,257010.100,320088.000,361138.800,312237.800,0.000
257436.000,272523.500,750000.100,750000.100,255236.200,317912.700,358920.400,310166.500,0.000
255208.800,270440.800,750000.100,750000.100,253069.000,315356.800,356101.400,307673.700,0.000
253715.600,268940.000,750000.100,750000.100,251476.500,313340.300,353873.200,305734.100,0.000
253161.300,268142.700,750000.100,750000.100,250747.100,312179.900,352757.100,304692.800,0.000
252526.800,267275.600,750000.100,750000.100,250053.700,311113.000,351846.600,303751.200,0.000
251029.200,265787.700,750000.100,750000.100,248638.000,309386.700,350098.300,302105.300,0.000
249151.600,264065.100,750000.100,750000.100,246817.500,307259.000,347737.400,300025.600,0.000
247972.000,262891.800,750000.100,750000.100,245534.500,305630.700,345920.200,298456.500,0.000
247696.800,262387.800,750000.100,750000.100,245083.800,304828.900,345173.300,297752.300,0.000
247334.200,261808.300,750000.100,750000.100,244659.800,304102.500,344611.600,297130.500,0.000
246105.800,260599.500,750000.100,750000.100,243509.700,302709.200,343210.700,295800.200,0.000
244490.800,259146.700,750000.100,750000.100,241946.600,300903.600,341186.600,294024.200,0.000
243551.900,258221.400,750000.100,750000.100,240904.500,299578.400,339688.200,292744.800,0.000
243496.900,257951.300,750000.100,750000.100,240672.700,299052.300,339226.700,292300.600,0.000
243348.200,257597.600,750000.100,750000.100,240459.900,298596.900,338943.800,291931.900,0.000
242323.800,256600.400,748275.400,748777.200,239512.200,297460.300,337811.800,290846.600,0.000
240904.300,255347.500,746402.300,746903.300,238144.300,295901.300,336045.300,289304.800,0.000
240150.500,254613.500,744690.800,745190.800,237290.400,294810.200,334789.700,288244.400,0.000
240249.300,254510.500,743109.000,743608.600,237225.300,294493.400,334547.800,287997.700,0.000
240241.300,254306.400,741560.400,742059.300,237160.300,294223.900,334456.600,287806.500,0.000
239378.100,253480.200,740022.400,740520.400,236376.400,293289.200,333531.400,286912.300,0.000
238115.700,252393.500,738561.500,739058.500,235170.700,291932.900,331978.400,285561.700,0.000
237497.200,251801.600,737238.400,737735.600,234454.300,291020.100,330911.700,284671.800,0.000
237717.700,251824.200,736023.100,736519.900,234509.200,290859.800,330832.800,284574.500,0.000
237825.700,251742.600,734825.300,735321.600,234564.700,290746.100,330901.000,284529.600,0.000
237083.700,251037.500,733622.200,734117.800,233901.300,289966.400,330135.600,283783.900,0.000
235936.200,250068.000,732477.700,732972.800,232811.300,288755.300,328733.200,282574.300,0.000
235421.500,249592.200,731457.800,731952.900,232208.200,287983.400,327810.300,281817.300,0.000
235738.800,249720.100,730529.300,731024.500,232366.300,287956.500,327866.800,281844.900,0.000
235945.100,249744.400,729605.900,730100.800,232520.700,287969.000,328063.300,281921.600,0.000
235299.300,249144.200,728664.800,729159.800,231959.600,287317.300,327428.900,281295.700,0.000
234244.600,248270.500,727769.600,728264.900,230964.600,286227.300,326151.600,280198.300,0.000
233812.900,247877.000,726983.200,727478.800,230439.200,285561.800,325337.200,279539.500,0.000
234197.100,248076.500,726275.600,726771.400,230661.900,285625.300,325483.500,279650.800,0.000
234479.300,248179.800,725562.900,726059.600,230891.700,285736.100,325781.200,279818.800,0.000
233910.900,247657.000,724824.300,725321.100,230406.300,285181.700,325248.600,279285.600,0.000
232931.200,246860.500,724122.400,724619.900,229489.900,284187.200,324073.400,278283.300,0.000
232561.500,246532.200,723520.100,724018.100,229032.000,283604.000,323349.800,277706.500,0.000
233002.700,246791.100,722986.300,723485.300,229315.300,283742.300,323576.000,277891.300,0.000
233339.000,246951.800,722438.600,722941.200,229604.500,283928.200,323949.500,278130.600,0.000
232822.300,246484.600,721848.600,722356.800,229175.600,283448.600,323492.300,277666.200,0.000
231894.000,245740.800,721284.500,721798.800,228308.000,282524.200,322388.500,276726.300,0.000
231582.000,245474.900,720818.300,721338.800,227910.600,282019.000,321740.700,276219.700,0.000
232065.300,245783.200,720416.300,720943.100,228249.700,282228.700,322037.800,276467.700,0.000
232441.300,245990.300,719991.500,720524.100,228579.000,282472.900,322471.000,276758.300,0.000
231978.600,245582.300,719522.700,720063.000,228198.700,282056.200,322079.500,276353.500,0.000
231102.100,244889.300,719079.200,719627.900,227386.900,281198.300,321042.800,275477.800,0.000
230826.800,244657.900,718721.400,719278.600,227027.200,280743.400,320446.700,275022.700,0.000
231353.000,245009.900,718422.500,718987.400,227402.500,281003.700,320794.800,275321.200,0.000
231768.600,245257.600,718097.200,718671.300,227777.300,281305.000,321283.200,275667.500,0.000
231337.100,244877.300,717715.900,718303.800,227433.500,280934.400,320936.900,275307.600,0.000
230483.400,244209.000,717124.400,717953.600,226649.100,280115.800,319938.400,274467.300,0.000
230227.800,244003.100,714793.600,717675.900,226315.300,279701.300,319379.500,274043.900,0.000
230782.600,244388.200,711325.400,717460.000,226721.600,280002.700,319765.900,274377.800,0.000
231220.400,244655.900,707935.900,717217.800,227119.800,280337.800,320287.600,274756.500,0.000
230812.700,244301.800,704070.900,716924.100,226801.200,280001.800,319976.500,274430.400,0.000
229997.800,243676.000,699947.900,716646.900,226052.400,279225.700,319023.800,273635.300,0.000
229768.900,243499.600,696367.600,716446.300,225747.300,278846.300,318499.500,273247.800,0.000
230339.800,243900.800,693557.900,716301.400,226175.600,279181.300,318917.900,273611.200,0.000
230799.100,244195.600,690693.000,716121.100,226602.300,279551.100,319472.100,274019.400,0.000
230404.000,243856.900,687175.400,715884.000,226302.000,279237.200,319179.900,273712.900,0.000
229585.400,243226.800,683668.800,715659.200,225555.300,278469.000,318228.400,272919.100,0.000
229371.200,243066.200,680720.000,715510.100,225264.900,278106.800,317718.800,272545.900,0.000
229955.600,243482.300,678505.500,715411.900,225711.600,278460.100,318152.700,272927.500,0.000
230428.400,243788.200,676298.800,715277.300,226150.200,278847.500,318720.900,273351.500,0.000
230060.100,243472.100,673450.800,715085.800,225873.700,278566.400,318460.700,273076.300,0.000
229284.100,242886.300,670265.800,714906.900,225164.400,277844.400,317556.000,272329.700,0.000
229083.400,242737.500,667566.300,714798.400,224887.300,277505.900,317069.300,271975.400,0.000
229675.000,243162.100,665599.700,714736.300,225337.600,277874.900,317517.900,272369.500,0.000
230158.700,243483.000,663643.700,714636.400,225791.500,278279.300,318105.100,272813.000,0.000
229805.800,243187.700,661045.600,714476.900,225534.200,278019.300,317863.600,272557.400,0.000
229038.400,242609.100,658101.400,714328.000,224838.200,277316.100,316975.600,271825.900,0.000
228854.800,242478.600,655649.600,714252.800,224583.900,277007.500,316517.500,271502.800,0.000
229458.900,242915.700,653918.800,714218.200,225047.300,277393.800,316980.100,271913.700,0.000
229962.200,243257.000,652195.700,714144.600,225511.900,277816.200,317582.400,272370.300,0.000
229609.100,242958.600,649813.900,714008.600,225258.300,277564.500,317348.800,272119.200,0.000
228827.300,242362.800,647069.700,713879.200,224553.100,276854.400,316453.700,271380.300,0.000
228657.000,242245.300,644833.400,713822.600,224305.800,276555.700,316001.100,271065.600,0.000
229270.000,242692.500,643311.800,713808.300,224781.500,276956.400,316474.400,271489.200,0.000
229776.200,243038.700,641791.600,713753.400,225254.600,277391.800,317086.300,271956.700,0.000
229433.800,242751.500,639616.300,713639.200,225014.600,277158.400,316868.900,271725.200,0.000
228667.400,242174.900,637072.300,713526.800,224322.800,276467.800,315990.800,271003.900,0.000
228496.000,242057.600,635015.300,713485.900,224075.600,276175.200,315544.600,270692.500,0.000
229118.600,242516.800,633679.500,713490.000,224561.900,276591.500,316034.400,271131.800,0.000
229631.500,242868.200,632339.000,713453.500,225043.900,277040.100,316660.100,271612.100,0.000
229294.900,242588.200,630336.100,713354.700,224809.500,276814.100,316453.000,271385.300,0.000
228532.100,242016.500,627963.900,713257.100,224130.400,276134.700,315589.400,270677.900,0.000
228358.400,241897.200,626072.800,713230.400,223891.900,275850.800,315153.300,270378.300,0.000
228988.700,242364.300,624898.600,713246.200,224379.500,276272.000,315649.200,270821.400,0.000
229503.400,242717.400,623715.400,713220.500,224863.400,276725.300,316278.400,271305.900,0.000
229172.100,242440.000,621869.000,713131.100,224634.100,276508.400,316078.500,271089.000,0.000
228421.300,241879.700,619655.300,713045.400,223962.300,275843.200,315225.300,270391.500,0.000
228249.700,241768.400,617912.900,713028.400,223728.000,275563.800,314793.800,270096.300,0.000
228870.600,242224.700,616877.100,713054.200,224218.000,275987.200,315286.700,270542.500,0.000
229402.000,242593.800,615841.400,713037.500,224716.000,276455.200,315926.500,271043.300,0.000
229077.400,242325.600,614133.700,712953.900,224493.000,276248.000,315733.300,270837.800,0.000
228322.500,241763.500,612048.800,712875.300,223820.200,275583.300,314879.600,270147.900,0.000
228156.000,241655.900,610436.300,712866.300,223589.000,275312.200,314452.400,269868.100,0.000
228782.300,242120.700,609529.800,712898.800,224082.700,275741.500,314952.500,270327.200,0.000
229302.000,242480.100,608614.300,712888.300,224579.900,276209.500,315595.800,270836.200,0.000
228983.300,242216.800,607029.400,712812.800,224361.400,276007.300,315411.200,270645.000,0.000
228237.300,241659.300,605066.100,712739.400,223695.500,275349.000,314565.900,269967.300,0.000
228072.600,241553.400,603571.300,712734.400,223467.300,275080.400,314147.400,269693.800,0.000
228703.000,242024.600,602780.600,712770.000,223964.000,275516.400,314656.100,270160.700,0.000
229226.900,242389.400,601978.200,712765.700,224458.600,275987.700,315304.600,270673.200,0.000
228899.800,242121.000,600499.800,712694.700,224240.600,275786.900,315123.300,270481.300,0.000
228154.200,241565.000,598644.000,712626.200,223577.600,275133.300,314286.000,269806.000,0.000
227995.000,241460.100,597256.000,712626.800,223351.800,274868.500,313871.400,269533.300,0.000
228629.600,241929.300,596569.900,712668.400,223854.100,275308.600,314384.700,270002.500,0.000
229164.700,242303.600,595874.600,712669.900,224361.500,275792.500,315046.300,270523.000,0.000
228852.200,242050.700,594506.800,712605.500,224157.000,275607.900,314883.600,270344.100,0.000
228095.600,241484.700,592738.900,712539.900,223487.800,274950.100,314040.400,269660.600,0.000
227923.200,241367.200,591430.300,712540.800,223252.200,274678.700,313612.300,269376.200,0.000
228558.400,241842.100,590835.400,712585.200,223753.400,275122.600,314123.800,269845.100,0.000
229087.100,242210.800,590224.200,712585.400,224256.900,275601.300,314776.600,270358.600,0.000
228772.700,241954.300,588936.700,712518.100,224047.300,275411.900,314602.600,270170.700,0.000
228027.800,241404.300,587258.100,712450.600,223386.600,274763.400,313766.300,269493.500,0.000
227862.500,241296.400,586039.400,712449.900,223158.900,274497.700,313346.100,269215.600,0.000
228497.400,241764.800,585524.700,712496.800,223660.800,274941.300,313858.600,269684.200,0.000
229034.100,242139.200,584995.900,712501.600,224166.900,275425.000,314516.600,270202.900,0.000
228718.600,241879.700,583788.100,712435.300,223958.500,275239.700,314346.500,270020.500,0.000
227976.700,241329.900,582191.400,712368.800,223301.600,274596.700,313516.600,269351.100,0.000
227807.700,241222.200,581043.800,712370.400,223072.900,274333.000,313096.400,269071.800,0.000
228436.500,241689.300,580600.100,712414.900,223573.600,274774.200,313605.400,269536.400,0.000
228968.800,242059.300,580143.500,712417.600,224079.600,275258.900,314262.800,270054.800,0.000
228661.600,241808.500,579010.400,712355.300,223876.000,275080.200,314098.000,269876.700,0.000
227918.800,241256.800,577479.900,712292.800,223217.500,274435.100,313266.200,269203.300,0.000
227757.000,241152.600,576408.700,712298.400,222994.400,274175.000,312851.800,268929.100,0.000
228390.800,241627.100,576033.200,712345.800,223498.300,274622.700,313365.300,269398.200,0.000
228923.200,241997.800,575640.900,712350.600,224006.400,275109.800,314023.400,269915.200,0.000
228618.700,241750.100,574578.200,712289.100,223813.000,274939.200,313868.400,269741.500,0.000
227877.000,241198.200,573111.000,712225.600,223155.600,274298.500,313039.800,269069.800,0.000
227714.000,241093.600,572097.700,712229.000,222931.000,274042.200,312627.800,268797.100,0.000
228350.600,241570.500,571784.600,712278.400,223437.800,274493.200,313145.300,269270.800,0.000
228882.500,241941.300,571447.800,712283.400,223943.100,274978.900,313801.400,269787.300,0.000
228573.300,241689.500,570436.300,712221.900,223741.200,274801.200,313639.600,269611.500,0.000
227836.400,241145.700,569033.900,712159.300,223089.000,274165.300,312816.600,268946.500,0.000
227671.600,241040.400,568076.900,712161.400,222862.900,273907.300,312399.600,268669.300,0.000
228309.600,241519.400,567823.300,712211.000,223370.600,274361.700,312917.400,269145.300,0.000
228844.000,241893.500,567546.100,712215.800,223879.400,274849.600,313579.300,269666.300,0.000
228533.100,241639.300,566586.900,712136.400,223678.000,274669.400,313417.000,269487.100,0.000
227793.900,241093.400,565235.300,711623.700,223030.500,274037.200,312597.800,268824.500,0.000
227633.600,240991.500,564333.900,710209.300,222809.700,273786.400,312190.700,268553.700,0.000
228266.400,241464.700,564123.100,709088.000,223309.900,274234.800,312705.700,269020.100,0.000
228808.300,241848.200,563901.900,707998.300,223827.300,274732.400,313376.500,269546.400,0.000
228508.100,241606.600,563003.300,706112.200,223636.300,274568.000,313226.500,269377.100,0.000
227773.500,241064.300,561700.200,703749.700,222987.500,273939.000,312404.600,268712.900,0.000
227605.200,240957.100,560833.400,701914.300,222757.600,273677.100,311981.800,268430.300,0.000
228226.300,241418.600,560658.700,700932.700,223249.900,274114.900,312482.400,268885.500,0.000
228763.600,241791.500,560479.300,700029.800,223764.600,274609.900,313147.200,269408.500,0.000
228464.400,241547.400,559622.300,698386.400,223577.200,274447.100,312999.400,269241.300,0.000
227730.500,241005.600,558361.400,696233.600,222930.000,273818.800,312181.600,268577.900,0.000
227561.700,240897.000,557536.900,694528.800,222697.400,273555.800,311758.200,268293.100,0.000
228198.600,241372.600,557417.800,693655.800,223202.600,274008.100,312274.300,268762.600,0.000
228739.400,241753.500,557287.100,692850.300,223724.600,274514.500,312952.700,269299.400,0.000
228426.500,241497.900,556458.700,691282.700,223524.800,274343.200,312795.100,269126.000,0.000
227692.000,240959.100,555235.700,689211.900,222874.400,273712.400,311975.400,268464.000,0.000
227529.400,240855.300,554459.900,687597.400,222655.600,273462.100,311567.300,268196.200,0.000
228161.300,241327.100,554374.000,686799.400,223161.500,273916.600,312085.600,268669.800,0.000
228705.300,241713.400,554278.400,686067.900,223680.000,274420.300,312759.400,269202.000,0.000
228401.300,241464.400,553491.200,684788.300,223485.000,274254.400,312608.000,269034.200,0.000
227658.900,240913.300,552277.500,683237.900,222826.300,273619.000,311780.700,268366.900,0.000
227489.100,240804.200,551507.500,681973.200,222600.500,273366.000,311368.400,268097.700,0.000
228123.500,241278.900,551435.900,681493.800,223105.200,273817.800,311883.300,268570.000,0.000
228657.000,241649.500,551344.000,681061.100,223618.400,274315.500,312548.700,269097.000,0.000
228358.200,241404.600,550574.600,679873.300,223424.600,274150.700,312396.000,268930.400,0.000
227622.800,240859.800,549402.900,678167.300,222775.300,273522.300,311577.400,268271.600,0.000
227451.500,240748.300,548666.100,676896.100,222547.500,273263.200,311159.600,267994.800,0.000
228074.000,241210.700,548621.300,676431.100,223045.200,273706.100,311664.100,268457.900,0.000
228629.700,241606.500,548587.600,676047.700,223578.300,274221.900,312348.600,269003.800,0.000
228324.100,241356.500,547851.100,674890.400,223383.200,274054.800,312196.300,268835.900,0.000
227585.300,240809.800,546712.300,673217.100,222732.900,273425.600,311375.000,268174.700,0.000
227417.800,240700.900,546014.900,671987.000,222509.200,273173.200,310960.400,267904.000,0.000
228056.400,241177.900,546013.600,671569.100,223015.300,273628.300,311480.600,268377.800,0.000
228605.300,241566.000,546002.000,671211.800,223541.600,274137.300,312161.100,268916.500,0.000
228307.700,241324.500,545306.100,670101.100,223355.200,273980.400,312019.000,268757.200,0.000
227554.100,240761.500,544184.400,668448.900,222691.800,273337.200,311187.200,268081.600,0.000
227384.000,240650.300,543513.900,667250.000,222463.900,273081.500,310770.000,267805.500,0.000
228024.200,241130.900,543548.500,666875.800,222975.800,273542.100,311293.800,268283.900,0.000
228573.700,241519.400,543568.700,666554.700,223499.500,274049.600,311973.000,268820.900,0.000
228275.800,241277.400,542901.800,665476.100,223312.800,273891.800,311830.200,268660.200,0.000
227536.200,240732.800,541820.300,663869.100,222661.100,273260.600,311009.600,267996.900,0.000
227371.300,240627.500,541180.800,662707.900,222437.700,273007.400,310597.500,267725.400,0.000
228001.300,241099.300,541231.500,662357.500,222942.400,273459.200,311113.200,268195.000,0.000
228538.500,241478.700,541267.400,662062.600,223458.500,273959.400,311784.700,268723.000,0.000
228235.800,241231.600,540618.400,661014.000,223266.500,273796.700,311638.000,268559.200,0.000
227497.500,240684.700,539564.300,659449.300,222618.400,273173.100,310823.300,267903.900,0.000
227335.200,240586.100,538954.100,658327.300,222396.700,272926.300,310414.000,267636.200,0.000
227971.400,241065.800,539033.400,658015.800,222903.300,273382.800,310933.300,268109.500,0.000
228519.200,241452.000,539100.700,657764.300,223427.900,273892.000,311613.500,268646.800,0.000
228217.900,241205.000,538476.600,656751.100,223235.500,273729.700,311469.000,268482.200,0.000
227482.900,240663.100,537445.100,655218.600,222589.000,273105.600,310657.200,267824.100,0.000
227310.600,240553.600,536848.100,654123.600,222365.600,272855.800,310244.600,267551.100,0.000
227941.200,241028.500,536943.400,653837.400,222870.200,273308.800,310757.000,268020.600,0.000
228494.200,241421.300,537036.200,653617.900,223396.800,273820.800,311437.300,268560.300,0.000
228204.900,241186.300,536444.100,652643.900,223214.700,273670.100,311300.000,268405.700,0.000
227472.200,240645.200,535438.700,651148.400,222570.500,273049.500,310490.600,267752.700,0.000
227308.800,240538.500,534868.900,650091.400,222347.100,272798.600,310079.300,267483.400,0.000
227943.600,241012.400,534989.800,649843.400,222849.000,273251.500,310594.000,267953.700,0.000
228491.500,241396.200,535097.100,649654.800,223370.500,273759.300,311272.000,268488.100,0.000
228200.000,241158.400,534519.400,648710.500,223184.200,273603.600,311133.000,268327.200,0.000
227471.100,240619.200,533534.800,647247.900,222539.400,272982.100,310324.100,267672.100,0.000
227308.900,240512.500,532984.200,646221.900,222315.700,272733.400,309912.800,267401.300,0.000
227943.100,240982.000,533122.900,646001.000,222818.600,273186.700,310426.100,267869.400,0.000
228495.900,241369.300,533256.100,645845.800,223343.800,273698.100,311107.100,268406.600,0.000
228205.200,241129.600,532701.400,644933.900,223160.000,273547.400,310971.000,268248.300,0.000
227472.400,240586.800,531729.000,643495.300,222511.200,272922.500,310157.800,267589.700,0.000
227298.100,240470.200,531187.000,642491.000,222280.200,272665.800,309740.300,267314.400,0.000
227929.600,240940.400,531342.900,642301.300,222782.000,273119.400,310254.900,267785.000,0.000
228478.300,241331.200,531492.300,642177.900,223309.200,273633.600,310939.100,268325.600,0.000
228184.800,241095.800,530954.900,641297.900,223129.100,273484.300,310804.000,268170.100,0.000
227448.400,240553.400,530002.300,639891.900,222482.000,272865.700,309993.300,267515.800,0.000
227275.300,240443.200,529479.600,638919.600,222250.600,272613.800,309577.300,267243.800,0.000
227899.300,240911.000,529646.700,638753.300,222748.000,273063.600,310085.900,267712.000,0.000
228450.000,241301.800,529812.400,638657.400,223277.400,273579.300,310769.300,268254.600,0.000
228156.700,241065.000,529289.700,637808.300,223096.500,273429.300,310637.700,268102.800,0.000
227412.700,240513.000,528344.400,636422.900,222443.500,272802.100,309822.000,267442.600,0.000
227244.500,240406.500,527840.500,635481.400,222219.600,272554.600,309410.000,267175.500,0.000
227879.900,240885.500,528034.500,635354.000,222729.900,273016.900,309930.900,267656.000,0.000
228423.600,241272.900,528214.600,635282.800,223254.900,273530.700,310613.300,268196.900,0.000
228120.300,241025.800,527702.400,634450.400,223065.800,273376.300,310476.800,268039.500,0.000
227378.900,240480.700,526780.400,633097.800,222420.400,272755.200,309668.500,267388.100,0.000
227208.100,240375.200,526294.200,632180.900,222195.500,272506.300,309258.300,267120.000,0.000
227838.300,240851.100,526499.500,632073.700,222699.700,272965.200,309775.500,267594.000,0.000
228381.200,241236.500,526686.900,632022.500,223218.400,273473.100,310450.200,268127.000,0.000
228084.600,240998.500,526188.800,631218.200,223034.000,273319.200,310311.800,267971.600,0.000
227349.700,240457.200,525280.100,629890.200,222391.000,272698.800,309501.000,267319.200,0.000
227171.100,240343.700,524795.200,628987.000,222156.100,272441.300,309079.300,267040.000,0.000
227786.100,240804.200,524999.400,628890.800,222649.000,272886.400,309584.300,267501.100,0.000
228330.500,241184.200,525202.600,628868.900,223172.100,273397.300,310264.400,268039.700,0.000
228053.000,240960.700,524732.600,628105.500,222999.900,273257.600,310142.500,267896.800,0.000
227322.400,240427.100,523841.800,626805.400,222359.700,272642.800,309337.300,267247.600,0.000
227147.100,240317.300,523377.000,625931.600,222133.000,272392.000,308922.700,266977.900,0.000
227773.800,240789.000,523606.300,625869.600,222637.600,272849.600,309441.300,267453.000,0.000
228323.300,241177.900,523822.800,625869.100,223161.500,273360.600,310125.400,267990.800,0.000
228024.700,240933.600,523349.000,625111.400,222978.400,273206.600,309991.300,267835.300,0.000
227288.900,240390.000,522466.200,623833.800,222339.400,272590.300,309187.400,267186.600,0.000
227113.200,240280.600,522011.000,622984.600,222114.100,272339.100,308774.700,266914.900,0.000
227736.600,240749.700,522248.000,622941.800,222614.400,272793.500,309287.100,267382.800,0.000
228282.800,241135.000,522475.600,622965.600,223135.500,273304.100,309967.100,267920.400,0.000
228001.000,240906.200,522025.200,622241.600,222959.000,273162.000,309842.200,267775.300,0.000
227267.500,240363.600,521156.700,620985.900,222318.000,272547.200,309039.900,267127.500,0.000
227082.600,240242.700,520705.000,620149.400,222082.100,272290.000,308619.000,266848.600,0.000
227708.000,240713.800,520951.400,620129.800,222581.500,272744.000,309132.200,267318.000,0.000
228260.100,241102.900,521192.300,620176.900,223109.800,273261.200,309817.800,267858.900,0.000
227977.000,240871.400,520754.600,619475.300,222937.800,273122.700,309697.200,267716.100,0.000
227243.000,240330.300,519894.800,618240.200,222294.500,272509.400,308893.300,267070.600,0.000
227074.400,240224.400,519467.200,617438.000,222070.900,272263.600,308482.000,266803.900,0.000
227684.600,240675.500,519709.000,617420.200,222553.300,272699.500,308976.200,267257.600,0.000
228235.600,241065.900,519958.700,617482.600,223077.200,273210.800,309656.500,267795.900,0.000
227949.100,240831.600,519528.600,616798.600,222904.000,273067.100,309534.000,267651.100,0.000
227203.300,240279.800,518673.000,615579.700,222260.700,272448.400,308731.800,267001.300,0.000
227029.600,240171.700,518247.500,614791.600,222034.800,272196.300,308321.100,266733.300,0.000
227658.700,240648.200,518515.300,614810.800,222537.500,272649.400,308835.800,267205.600,0.000
228215.000,241046.500,518783.800,614901.400,223068.500,273167.200,309526.800,267754.900,0.000
227935.300,240820.800,518367.100,614241.200,222896.900,273028.400,309408.500,267615.800,0.000
227197.400,240275.700,517525.700,613044.800,222256.800,272415.400,308609.100,266971.000,0.000
227016.300,240158.200,517105.900,612269.600,222025.300,272160.200,308192.800,266699.800,0.000
227654.000,240638.300,517387.400,612311.700,222531.800,272622.400,308713.000,267179.700,0.000
228222.000,241042.400,517671.200,612427.900,223071.100,273151.400,309413.700,267739.800,0.000
227925.600,240797.000,517251.000,611772.600,222887.200,273000.300,309282.600,267595.200,0.000
227180.800,240245.400,516410.300,610584.300,222236.700,272375.600,308472.100,266947.100,0.000
227005.500,240138.800,516001.600,609828.900,222005.400,272123.600,308056.500,266681.700,0.000
227628.100,240606.500,516283.800,609883.800,222501.900,272577.300,308569.000,267159.200,0.000
228179.200,240994.100,516566.100,610009.000,223031.100,273096.600,309260.900,267716.600,0.000
227906.400,240773.500,516172.100,609389.400,222868.300,272965.800,309149.300,267592.300,0.000
227173.100,240234.200,515350.700,608231.700,222233.700,272355.100,308354.600,266959.400,0.000
226985.200,240114.300,514942.500,607485.900,221997.400,272098.200,307936.900,266690.200,0.000
227606.300,240580.200,515232.200,607552.800,222493.600,272550.000,308451.800,267168.300,0.000
228156.900,240969.100,515523.200,607692.000,223022.400,273066.500,309143.500,267723.400,0.000
227872.200,240738.800,515131.700,607082.400,222849.500,272926.700,309029.400,267591.500,0.000
227130.500,240194.000,514313.300,605936.400,222205.900,272309.800,308232.300,266952.500,0.000
226949.000,240081.400,513916.600,605214.100,221974.000,272056.000,307820.700,266686.500,0.000
227574.900,240552.200,514213.900,605301.900,222472.600,272508.400,308336.500,267162.300,0.000
228130.500,240943.700,514509.700,605460.100,223001.900,273025.400,309027.500,267714.600,0.000
227855.600,240716.900,514128.500,604873.600,222837.300,272892.100,308919.400,267586.400,0.000
227122.300,240174.000,513320.200,603744.000,222199.400,272278.600,308122.000,266946.400,0.000
226934.600,240051.100,512924.100,603025.300,221958.900,272016.400,307700.000,266669.400,0.000
227558.700,240520.400,513232.000,603128.400,222457.000,272469.000,308215.600,267145.900,0.000
228117.800,240916.300,513539.500,603303.900,222989.300,272987.100,308907.800,267699.600,0.000
227837.600,240687.700,513163.700,602728.400,222819.000,272848.800,308795.400,267565.000,0.000
227099.500,240142.100,512360.400,601613.700,222174.500,272231.800,307995.400,266921.800,0.000
226915.600,240024.100,511975.300,600915.300,221938.300,271974.100,307575.300,266648.600,0.000
227540.900,240496.400,512286.800,601031.900,222441.100,272427.200,308090.900,267126.000,0.000
228090.700,240884.400,512592.200,601217.000,222969.000,272940.100,308781.100,267675.400,0.000
227811.800,240653.500,512221.900,600656.100,222800.500,272802.900,308669.500,267541.500,0.000
227081.400,240114.000,511429.000,599556.900,222163.800,272192.800,307876.300,266902.700,0.000
226895.900,239994.200,511049.700,598873.300,221927.500,271936.800,307459.700,266628.900,0.000
227514.000,240455.700,511362.000,598995.300,222420.500,272381.000,307966.900,267095.700,0.000
228070.600,240851.100,511684.800,599201.900,222956.800,272901.500,308665.500,267651.700,0.000
227795.000,240626.500,511326.300,598658.500,222792.200,272767.500,308561.000,267520.700,0.000
227053.900,240078.100,510531.200,597564.400,222146.800,272145.000,307760.800,266871.400,0.000
226865.000,239957.300,510152.500,596884.900,221905.100,271878.500,307336.200,266591.000,0.000
227484.400,240420.400,510467.900,597018.300,222396.000,272322.600,307842.300,267057.600,0.000
228049.600,240821.800,510800.900,597241.800,222934.800,272849.700,308543.900,267617.400,0.000
227783.200,240605.600,510457.000,596723.000,222780.200,272727.800,308449.700,267497.600,0.000
227047.100,240065.500,509674.500,595653.400,222145.400,272117.700,307660.600,266859.200,0.000
226847.500,239935.100,509295.500,594984.900,221900.500,271850.600,307234.100,266573.700,0.000
227463.400,240397.400,509615.800,595129.200,222388.400,272291.300,307736.200,267035.000,0.000
228022.900,240794.300,509948.300,595359.900,222921.300,272812.600,308433.000,267586.400,0.000
227747.300,240570.300,509599.500,594842.900,222754.900,272682.500,308326.200,267453.500,0.000
227012.200,240027.900,508821.000,593779.800,222113.600,272070.200,307532.700,266809.800,0.000
226822.500,239902.700,508456.300,593128.000,221874.100,271811.100,307114.000,266530.500,0.000
227448.800,240374.500,508793.900,593296.400,222374.700,272268.000,307631.200,267005.500,0.000
228014.900,240776.400,509137.500,593544.700,222911.500,272794.000,308333.600,267562.300,0.000
227735.200,240549.700,508791.900,593036.500,222742.300,272657.800,308225.300,267427.000,0.000
226991.200,239998.700,508011.000,591976.800,222094.900,272036.300,307423.500,266774.200,0.000
226803.200,239882.000,507651.900,591335.400,221857.100,271775.800,307003.600,266494.100,0.000
227419.500,240346.900,507989.100,591505.900,222350.200,272221.100,307511.800,266958.700,0.000
227984.600,240746.000,508337.200,591761.500,222888.100,272745.100,308212.300,267512.300,0.000
227720.700,240528.800,508008.900,591273.700,222727.300,272619.800,308114.000,267384.400,0.000
226984.100,239982.300,507238.300,590229.400,222079.400,271999.500,307315.300,266731.800,0.000
226792.300,239857.300,506881.600,589596.900,221837.300,271735.600,306890.700,266445.300,0.000
227410.300,240321.100,507222.600,589778.900,222331.300,272183.300,307399.900,266908.800,0.000
227972.500,240719.500,507573.100,590047.900,222866.900,272706.000,308103.100,267463.300,0.000
227703.900,240499.800,507244.200,589570.400,222708.900,272580.100,308005.200,267337.300,0.000
226967.900,239955.500,506477.400,588539.800,222069.100,271965.600,307210.100,266690.100,0.000
226777.600,239834.000,506124.800,587919.400,221831.400,271704.300,306787.700,266405.300,0.000
227392.400,240296.300,506465.800,588106.600,222323.400,272149.300,307291.200,266865.600,0.000
227957.500,240696.100,506822.900,588385.800,222866.000,272676.500,307992.800,267422.800,0.000
227694.700,240484.900,506508.500,587926.600,222716.000,272556.600,307902.800,267303.800,0.000
226952.800,239941.400,505745.000,586904.900,222072.200,271939.200,307107.400,266657.100,0.000
226744.600,239802.600,505380.500,586277.400,221814.700,271660.500,306670.700,266361.600,0.000
227359.500,240262.800,505724.000,586472.700,222302.500,272101.700,307173.000,266822.400,0.000
227932.500,240672.200,506089.400,586765.400,222845.500,272631.800,307878.200,267381.300,0.000
227672.600,240461.200,505779.200,586314.600,222693.200,272513.300,307786.700,267261.900,0.000
226936.000,239918.500,505025.000,585304.400,222049.200,271899.900,306992.900,266618.400,0.000
226738.800,239790.900,504674.400,584696.200,221800.300,271632.100,306563.200,266331.300,0.000
227354.700,240252.200,505021.500,584902.600,222289.100,272074.400,307067.300,266794.600,0.000
227924.600,240656.100,505390.300,585205.000,222831.100,272604.200,307772.700,267356.200,0.000
227658.600,240437.700,505079.300,584758.100,222674.500,272481.000,307677.100,267232.900,0.000
226921.500,239895.600,504327.300,583754.100,222028.900,271866.300,306880.600,266584.500,0.000
226727.700,239773.800,503984.100,583159.800,221783.300,271603.300,306455.200,266299.700,0.000
227345.300,240241.300,504346.000,583380.900,222277.900,272054.700,306964.600,266767.900,0.000
227909.800,240641.400,504718.800,583690.900,222820.800,272584.400,307671.000,267328.800,0.000
227633.500,240409.700,504402.300,583248.100,222660.100,272453.800,307571.600,267199.400,0.000
226894.000,239863.700,503652.700,582250.900,222018.400,271835.600,306777.500,266552.500,0.000
226709.800,239751.700,503323.000,581672.400,221780.200,271577.600,306359.900,266274.200,0.000
227317.100,240206.400,503674.100,581891.300,222261.200,272012.900,306855.300,266727.700,0.000
227878.800,240603.700,504041.500,582200.600,222793.500,272530.500,307550.600,267277.000,0.000
227614.400,240385.300,503740.200,581773.800,222641.300,272410.400,307460.300,267154.800,0.000
226874.600,239835.600,502998.100,580791.800,222002.400,271799.100,306671.900,266511.800,0.000
226685.100,239717.300,502663.300,580215.600,221757.600,271533.800,306247.200,266224.300,0.000
227300.100,240180.300,503022.500,580449.100,222247.800,271977.300,306750.800,266683.900,0.000
227866.500,240579.300,503399.100,580771.800,222786.400,272503.100,307453.700,267240.000,0.000
227603.200,240361.400,503100.200,580350.600,222628.200,272379.200,307359.900,267114.400,0.000
226870.100,239822.100,502363.200,579376.400,221989.100,271768.100,306570.100,266469.300,0.000
226667.600,239691.100,502027.400,578801.900,221742.900,271501.300,306142.300,266178.100,0.000
227277.600,240150.100,502388.000,579036.200,222227.600,271940.500,306641.000,266633.200,0.000
227843.300,240549.600,502767.400,579365.400,222767.700,272465.900,307340.500,267186.400,0.000
227587.900,240338.900,502477.500,578959.000,222618.100,272349.400,307254.500,267067.300,0.000
226845.500,239787.600,501737.200,577988.100,221973.200,271732.000,306460.400,266419.100,0.000
226647.100,239662.000,501405.800,577424.100,221724.700,271464.600,306032.200,266130.400,0.000
227263.500,240129.200,501774.900,577674.300,222213.900,271909.300,306534.400,266591.800,0.000
227831.200,240530.100,502158.700,578016.900,222754.000,272436.700,307238.500,267149.300,0.000
227568.100,240312.000,501867.500,577617.400,222600.900,272317.700,307149.500,267030.600,0.000
226831.200,239769.500,501135.600,576659.200,221962.200,271705.200,306362.800,266388.800,0.000
226634.100,239646.000,500810.200,576104.400,221716.900,271438.300,305938.300,266104.300,0.000
227250.100,240109.700,501184.500,576365.600,222210.000,271884.300,306443.600,266569.400,0.000
227825.400,240521.800,501579.500,576722.300,222756.800,272418.700,307155.500,267134.100,0.000
227560.300,240304.600,501289.100,576326.900,222600.200,272295.900,307065.000,267008.900,0.000
226806.600,239745.600,500546.200,575361.400,221949.100,271670.700,306261.200,266351.300,0.000
226605.600,239615.300,500220.300,574809.400,221704.800,271403.800,305832.500,266063.600,0.000
227220.500,240076.400,500590.800,575068.700,222191.800,271843.000,306332.600,266522.600,0.000
227788.200,240478.600,500978.000,575423.300,222729.800,272367.100,307035.300,267076.700,0.000
227535.000,240272.400,500702.700,575046.300,222586.800,272257.300,306958.500,266965.000,0.000
226801.100,239732.700,499977.300,574101.800,221948.300,271646.900,306171.400,266321.900,0.000
226603.900,239609.700,499656.700,573562.000,221702.400,271382.400,305748.700,266037.800,0.000
227216.000,240071.000,500027.900,573829.800,222186.400,271822.200,306249.100,266494.300,0.000
227784.000,240472.700,500424.600,574197.800,222726.900,272351.000,306957.600,267052.900,0.000
227529.100,240264.200,500152.100,573829.800,222583.200,272241.400,306880.900,266942.300,0.000
226789.200,239716.100,499421.000,572888.800,221937.900,271624.600,306085.300,266293.500,0.000
226585.100,239585.500,499094.900,572348.000,221686.000,271353.800,305651.000,265998.800,0.000
227197.000,240048.900,499472.600,572620.300,222172.400,271794.400,306150.800,266454.500,0.000
227765.100,240452.300,499869.300,572989.700,222713.800,272322.800,306856.000,267011.700,0.000
227503.300,240237.300,499589.100,572615.500,222562.700,272203.600,306768.200,266892.200,0.000
226769.900,239695.900,498870.000,571685.900,221926.500,271597.000,305982.200,266252.900,0.000
226574.100,239574.200,498553.200,571156.100,221679.500,271331.300,305553.300,265966.500,0.000
227177.700,240027.700,498923.900,571428.000,222158.600,271764.400,306043.500,266414.400,0.000
227748.900,240432.500,499325.300,571804.400,222703.900,272294.700,306749.000,266971.800,0.000
227494.100,240221.600,499054.200,571441.600,222556.500,272181.500,306667.100,266856.700,0.000
226758.100,239677.700,498335.000,570515.200,221914.800,271570.800,305878.600,266213.600,0.000
226548.200,239537.400,498010.800,569981.300,221659.400,271297.000,305441.500,265918.600,0.000
227161.800,240000.400,498390.600,570264.200,222144.900,271736.500,305938.100,266374.700,0.000
227741.300,240414.800,498800.700,570654.600,222694.200,272273.100,306651.400,266940.000,0.000
227486.800,240206.500,498533.000,570300.400,222549.300,272161.600,306572.300,266825.400,0.000
226750.900,239660.300,497814.800,569381.600,221908.500,271551.700,305783.400,266180.300,0.000
226540.000,239520.200,497490.100,568850.300,221647.700,271273.200,305342.000,265877.700,0.000
227141.600,239972.100,497866.000,569134.300,222124.400,271707.600,305834.100,266328.000,0.000
227719.300,240384.800,498278.400,569529.800,222673.500,272243.300,306548.300,266894.300,0.000
227469.500,240183.700,498015.900,569184.300,222533.400,272135.500,306471.800,266784.900,0.000
226735.500,239640.900,497301.600,568273.600,221898.800,271529.000,305685.900,266144.800,0.000
226531.800,239507.500,496984.900,567753.900,221646.500,271256.300,305250.900,265850.800,0.000
227144.800,239971.600,497372.700,568051.400,222132.500,271698.700,305750.500,266310.100,0.000
227721.900,240381.000,497789.100,568452.600,222680.500,272236.100,306465.800,266876.300,0.000
227465.000,240166.700,497525.500,568109.300,222534.000,272122.800,306387.300,266762.200,0.000
226733.000,239628.000,496815.100,567206.100,221899.300,271518.500,305605.700,266124.800,0.000
226526.900,239494.800,496498.300,566691.800,221645.500,271247.000,305171.000,265831.500,0.000
227131.500,239952.600,496882.200,566991.300,222128.200,271683.100,305665.700,266284.300,0.000
227703.700,240359.700,497294.200,567395.100,222674.200,272214.400,306375.600,266845.800,0.000
227451.900,240153.700,497036.400,567061.000,222532.700,272105.200,306300.400,266737.400,0.000
226712.100,239605.600,496324.300,566156.900,221891.000,271492.700,305511.300,266094.300,0.000
226493.300,239456.800,495998.500,565634.000,221624.200,271207.000,305060.600,265787.000,0.000
227106.800,239917.900,496386.400,565939.400,222106.100,271644.200,305554.300,266241.400,0.000
227683.100,240325.600,496803.200,566349.400,222650.300,272177.000,306268.800,266804.400,0.000
227430.200,240115.900,496547.000,566020.300,222506.000,272067.500,306196.800,266692.300,0.000
226689.200,239564.600,495834.500,565116.500,221861.100,271451.700,305406.800,266047.100,0.000
226480.500,239428.700,495520.500,564607.100,221604.400,271174.200,304970.000,265751.500,0.000
227090.900,239889.700,495912.500,564920.900,222088.600,271614.700,305469.100,266209.800,0.000
227662.000,240292.200,496326.800,565333.300,222629.500,272143.600,306175.600,266769.300,0.000
227412.900,240088.100,496074.400,565013.300,222487.900,272037.200,306101.200,266661.500,0.000
226675.100,239544.900,495374.300,564127.700,221853.400,271432.100,305319.700,266024.700,0.000
226464.700,239408.500,495065.200,563627.500,221596.200,271155.600,304883.000,265727.600,0.000
227069.200,239861.800,495451.400,563936.000,222072.300,271584.700,305371.400,266173.300,0.000
227638.400,240262.000,495867.900,564349.800,222612.800,272111.100,306076.800,266727.600,0.000
227395.400,240061.000,495623.500,564038.900,222474.900,272008.300,306009.700,266625.800,0.000
226662.900,239522.100,494926.800,563158.700,221840.700,271404.600,305231.400,265991.800,0.000
226454.100,239388.200,494621.100,562664.000,221588.500,271130.900,304797.200,265699.000,0.000
227066.400,239852.400,495015.900,562983.500,222074.700,271571.400,305294.700,266156.800,0.000
227632.200,240251.200,495426.700,563395.100,222609.200,272095.500,305994.400,266710.300,0.000
227381.100,240043.300,495174.900,563081.500,222465.300,271986.200,305919.300,266602.400,0.000
226645.900,239500.800,494478.800,562205.300,221829.500,271379.300,305137.900,265966.600,0.000
226437.000,239369.700,494176.200,561717.100,221573.300,271105.000,304703.300,265672.800,0.000
227056.000,239841.400,494582.300,562052.200,222066.600,271553.100,305208.500,266138.700,0.000
227632.100,240250.500,495007.200,562484.800,222613.300,272088.100,305923.300,266705.300,0.000
227373.100,240035.800,494749.000,562167.500,222461.300,271968.100,305841.900,266587.400,0.000
226633.800,239490.000,494048.700,561290.900,221822.500,271356.700,305059.900,265948.000,0.000
226413.600,239344.600,493734.900,560792.400,221556.200,271067.500,304614.600,265641.700,0.000
227018.400,239800.600,494131.000,561118.300,222036.800,271499.600,305109.500,266094.000,0.000
227597.500,240209.700,494563.300,561554.400,222587.500,272036.600,305828.800,266661.500,0.000
227352.000,240005.300,494324.800,561253.100,222450.800,271933.600,305764.600,266559.100,0.000
226618.800,239464.900,493631.300,560382.500,221815.800,271330.400,304986.900,265925.700,0.000
226401.800,239325.100,493321.700,559891.800,221552.600,271050.000,304543.600,265625.700,0.000
227002.400,239779.200,493715.000,560217.200,222030.500,271482.900,305035.500,266077.800,0.000
227582.500,240194.000,494147.200,560660.200,222583.600,272021.600,305755.400,266654.300,0.000
227343.300,240000.500,493914.200,560370.700,222451.100,271922.200,305694.700,266564.800,0.000
226611.200,239463.500,493224.300,559507.400,221816.300,271317.200,304918.100,265938.000,0.000
226391.100,239323.300,492916.300,559022.800,221554.100,271036.700,304478.200,265647.000,0.000
226989.500,239777.200,493307.000,559352.000,222026.300,271466.400,304966.400,266103.400,0.000
227563.500,240185.200,493736.600,559800.000,222574.700,272005.500,305687.000,266683.300,0.000
227321.900,239987.500,493501.600,559517.800,222445.400,271910.700,305629.100,266597.600,0.000
226586.200,239444.100,492807.500,558659.900,221809.400,271307.400,304853.200,265973.000,0.000
226371.200,239305.200,492502.200,558183.100,221548.400,271030.400,304416.100,265685.300,0.000
226983.900,239769.000,492904.600,558525.700,222033.600,271471.900,304916.100,266151.000,0.000
227559.500,240175.700,493335.100,558973.400,222578.400,272006.700,305633.600,266723.200,0.000
227308.700,239965.200,493092.300,558683.500,222434.400,271896.200,305566.600,266622.600,0.000
226569.900,239414.500,492397.900,557826.400,221796.600,271287.700,304788.400,265991.800,0.000
226355.800,239275.800,492092.600,557349.400,221532.500,271005.900,304347.300,265696.900,0.000
226958.100,239728.500,492489.300,557685.100,222007.000,271434.600,304839.700,266151.000,0.000
227526.800,240126.700,492915.500,558130.000,222547.700,271961.800,305552.800,266718.100,0.000
227284.300,239923.500,492683.100,557853.000,222415.500,271859.000,305494.400,266627.300,0.000
226553.100,239385.300,491996.000,557002.000,221781.800,271253.300,304719.800,265997.500,0.000
226331.800,239239.900,491688.100,556521.600,221511.300,270964.700,304273.500,265693.400,0.000
226932.400,239692.800,492082.500,556856.300,221983.300,271388.300,304758.100,266139.200,0.000
227515.600,240109.500,492525.800,557318.300,222541.000,271930.700,305483.400,266715.200,0.000
227272.800,239907.100,492297.300,557046.900,222412.700,271832.700,305427.900,266622.000,0.000
226545.000,239373.200,491614.500,556203.800,221782.300,271232.300,304656.900,265996.700,0.000
226319.300,239224.800,491305.800,555726.900,221514.600,270946.700,304211.300,265693.300,0.000
226913.500,239672.200,491700.800,556068.300,221987.500,271372.400,304699.800,266141.700,0.000
227497.100,240087.200,492143.600,556534.400,222542.000,271911.500,305424.600,266716.400,0.000
227261.500,239891.700,491920.200,556268.400,222415.100,271814.500,305373.400,266626.100,0.000
226525.900,239345.900,491234.500,555421.800,221778.800,271205.900,304599.200,265993.300,0.000
226299.000,239193.600,490926.100,554944.900,221506.600,270914.500,304147.000,265685.200,0.000
226892.700,239641.200,491318.100,555281.600,221972.200,271333.200,304625.000,266125.600,0.000
227476.000,240051.700,491757.600,555749.700,222520.900,271868.700,305347.000,266695.500,0.000
227242.600,239854.600,491537.300,555490.900,222394.300,271772.100,305295.700,266606.100,0.000
226505.000,239310.800,490853.500,554648.000,221756.200,271165.700,304520.200,265972.200,0.000
226274.800,239160.000,490545.900,554174.500,221484.000,270875.300,304071.600,265663.600,0.000
226867.600,239603.400,490940.700,554514.700,221952.900,271296.600,304553.100,266105.200,0.000
227462.500,240028.700,491393.400,554992.600,222513.200,271842.300,305284.700,266684.000,0.000
227231.600,239841.000,491176.800,554736.100,222388.300,271749.500,305238.200,266595.300,0.000
226490.000,239294.200,490488.400,553888.600,221747.900,271138.500,304457.400,265956.200,0.000
226259.400,239141.000,490179.200,553413.700,221474.000,270844.700,304002.900,265644.700,0.000
226857.300,239592.000,490580.100,553763.300,221947.700,271271.700,304490.800,266090.300,0.000
227444.800,240009.300,491031.600,554239.700,222505.300,271815.500,305218.500,266666.000,0.000
227214.200,239817.300,490815.300,553984.500,222377.300,271722.400,305166.900,266575.400,0.000
226472.900,239271.500,490126.900,553140.900,221736.500,271111.600,304383.500,265935.300,0.000
226255.400,239131.400,489832.700,552684.800,221478.300,270833.300,303947.000,265637.600,0.000
226843.200,239573.900,490227.200,553031.000,221945.100,271252.200,304427.000,266076.400,0.000
227421.800,239986.700,490669.900,553501.300,222493.800,271785.000,305145.400,266642.300,0.000
227184.800,239791.000,490449.000,553244.800,222366.400,271688.300,305093.100,266548.000,0.000
226451.400,239250.800,489770.100,552412.100,221735.000,271085.500,304323.000,265914.200,0.000
226231.800,239108.700,489471.600,551949.900,221469.800,270801.600,303878.300,265606.300,0.000
226822.500,239552.400,489867.200,552295.600,221935.200,271218.400,304355.500,266039.900,0.000
227407.600,239966.500,490316.800,552773.800,222488.000,271755.800,305077.500,266608.300,0.000
227178.500,239775.300,490104.600,552524.800,222365.500,271662.500,305028.700,266516.400,0.000
226436.000,239226.400,489421.800,551687.900,221729.700,271053.700,304250.700,265875.300,0.000
226206.900,239079.100,489119.800,551225.400,221459.100,270766.700,303800.300,265565.600,0.000
226810.200,239535.800,489528.900,551587.700,221934.600,271198.500,304287.700,266012.400,0.000
227394.500,239949.900,489978.100,552066.000,222486.200,271738.200,305008.000,266580.300,0.000
227162.800,239755.800,489763.000,551817.900,222359.100,271644.600,304954.600,266486.800,0.000
226419.100,239201.900,489073.500,550980.300,221712.300,271027.300,304167.700,265838.800,0.000
226191.400,239052.800,488770.300,550521.100,221442.100,270737.400,303716.500,265528.000,0.000
226792.300,239510.200,489177.800,550882.600,221916.400,271169.500,304203.300,265974.300,0.000
227385.100,239936.700,489637.100,551376.100,222476.800,271718.600,304934.100,266552.200,0.000
227145.100,239733.900,489417.900,551130.600,222343.400,271620.400,304880.600,266456.100,0.000
226412.500,239190.400,488742.500,550309.300,221710.400,271017.700,304109.800,265825.200,0.000
226188.000,239043.300,488445.600,549855.800,221440.600,270732.700,303664.700,265520.800,0.000
226775.700,239486.000,488843.600,550209.400,221902.400,271148.700,304141.000,265957.500,0.000
227363.600,239903.100,489296.300,550699.600,222456.300,271687.500,304865.100,266529.700,0.000
227140.700,239715.900,489090.200,550466.800,222335.300,271602.200,304821.700,266442.600,0.000
226403.400,239171.600,488413.300,549644.600,221699.200,270995.200,304043.900,265807.200,0.000
226176.900,239025.600,488119.100,549196.400,221432.800,270708.800,303600.400,265504.200,0.000
226771.300,239472.800,488523.000,549559.300,221901.500,271132.500,304084.200,265945.800,0.000
227360.200,239890.900,488979.600,550052.300,222459.300,271677.400,304812.200,266520.800,0.000
227130.700,239701.300,488769.500,549814.600,222333.000,271584.100,304764.300,266428.700,0.000
226391.500,239157.300,488090.800,548992.500,221695.600,270975.000,303989.500,265791.700,0.000
226157.800,239000.800,487785.700,548539.400,221421.100,270684.900,303537.100,265479.000,0.000
226744.000,239437.700,488176.700,548889.400,221876.900,271095.800,304002.100,265904.800,0.000
227335.500,239857.500,488634.800,549383.400,222433.500,271638.000,304724.800,266478.200,0.000
227107.100,239667.800,488426.100,549148.900,222307.900,271545.000,304675.000,266387.300,0.000
226371.300,239125.000,487751.400,548333.400,221671.400,270938.000,303900.400,265753.600,0.000
226144.300,238975.900,487455.600,547884.800,221399.300,270649.200,303451.200,265445.700,0.000
226734.900,239420.200,487857.600,548244.700,221861.300,271068.600,303926.200,265880.900,0.000
227326.000,239840.500,488316.400,548743.900,222418.500,271612.700,304652.000,266456.800,0.000
227103.600,239656.000,488118.700,548525.700,222304.300,271532.200,304615.900,266378.700,0.000
226367.100,239118.000,487444.400,547712.700,221668.200,270927.300,303843.900,265744.100,0.000
226128.400,238961.300,487140.700,547259.900,221392.200,270631.500,303390.000,265427.600,0.000
226713.900,239398.100,487544.200,547625.400,221854.600,271048.200,303864.400,265862.700,0.000
227312.800,239829.900,488010.400,548131.500,222415.800,271593.500,304594.100,266439.100,0.000
227090.400,239646.700,487810.600,547909.300,222299.500,271508.800,304552.900,266352.900,0.000
226346.500,239095.200,487133.500,547095.800,221664.200,270904.500,303778.200,265715.800,0.000
226102.800,238932.800,486826.200,546639.300,221383.700,270605.800,303316.700,265395.200,0.000
226699.600,239388.700,487231.000,547004.500,221849.500,271024.600,303791.900,265830.700,0.000
227301.000,239818.800,487700.000,547515.100,222414.700,271575.100,304526.100,266410.800,0.000
227075.700,239628.000,487499.100,547294.200,222296.500,271487.600,304485.200,266323.000,0.000
226327.500,239072.500,486820.800,546476.800,221655.600,270874.500,303705.600,265681.200,0.000
226086.400,238913.300,486517.700,546023.600,221373.900,270574.000,303245.200,265362.400,0.000
226680.300,239365.500,486924.100,546393.300,221838.800,270993.800,303720.300,265797.100,0.000
227278.300,239791.700,487389.300,546902.900,222399.500,271541.300,304451.000,266373.300,0.000
227054.700,239599.600,487190.200,546682.900,222280.800,271454.600,304411.500,266287.900,0.000
226316.700,239051.100,486518.200,545873.600,221644.100,270848.300,303638.800,265650.000,0.000
226085.900,238900.000,486217.800,545425.900,221366.600,270555.500,303181.000,265331.100,0.000
226675.000,239342.800,486621.500,545797.500,221831.900,270973.900,303653.400,265764.400,0.000
227276.000,239774.000,487090.000,546313.100,222395.900,271522.800,304387.900,266343.600,0.000
227052.000,239587.400,486894.900,546102.700,222281.300,271442.400,304355.100,266261.400,0.000
226308.800,239035.600,486220.400,545293.400,221642.000,270836.100,303582.100,265621.500,0.000
226074.600,238882.300,485921.800,544846.000,221362.900,270540.100,303123.600,265301.400,0.000
226659.100,239325.100,486326.900,545217.400,221825.900,270957.600,303596.100,265733.000,0.000
227251.900,239741.500,486789.400,545728.300,222385.700,271501.400,304322.900,266305.800,0.000
227036.800,239560.300,486599.200,545521.400,222275.000,271421.800,304289.300,266225.300,0.000
226302.500,239018.800,485933.600,544719.900,221640.400,270817.500,303518.500,265590.100,0.000
226058.000,238853.300,485628.400,544270.900,221355.700,270515.000,303055.800,265266.400,0.000
226630.900,239281.900,486023.900,544633.600,221805.900,270922.000,303518.700,265689.700,0.000
227237.700,239723.700,486501.300,545161.100,222374.000,271478.100,304258.500,266275.800,0.000
227018.800,239542.600,486307.400,544954.900,222259.100,271398.800,304223.300,266196.300,0.000
226285.500,239001.800,485639.300,544153.800,221625.300,270797.500,303454.600,265562.700,0.000
226047.800,238844.600,485336.100,543706.500,221344.100,270496.900,302992.300,265241.500,0.000
226635.000,239286.700,485741.800,544082.200,221807.900,270914.500,303465.500,265676.500,0.000
227236.000,239718.300,486216.500,544605.400,222372.900,271465.100,304200.800,266258.900,0.000
227015.600,239535.600,486025.700,544401.400,222257.100,271382.900,304167.800,266179.900,0.000
226278.300,238991.500,485358.800,543602.600,221622.800,270777.000,303396.800,265544.600,0.000
226038.600,238834.400,485057.300,543161.400,221343.100,270478.000,302934.800,265223.500,0.000
226627.400,239279.600,485467.500,543541.300,221809.600,270897.700,303408.300,265658.800,0.000
227215.900,239694.600,485932.600,544057.100,222366.800,271439.400,304134.300,266231.900,0.000
226999.000,239511.300,485738.400,543851.300,222250.300,271355.700,304098.700,266148.000,0.000
226263.400,238966.300,485071.200,543054.700,221614.500,270752.000,303328.700,265513.800,0.000
226022.200,238806.400,484771.400,542613.700,221332.300,270453.100,302866.700,265193.000,0.000
226607.900,239248.600,485177.000,542990.300,221791.100,270869.000,303337.300,265623.500,0.000
227209.900,239679.800,485653.800,543519.600,222357.000,271423.300,304074.600,266207.000,0.000
226990.800,239494.600,485466.100,543320.800,222246.800,271342.900,304041.500,266128.500,0.000
226248.700,238942.100,484795.300,542518.700,221610.800,270735.800,303265.700,265489.800,0.000
226001.500,238777.600,484491.200,542073.200,221325.200,270432.500,302796.400,265163.700,0.000
226588.500,239223.200,484899.500,542452.100,221786.800,270847.800,303264.000,265592.100,0.000
227184.600,239646.900,485370.700,542975.100,222348.000,271393.400,303992.300,266168.300,0.000
226972.600,239470.200,485186.300,542783.000,222240.500,271316.800,303962.500,266095.000,0.000
226246.100,238938.400,484529.600,542000.800,221613.200,270722.100,303201.800,265470.400,0.000
225993.400,238769.800,484218.300,541550.900,221320.400,270411.900,302730.200,265140.300,0.000
226572.700,239206.400,484617.900,541925.900,221775.400,270821.000,303196.600,265569.500,0.000
227170.300,239632.900,485090.600,542451.800,222336.800,271368.300,303928.200,266149.100,0.000
226960.000,239457.700,484912.000,542263.900,222229.800,271294.500,303906.300,266078.900,0.000
226220.700,238912.400,484246.600,541473.400,221594.000,270688.100,303138.800,265443.500,0.000
225968.600,238743.700,483940.200,541026.500,221303.100,270377.300,302666.300,265111.500,0.000
226559.600,239193.400,484356.200,541414.600,221770.400,270798.500,303140.500,265549.300,0.000
227159.100,239621.300,484834.800,541948.400,222336.400,271350.200,303878.700,266133.800,0.000
226936.700,239433.200,484644.100,541752.600,222221.400,271268.200,303846.800,266055.600,0.000
226203.800,238890.700,483980.200,540963.900,221587.300,270666.500,303080.600,265425.700,0.000
225963.900,238731.800,483682.900,540529.700,221307.700,270371.400,302622.300,265108.600,0.000
226556.700,239183.500,484101.300,540924.300,221779.000,270799.900,303102.600,265549.900,0.000
227151.500,239608.300,484576.300,541454.300,222340.500,271350.300,303833.000,266127.900,0.000
226931.000,239420.600,484385.900,541257.900,222223.500,271267.800,303797.200,266045.600,0.000
226192.600,238871.100,483721.600,540468.100,221589.500,270667.200,303028.200,265410.100,0.000
225936.800,238697.500,483408.700,540018.000,221293.500,270353.700,302549.900,265073.000,0.000
226523.000,239143.800,483817.200,540403.000,221753.000,270767.400,303016.300,265501.300,0.000
227118.600,239568.700,484288.800,540934.400,222311.600,271312.600,303744.700,266078.100,0.000
226902.800,239387.500,484104.500,540746.800,222199.900,271234.400,303717.300,266004.000,0.000
226171.700,238846.800,483445.600,539964.900,221572.700,270637.000,302954.700,265376.400,0.000
225921.700,238680.700,483142.900,539529.900,221285.500,270333.800,302487.700,265050.300,0.000
226501.300,239119.200,483548.100,539912.900,221739.500,270743.500,302951.400,265477.400,0.000
227107.700,239554.900,484030.700,540452.900,222304.000,271297.000,303690.400,266063.200,0.000
226902.000,239383.300,483859.700,540280.100,222204.200,271231.800,303676.400,266001.300,0.000
226162.000,238835.300,483197.000,539495.900,221570.000,270628.900,302908.900,265366.400,0.000
225908.700,238667.700,482893.400,539057.100,221282.600,270325.500,302439.200,265038.300,0.000
226490.800,239110.400,483299.000,539439.900,221740.400,270736.100,302901.400,265463.600,0.000
227090.600,239534.900,483773.300,539972.800,222302.300,271281.000,303630.200,266038.700,0.000
226885.100,239359.800,483597.100,539792.100,222195.800,271209.000,303608.600,265968.300,0.000
226151.200,238816.600,482938.600,539009.100,221563.400,270608.800,302844.300,265337.500,0.000
225904.800,238655.600,482644.700,538580.800,221279.900,270310.100,302384.200,265017.800,0.000
226484.400,239094.800,483053.200,538967.400,221734.500,270720.500,302847.800,265444.900,0.000
227085.300,239522.700,483529.900,539503.100,222293.600,271266.100,303575.000,266020.600,0.000
226869.300,239337.200,483344.800,539315.600,222179.700,271184.200,303544.300,265940.600,0.000
226129.800,238787.800,482679.100,538526.500,221540.500,270574.500,302769.900,265300.700,0.000
225882.100,238626.800,482380.500,538092.800,221252.900,270272.700,302301.700,264974.700,0.000
226464.100,239071.000,482791.700,538478.400,221707.200,270685.000,302766.700,265400.700,0.000
227070.100,239505.800,483278.200,539024.300,222275.000,271240.500,303506.800,265986.100,0.000
226863.400,239330.800,483102.400,538851.700,222171.900,271169.700,303488.200,265917.700,0.000
226122.600,238779.600,482437.400,538070.400,221535.900,270564.700,302718.400,265282.100,0.000
225869.800,238612.500,482135.500,537639.600,221250.100,270258.400,302251.300,264956.000,0.000
226447.200,239051.900,482540.900,538027.900,221706.000,270665.800,302712.500,265380.800,0.000
227049.100,239481.200,483022.300,538572.400,222270.100,271216.200,303446.900,265961.200,0.000
226845.300,239309.200,482850.000,538398.800,222162.800,271144.500,303426.400,265889.700,0.000
226112.000,238765.500,482192.700,537621.700,221530.800,270542.400,302661.100,265257.200,0.000
225865.100,238602.900,481892.500,537189.800,221242.400,270238.300,302191.800,264930.000,0.000
226440.100,239035.900,482296.200,537573.300,221692.100,270644.000,302648.100,265352.900,0.000
227040.000,239461.300,482777.200,538112.200,222253.200,271189.600,303377.900,265933.100,0.000
226836.100,239288.200,482606.400,537942.500,222151.300,271119.600,303361.100,265871.200,0.000
226107.000,238751.700,481953.500,537173.900,221523.700,270522.000,302603.500,265253.000,0.000
225853.600,238582.100,481651.300,536741.300,221232.900,270216.200,302132.800,264932.600,0.000
226431.500,239019.100,482058.000,537128.200,221686.000,270626.900,302594.400,265366.100,0.000
227034.000,239448.300,482542.300,537677.600,222252.600,271180.100,303334.600,265959.700,0.000
226835.700,239280.900,482377.200,537516.000,222154.500,271117.300,303324.400,265908.600,0.000
226106.500,238747.300,481727.800,536752.700,221530.500,270527.000,302569.700,265296.500,0.000
225845.800,238576.400,481426.800,536323.900,221240.300,270222.200,302102.700,264980.700,0.000
226413.300,239002.500,481826.700,536703.900,221686.800,270622.600,302557.600,265409.300,0.000
227016.000,239430.600,482309.600,537251.800,222253.800,271174.100,303296.500,266001.100,0.000
226825.300,239269.100,482151.200,537098.100,222165.900,271117.100,303295.800,265955.500,0.000
226080.000,238716.000,481490.100,536324.900,221529.000,270512.600,302532.100,265332.600,0.000
225815.300,238539.300,481177.500,535882.800,221224.300,270191.100,302051.900,264999.000,0.000
226393.600,238976.500,481584.800,536269.600,221675.500,270596.600,302513.000,265427.700,0.000
227001.600,239408.800,482071.200,536819.600,222242.500,271149.100,303252.500,266016.900,0.000
226798.600,239235.300,481906.100,536658.800,222145.000,271082.900,303243.500,265960.400,0.000
226066.900,238698.800,481254.900,535895.400,221518.400,270486.900,302488.100,265342.600,0.000
225801.800,238519.900,480945.900,535460.600,221217.800,270171.200,302012.600,265013.400,0.000
226376.800,238957.300,481348.000,535847.800,221663.900,270572.600,302467.800,265436.200,0.000
226985.200,239391.500,481835.600,536402.200,222229.800,271125.400,303205.200,266024.000,0.000
226789.200,239221.700,481673.100,536246.400,222136.000,271063.100,303196.200,265970.700,0.000
226057.900,238682.100,481021.200,535481.500,221508.400,270465.300,302438.800,265348.800,0.000
225796.500,238506.200,480714.300,535047.900,221210.900,270149.900,301961.900,265015.700,0.000
226372.800,238943.300,481123.500,535439.400,221662.600,270556.200,302420.900,265441.600,0.000
226968.700,239367.000,481605.700,535987.500,222223.200,271101.500,303152.500,266022.800,0.000
226773.100,239202.500,481446.800,535836.400,222131.600,271038.100,303146.700,265968.000,0.000
226040.300,238661.600,480796.900,535077.300,221506.200,270443.100,302393.200,265348.300,0.000
225782.000,238491.200,480495.400,534652.400,221212.400,270134.400,301922.700,265021.900,0.000
226341.600,238911.700,480888.300,535031.100,221648.300,270526.600,302369.000,265435.600,0.000
226947.500,239341.500,481377.800,535587.100,222215.800,271077.600,303110.900,266024.900,0.000
226746.900,239171.900,481216.400,535434.800,222120.400,271014.300,303105.100,265969.500,0.000
226025.800,238645.000,480575.000,534684.300,221501.200,270427.200,302359.300,265358.600,0.000
225757.000,238466.200,480262.500,534245.900,221196.500,270104.100,301876.500,265020.000,0.000
226321.500,238891.300,480658.600,534626.400,221635.400,270496.200,302321.800,265431.300,0.000
226939.300,239333.600,481155.100,535193.100,222214.900,271058.600,303072.300,266026.500,0.000
226747.800,239168.700,480998.000,535043.400,222124.400,271000.900,303070.100,265972.300,0.000
226012.300,238623.400,480346.500,534278.500,221492.800,270400.600,302309.500,265345.500,0.000
225746.400,238442.500,480041.200,533846.900,221195.300,270084.900,301832.900,265012.300,0.000
226314.400,238868.900,480440.000,534229.300,221635.700,270477.700,302279.900,265427.300,0.000
226929.600,239310.200,480936.300,534793.100,222209.300,271034.100,303024.800,266019.400,0.000
226736.600,239148.300,480782.500,534650.000,222122.300,270976.800,303026.700,265966.900,0.000
226001.100,238604.100,480129.700,533888.300,221492.300,270376.500,302268.100,265337.600,0.000
225734.800,238425.400,479820.500,533454.300,221189.000,270055.000,301785.900,264996.000,0.000
226299.700,238852.500,480220.400,533840.900,221631.800,270450.800,302234.500,265410.500,0.000
226907.000,239284.200,480710.800,534395.800,222201.500,271003.200,302972.600,265995.400,0.000
226724.800,239131.600,480560.800,534252.300,222116.400,270949.800,302975.100,265945.000,0.000
225993.600,238590.400,479914.500,533496.200,221490.200,270353.800,302222.400,265321.600,0.000
225735.300,238418.600,479613.100,533067.600,221193.600,270039.600,301748.900,264987.500,0.000
226302.400,238850.400,480013.100,533451.100,221637.000,270436.500,302197.600,265398.000,0.000
226905.200,239280.900,480501.200,534006.100,222203.300,270987.000,302934.200,265977.300,0.000
226714.000,239116.100,480350.700,533864.600,222116.400,270932.300,302937.500,265924.100,0.000
225985.700,238579.800,479702.500,533107.900,221486.200,270335.300,302180.800,265295.400,0.000
225715.300,238398.400,479390.100,532670.800,221179.900,270013.400,301693.800,264951.000,0.000
226291.800,238836.600,479799.100,533066.100,221630.300,270419.600,302148.800,265374.700,0.000
226904.900,239274.300,480295.800,533635.100,222205.000,270979.700,302895.800,265966.900,0.000
226700.500,239097.200,480129.300,533478.900,222102.800,270910.200,302883.500,265898.900,0.000
225960.800,238545.900,479477.300,532715.300,221469.400,270304.500,302120.100,265265.900,0.000
225696.300,238369.800,479171.900,532283.700,221167.800,269987.100,301637.100,264926.400,0.000
226266.800,238800.900,479575.400,532670.200,221609.600,270384.900,302082.900,265338.100,0.000
226884.300,239243.100,480076.300,533241.800,222187.500,270948.400,302828.700,265930.000,0.000
226694.800,239080.000,479920.800,533100.900,222098.100,270894.500,302825.800,265875.400,0.000
225950.600,238527.300,479257.500,532333.900,221457.400,270287.400,302057.800,265240.800,0.000
225674.800,238343.600,478941.000,531896.400,221146.100,269960.100,301567.700,264895.200,0.000
226249.500,238780.900,479349.800,532292.100,221594.100,270362.600,302021.300,265315.100,0.000
226863.800,239218.900,479847.400,532861.500,222167.000,270920.500,302766.700,265905.700,0.000
226671.300,239053.100,479691.100,532718.000,222074.300,270859.500,302764.100,265849.300,0.000
225933.900,238506.000,479038.600,531957.300,221441.300,270257.100,302002.500,265219.800,0.000
225667.300,238330.500,478733.100,531529.600,221141.500,269940.300,301522.400,264882.600,0.000
226237.100,238765.600,479141.400,531926.500,221587.500,270342.400,301973.400,265300.400,0.000
226845.300,239200.700,479635.900,532493.300,222157.000,270897.000,302713.000,265887.100,0.000
226672.100,239053.500,479499.100,532372.100,222085.100,270856.700,302731.800,265850.800,0.000
225938.300,238511.300,478850.100,531618.300,221458.800,270259.400,301976.700,265227.800,0.000
225651.700,238315.300,478521.500,531168.900,221139.500,269920.600,301474.900,264868.100,0.000
226215.800,238744.400,478922.200,531556.000,221578.500,270313.600,301920.100,265277.800,0.000
226830.700,239183.300,479423.500,532127.400,222152.700,270873.100,302670.000,265868.600,0.000
226646.300,239024.100,479278.200,531996.700,222071.400,270822.200,302679.600,265821.100,0.000
225916.300,238487.200,478633.500,531245.500,221444.200,270227.500,301926.800,265195.800,0.000
225635.400,238295.900,478314.500,530804.300,221128.100,269894.900,301431.000,264841.700,0.000
226203.200,238726.600,478719.300,531197.000,221568.700,270291.400,301876.200,265252.300,0.000
226825.000,239176.900,479225.300,531780.300,222151.600,270858.300,302629.300,265850.700,0.000
226645.600,239024.100,479081.300,531653.800,222072.700,270810.700,302644.300,265806.600,0.000
225911.300,238480.400,478433.400,530902.600,221444.400,270215.400,301893.800,265182.400,0.000
225632.700,238293.000,478116.700,530465.800,221131.100,269886.100,301402.100,264832.300,0.000
226200.400,238724.600,478519.200,530857.400,221571.700,270279.400,301846.500,265240.800,0.000
226821.600,239169.700,479025.200,531438.500,222154.800,270845.000,302599.500,265837.300,0.000
226641.300,239014.600,478886.100,531315.800,222077.500,270799.800,302614.800,265794.500,0.000
225895.500,238456.600,478228.700,530555.000,221439.500,270193.600,301851.800,265160.500,0.000
225617.000,238268.400,477912.900,530115.800,221124.600,269861.300,301356.600,264807.300,0.000
226184.700,238699.600,478316.600,530504.300,221562.500,270252.700,301796.600,265212.700,0.000
226804.800,239143.300,478820.400,531081.400,222138.100,270814.300,302544.200,265805.000,0.000
226625.200,238988.700,478680.300,530960.700,222058.600,270769.800,302558.700,265764.100,0.000
225893.800,238447.500,478033.800,530214.100,221428.500,270175.800,301806.900,265141.500,0.000
225614.200,238257.400,477716.900,529777.300,221115.100,269848.000,301313.900,264788.900,0.000
226181.300,238688.900,478120.700,530168.300,221555.200,270243.600,301754.400,265197.100,0.000
226793.000,239125.000,478617.600,530738.100,222125.700,270801.800,302494.800,265783.500,0.000
226606.800,238964.800,478468.700,530604.100,222039.000,270746.300,302498.900,265730.900,0.000
225872.600,238419.700,477823.100,529855.400,221412.100,270150.500,301746.900,265107.200,0.000
225592.500,238227.000,477510.200,529419.900,221099.400,269823.800,301257.400,264758.100,0.000
226161.300,238659.200,477914.700,529809.100,221537.600,270218.600,301700.800,265165.600,0.000
226776.300,239098.800,478415.100,530379.500,222110.100,270773.500,302444.100,265752.500,0.000
226603.900,238953.200,478280.600,530261.800,222037.100,270732.300,302463.100,265714.500,0.000
225872.800,238413.100,477642.100,529521.900,221417.500,270144.600,301718.500,265098.300,0.000
225589.800,238221.900,477329.200,529087.600,221105.800,269815.600,301228.200,264750.500,0.000
226152.100,238649.200,477726.900,529471.900,221536.900,270202.600,301663.500,265150.500,0.000
226767.900,239089.500,478230.000,530048.800,222111.200,270762.200,302409.200,265737.200,0.000
226594.500,238939.200,478093.700,529929.100,222035.000,270715.800,302426.100,265694.200,0.000
225861.200,238395.000,477449.000,529179.100,221407.900,270117.800,301671.600,265066.800,0.000
225577.300,238203.700,477131.000,528743.600,221093.500,269785.800,301175.800,264712.500,0.000
226133.800,238628.000,477528.200,529130.100,221527.200,270173.500,301611.300,265115.100,0.000
226745.600,239062.900,478025.400,529702.100,222096.700,270725.600,302350.600,265698.300,0.000
226572.800,238911.400,477892.000,529590.300,222027.400,270687.800,302372.900,265662.300,0.000
225845.100,238374.800,477252.600,528848.400,221402.800,270095.700,301624.000,265039.300,0.000
225555.200,238178.900,476929.600,528403.100,221077.600,269754.900,301118.800,264675.300,0.000
226118.200,238606.800,477331.000,528793.700,221516.200,270147.800,301556.400,265079.700,0.000
226745.500,239058.100,477842.000,529380.600,222100.700,270716.500,302308.700,265675.800,0.000
226570.300,238906.900,477707.800,529266.000,222028.300,270677.200,302326.000,265637.700,0.000
225825.100,238352.500,477055.300,528512.900,221393.500,270076.800,301565.200,265004.600,0.000
225550.600,238167.100,476745.300,528084.900,221082.500,269753.900,301074.800,264654.300,0.000
226117.500,238600.800,477152.000,528483.000,221522.400,270151.200,301517.700,265063.400,0.000
226739.100,239048.300,477660.900,529070.400,222104.100,270718.600,302269.600,265661.000,0.000
226557.100,238890.900,477518.000,528951.600,222022.000,270672.100,302283.200,265616.000,0.000
225819.200,238341.200,476865.200,528198.800,221385.500,270069.900,301523.600,264983.200,0.000
225541.200,238154.200,476552.600,527764.600,221072.700,269742.600,301028.900,264631.800,0.000
226098.100,238576.700,476951.900,528152.600,221507.300,270130.800,301462.600,265034.800,0.000
226720.100,239022.200,477457.500,528734.500,222085.500,270693.400,302211.500,265628.100,0.000
226552.200,238875.700,477327.900,528623.000,222015.000,270655.800,302236.600,265594.400,0.000
225820.200,238333.300,476686.800,527879.300,221388.500,270062.700,301487.800,264971.700,0.000
225527.400,238132.400,476360.800,527434.900,221062.000,269723.500,300980.700,264607.500,0.000
226082.200,238553.000,476758.800,527823.100,221491.400,270111.500,301410.300,265007.900,0.000
226699.700,238996.700,477265.800,528402.900,222067.400,270672.400,302156.500,265600.300,0.000
226529.600,238852.400,477132.300,528289.400,221995.700,270630.600,302175.600,265561.300,0.000
225795.700,238311.300,476489.100,527546.000,221369.400,270035.100,301420.900,264937.800,0.000
225508.100,238119.000,476170.100,527108.900,221051.200,269699.400,300917.300,264581.700,0.000
226061.900,238541.800,476566.700,527493.400,221479.500,270083.800,301346.600,264978.900,0.000
226683.700,238988.500,477077.800,528080.800,222061.700,270649.300,302098.300,265575.200,0.000
226509.500,238836.700,476946.900,527970.500,221993.000,270609.700,302119.400,265538.100,0.000
225778.500,238297.900,476305.300,527231.800,221368.300,270017.000,301370.900,264914.800,0.000
225496.500,238107.900,475989.000,526799.700,221051.800,269686.000,300875.000,264562.000,0.000
226051.700,238527.500,476385.400,527187.800,221482.100,270070.700,301306.300,264961.100,0.000
226669.700,238967.400,476890.100,527770.900,222058.500,270630.900,302052.000,265550.300,0.000
226503.300,238822.100,476761.900,527667.900,221990.100,270594.400,302078.800,265519.600,0.000
225766.800,238273.800,476115.200,526922.800,221358.500,269995.900,301324.300,264892.200,0.000
225474.900,238074.000,475794.300,526484.600,221040.300,269659.300,300821.100,264532.600,0.000
226035.100,238501.700,476196.300,526876.500,221473.100,270047.700,301254.500,264934.200,0.000
226659.300,238949.100,476708.900,527463.400,222052.400,270612.900,302003.800,265529.700,0.000
226483.900,238792.900,476577.000,527352.400,221978.700,270572.400,302023.600,265491.500,0.000
225755.800,238254.900,475939.600,526616.700,221355.400,269983.400,301279.300,264873.800,0.000
225473.500,238068.400,475625.800,526185.800,221039.400,269653.600,300783.300,264522.000,0.000
226028.200,238490.400,476022.500,526574.900,221468.100,270038.900,301212.800,264920.200,0.000
226651.300,238935.800,476532.200,527161.400,222046.500,270601.000,301960.300,265510.500,0.000
226486.400,238794.600,476408.000,527060.100,221982.600,270568.200,301987.600,265478.300,0.000
225758.300,238257.900,475772.800,526326.000,221362.800,269979.200,301243.800,264861.400,0.000
225475.300,238069.100,475460.600,525896.100,221049.300,269650.500,300748.000,264511.400,0.000
226020.000,238481.400,475850.300,526281.900,221471.000,270028.100,301171.500,264907.600,0.000
226639.200,238921.200,476357.300,526870.200,222046.500,270588.000,301919.300,265502.600,0.000
226470.500,238776.200,476230.100,526763.300,221974.600,270548.600,301942.800,265468.100,0.000
225732.800,238230.400,475584.600,526019.200,221342.800,269949.000,301188.200,264837.900,0.000
225436.400,238026.000,475256.400,525575.900,221012.100,269604.200,300676.900,264472.100,0.000
225991.100,238445.700,475653.600,525965.400,221441.200,269989.300,301105.700,264871.900,0.000
226615.900,238893.500,476165.400,526556.400,222023.000,270555.200,301856.700,265466.800,0.000
226446.300,238747.100,476036.400,526451.800,221953.400,270517.200,301877.700,265429.100,0.000
225712.200,238203.100,475394.000,525714.700,221326.300,269923.900,301126.700,264804.300,0.000
225421.500,238007.000,475074.200,525281.400,221006.100,269590.500,300626.600,264448.100,0.000
225976.000,238427.000,475472.500,525674.500,221440.900,269979.100,301059.900,264851.400,0.000
226602.400,238872.800,475983.000,526265.100,222025.200,270546.800,301813.100,265449.000,0.000
226433.400,238726.600,475852.200,526156.900,221953.100,270507.300,301835.800,265411.300,0.000
225700.000,238183.300,475207.800,525415.600,221323.900,269910.100,301085.000,264783.600,0.000
225423.800,237999.100,474896.500,524990.900,221010.800,269582.300,300594.700,264433.700,0.000
225977.100,238418.300,475293.200,525379.600,221437.000,269963.800,301023.400,264830.200,0.000
226594.600,238858.000,475800.200,525963.900,222011.700,270523.100,301767.000,265419.400,0.000
226428.300,238715.400,475674.900,525860.700,221943.800,270488.200,301789.300,265386.900,0.000
225686.700,238167.800,475029.300,525117.200,221309.900,269889.200,301033.900,264758.600,0.000
225395.100,237973.000,474710.400,524680.900,220987.100,269553.400,300531.100,264400.200,0.000
225954.600,238399.500,475112.400,525075.300,221420.700,269943.100,300963.700,264803.300,0.000
226587.300,238856.200,475631.900,525673.300,222006.700,270515.000,301718.700,265404.000,0.000
226423.500,238713.800,475509.400,525576.400,221943.000,270483.800,301748.200,265373.300,0.000
225692.200,238171.100,474874.500,524846.400,221323.000,269894.300,301003.200,264754.300,0.000
225407.500,237982.300,474560.700,524419.900,221007.300,269561.100,300505.000,264401.700,0.000
225952.600,238394.700,474952.200,524810.800,221432.000,269939.700,300928.300,264797.800,0.000
226567.900,238832.700,475453.600,525394.500,222001.200,270491.500,301665.100,265381.000,0.000
226403.600,238689.000,475325.400,525294.800,221931.700,270451.900,301688.300,265344.200,0.000
225675.300,238148.400,474688.100,524564.000,221305.800,269861.900,300944.700,264723.300,0.000
225382.300,237948.300,474370.300,524131.700,220980.500,269525.300,300445.400,264365.500,0.000
225933.300,238367.000,474766.700,524525.100,221407.800,269907.100,300875.300,264763.800,0.000
226570.300,238827.900,475286.300,525124.600,221994.800,270479.500,301635.200,265366.400,0.000
226407.700,238686.800,475162.300,525027.600,221929.100,270446.400,301666.400,265337.000,0.000
225671.400,238139.200,474517.900,524290.300,221299.500,269850.000,300917.900,264715.400,0.000
225378.400,237938.600,474194.900,523855.000,220975.700,269512.400,300416.300,264357.300,0.000
225928.000,238350.200,474587.800,524243.500,221400.800,269894.300,300841.900,264755.600,0.000
226557.600,238803.700,475104.500,524839.400,221983.300,270462.700,301594.400,265359.300,0.000
226396.200,238667.200,474984.500,524748.800,221920.700,270435.500,301628.700,265340.300,0.000
225656.700,238118.200,474338.800,524012.000,221291.800,269841.300,300878.200,264723.900,0.000
225360.200,237920.000,474016.100,523575.400,220966.800,269503.700,300373.400,264371.900,0.000
225917.200,238346.400,474417.800,523972.100,221398.200,269890.200,300804.500,264784.300,0.000
226534.800,238786.900,474927.000,524564.600,221973.900,270448.400,301551.500,265388.000,0.000
226366.700,238640.300,474801.700,524467.300,221905.500,270410.900,301579.100,265366.400,0.000
225636.900,238098.300,474168.800,523743.100,221288.200,269827.400,300841.000,264766.600,0.000
225352.400,237908.200,473855.600,523318.800,220972.700,269499.800,300346.800,264425.700,0.000
225902.500,238326.500,474253.700,523714.400,221402.200,269884.300,300778.800,264834.300,0.000
226516.500,238760.200,474758.300,524302.100,221975.500,270439.000,301525.600,265431.300,0.000
226351.700,238612.000,474633.200,524208.000,221908.300,270401.000,301556.000,265409.200,0.000
225620.100,238069.300,473998.300,523484.600,221287.600,269810.500,300816.100,264802.100,0.000
225323.000,237867.200,473675.600,523052.500,220962.300,269470.100,300311.900,264448.300,0.000
225866.400,238277.100,474066.000,523441.100,221385.000,269846.800,300736.300,264847.000,0.000
226500.200,238734.900,474584.600,524043.600,221971.000,270415.300,301497.000,265454.200,0.000
226335.900,238592.500,474463.300,523953.000,221905.000,270380.800,301531.600,265431.300,0.000
225601.000,238047.800,473825.700,523224.500,221277.500,269786.700,300786.800,264815.600,0.000
225311.500,237850.300,473510.400,522797.200,220955.900,269452.400,300289.600,264467.300,0.000
225868.800,238274.800,473912.300,523194.300,221385.600,269839.600,300722.100,264873.400,0.000
226497.800,238726.700,474427.300,523792.000,221965.200,270404.900,301474.300,265472.000,0.000
226333.600,238581.700,474304.700,523699.200,221898.400,270371.300,301506.000,265444.900,0.000
225590.900,238031.500,473660.000,522963.800,221266.000,269771.500,300755.300,264820.700,0.000
225291.100,237825.600,473333.600,522527.700,220936.600,269424.300,300248.200,264458.400,0.000
225842.700,238246.500,473732.600,522926.200,221366.600,269806.500,300678.400,264862.900,0.000
226466.500,238691.500,474249.200,523528.500,221950.800,270374.000,301432.200,265466.600,0.000
226304.600,238550.600,474129.700,523437.000,221886.900,270340.800,301466.100,265441.900,0.000
225574.400,238011.900,473494.500,522708.300,221261.100,269748.200,300722.600,264825.300,0.000
225282.800,237812.400,473175.600,522279.300,220938.200,269410.800,300220.100,264471.800,0.000
225836.600,238230.100,473573.000,522674.300,221363.500,269790.300,300645.800,264873.400,0.000
226462.800,238677.000,474084.000,523273.000,221943.700,270353.400,301397.100,265471.600,0.000
226301.700,238536.000,473962.900,523183.200,221881.400,270323.700,301434.300,265446.900,0.000
225573.500,237998.500,473328.000,522458.300,221260.600,269736.100,300695.300,264832.300,0.000
225274.800,237795.600,473000.400,522020.400,220931.900,269388.000,300185.600,264467.700,0.000
225825.100,238211.500,473395.600,522410.800,221356.600,269763.700,300608.300,264865.000,0.000
226453.800,238661.500,473917.500,523013.800,221941.700,270330.000,301363.900,265467.300,0.000
226288.000,238517.400,473798.100,522923.700,221876.500,270292.900,301398.400,265440.500,0.000
225556.700,237977.500,473161.800,522199.400,221253.300,269701.200,300659.000,264825.300,0.000
225258.300,237774.900,472837.000,521767.300,220925.400,269358.700,300151.900,264464.400,0.000
225816.700,238200.000,473237.500,522167.000,221355.900,269742.500,300584.000,264868.000,0.000
226439.700,238645.900,473753.700,522766.100,221937.500,270305.100,301338.300,265467.600,0.000
226279.800,238506.200,473640.000,522682.100,221877.800,270276.200,301377.400,265443.700,0.000
225549.500,237962.900,473003.300,521956.500,221254.000,269686.900,300636.100,264824.300,0.000
225250.900,237759.200,472677.600,521520.100,220924.700,269342.200,300128.100,264458.800,0.000
225803.200,238178.200,473075.500,521915.400,221354.000,269723.500,300556.200,264856.200,0.000
226432.800,238632.500,473595.600,522517.100,221938.300,270292.900,301312.100,265455.800,0.000
226270.600,238492.100,473481.100,522430.800,221875.700,270265.000,301349.900,265430.900,0.000
225539.500,237952.100,472846.600,521706.900,221252.200,269676.300,300609.400,264813.100,0.000
225240.800,237744.200,472520.700,521272.900,220925.200,269333.000,300102.900,264448.900,0.000
225785.600,238157.200,472914.600,521664.300,221350.200,269711.400,300526.600,264842.500,0.000
226415.000,238612.000,473436.200,522269.200,221934.900,270281.100,301282.500,265442.600,0.000
226249.600,238465.500,473314.400,522176.100,221866.600,270245.800,301312.500,265408.400,0.000
225517.800,237920.200,472679.200,521449.900,221240.800,269653.200,300565.800,264784.200,0.000
225225.900,237723.400,472361.300,521022.700,220917.400,269314.900,300059.300,264421.500,0.000
225776.700,238144.500,472757.300,521414.600,221340.100,269694.100,300479.800,264811.800,0.000
226411.100,238601.600,473281.900,522020.900,221927.800,270263.800,301238.800,265409.900,0.000
226253.600,238463.500,473168.700,521936.900,221866.500,270233.400,301278.100,265381.000,0.000
225516.000,237916.700,472526.400,521207.300,221234.900,269636.400,300529.500,264753.800,0.000
225208.200,237704.900,472190.400,520762.000,220892.400,269281.100,300006.800,264373.800,0.000
225761.700,238125.500,472586.800,521154.800,221315.300,269658.900,300427.000,264764.700,0.000
226395.700,238577.200,473113.900,521765.300,221905.700,270231.600,301187.900,265369.500,0.000
226229.000,238430.300,472994.600,521678.100,221843.800,270196.800,301221.200,265342.000,0.000
225494.300,237889.700,472356.900,520954.000,221221.800,269606.800,300476.800,264722.100,0.000
225200.900,237694.900,472039.500,520529.800,220900.800,269271.300,299975.000,264364.300,0.000
225754.200,238117.500,472438.200,520930.000,221327.300,269654.100,300400.800,264762.000,0.000
226373.900,238560.300,472950.300,521529.300,221900.900,270214.100,301149.000,265353.700,0.000
226213.600,238418.200,472836.500,521449.100,221838.500,270184.700,301189.300,265331.100,0.000
225492.500,237887.300,472208.700,520733.900,221218.800,269600.600,300454.500,264718.300,0.000
225190.300,237681.100,471879.200,520297.800,220884.500,269253.100,299940.200,264347.700,0.000
225730.200,238088.800,472265.700,520685.900,221301.200,269624.800,300355.100,264735.500,0.000
226361.900,238541.100,472787.800,521293.900,221892.000,270196.800,301113.200,265339.800,0.000
226212.500,238410.700,472683.700,521217.100,221842.100,270176.100,301158.800,265323.000,0.000
225477.600,237865.300,472048.300,520489.300,221214.000,269580.900,300411.200,264698.700,0.000
225178.500,237662.800,471724.300,520057.100,220882.700,269237.800,299901.500,264331.600,0.000
225728.100,238081.500,472119.100,520449.900,221306.500,269616.400,300323.300,264723.900,0.000
226353.200,238524.200,472635.600,521049.400,221889.200,270180.900,301074.300,265318.900,0.000
226191.100,238382.000,472523.900,520966.200,221831.200,270150.200,301115.000,265295.200,0.000
225471.400,237856.000,471900.200,520253.500,221215.200,269567.300,300383.800,264685.600,0.000
225176.900,237656.100,471579.300,519827.500,220889.300,269230.000,299882.700,264325.000,0.000
225722.200,238067.100,471968.800,520218.200,221308.800,269603.300,300301.600,264712.700,0.000
226350.900,238519.400,472486.500,520822.300,221894.000,270170.400,301055.300,265308.000,0.000
226197.100,238385.500,472376.700,520749.900,221842.900,270151.500,301102.600,265290.800,0.000
225461.100,237838.300,471737.700,520025.300,221216.900,269559.300,300360.600,264671.900,0.000
225160.800,237632.800,471411.800,519589.400,220885.400,269212.800,299849.800,264302.400,0.000
225703.800,238044.600,471803.700,519977.900,221303.700,269585.500,300266.300,264686.900,0.000
226332.300,238495.000,472325.100,520585.800,221890.200,270154.600,301022.700,265284.000,0.000
226177.300,238360.400,472211.500,520504.900,221829.400,270125.800,301060.000,265256.200,0.000
225439.800,237814.500,471573.000,519777.900,221201.000,269530.800,300310.500,264630.900,0.000
225138.900,237610.300,471255.200,519350.700,220876.700,269192.400,299805.400,264270.200,0.000
225686.700,238026.200,471654.200,519746.400,221300.400,269571.700,300227.800,264664.000,0.000
226315.500,238476.700,472175.500,520353.800,221884.600,270139.200,300981.900,265261.900,0.000
226163.600,238343.500,472070.900,520284.600,221834.500,270121.100,301028.300,265244.900,0.000
225424.100,237790.200,471429.100,519556.000,221203.200,269524.000,300276.300,264615.300,0.000
225119.800,237580.300,471100.900,519117.800,220866.500,269174.800,299760.800,264242.900,0.000
225672.300,238001.700,471500.800,519516.100,221291.800,269555.000,300186.300,264637.900,0.000
226300.600,238451.700,472019.100,520119.400,221873.300,270118.300,300939.000,265233.200,0.000
226146.400,238315.000,471908.700,520043.200,221816.400,270093.200,300981.400,265212.400,0.000
225411.500,237769.000,471269.900,519318.500,221187.200,269497.600,300233.800,264587.700,0.000
225115.000,237570.300,470948.400,518888.400,220860.500,269158.000,299724.300,264223.300,0.000
225662.600,237989.300,471343.600,519282.200,221284.200,269538.300,300144.100,264613.700,0.000
226289.400,238440.400,471865.800,519891.500,221870.900,270109.300,300900.600,265212.000,0.000
226139.400,238309.700,471758.400,519817.800,221817.300,270088.800,300946.400,265192.500,0.000
225393.000,237752.900,471115.500,519086.600,221183.600,269487.600,300195.000,264561.300,0.000
225098.100,237558.200,470798.000,518658.500,220856.800,269145.700,299689.300,264197.700,0.000
225645.400,237976.500,471193.100,519053.600,221277.200,269524.200,300109.600,264588.600,0.000
226269.800,238420.200,471710.000,519657.300,221856.900,270087.300,300860.000,265182.800,0.000
226124.700,238292.300,471610.900,519589.700,221812.800,270070.900,300911.100,265169.300,0.000
225396.600,237754.800,470981.000,518870.400,221195.400,269481.800,300170.600,264550.300,0.000
225080.100,237535.200,470645.200,518426.000,220853.000,269124.500,299647.300,264169.300,0.000
225630.200,237956.800,471040.200,518820.100,221275.000,269501.000,300067.300,264558.200,0.000
226266.500,238416.800,471565.600,519433.500,221865.100,270073.300,300828.800,265161.300,0.000
226113.100,238281.800,471456.300,519358.000,221810.500,270048.700,300873.700,265140.100,0.000
225374.500,237733.700,470818.300,518633.000,221181.800,269452.000,300125.000,264513.800,0.000
225072.100,237528.300,470496.400,518202.300,220850.600,269106.000,299613.600,264145.200,0.000
225623.700,237950.300,470897.300,518604.200,221277.300,269488.400,300038.700,264540.800,0.000
226250.700,238401.000,471418.800,519213.900,221863.700,270059.100,300795.300,265140.500,0.000
226094.000,238264.800,471305.000,519134.400,221803.800,270028.800,300832.400,265114.800,0.000
225365.900,237728.000,470677.000,518420.100,221183.900,269440.200,300093.700,264498.600,0.000
225067.500,237526.500,470357.400,517992.700,220855.300,269097.700,299584.800,264131.500,0.000
225607.000,237934.200,470747.800,518385.800,221270.500,269469.600,299999.500,264516.600,0.000
226237.500,238385.200,471270.800,518995.700,221854.000,270040.000,300754.900,265114.900,0.000
226084.400,238250.500,471167.100,518926.000,221801.400,270020.200,300801.100,265097.300,0.000
225355.400,237710.600,470536.100,518208.100,221178.400,269430.300,300059.500,264478.900,0.000
225052.500,237505.500,470211.900,517776.800,220846.700,269084.200,299546.000,264109.200,0.000
225595.800,237919.600,470606.100,518171.400,221265.600,269459.500,299960.500,264494.600,0.000
226233.400,238378.600,471133.300,518787.000,221856.600,270033.600,300718.300,265097.400,0.000
226072.000,238235.000,471015.400,518705.400,221791.800,270001.600,300751.900,265066.800,0.000
225346.400,237698.000,470389.600,517993.800,221174.400,269420.000,300019.100,264453.300,0.000
225046.000,237494.000,470068.900,517564.300,220844.500,269077.700,299510.700,264087.500,0.000
225580.700,237897.300,470453.300,517946.400,221253.600,269442.200,299916.700,264465.100,0.000
226209.100,238345.800,470971.600,518551.500,221834.500,270005.500,300667.500,265060.300,0.000
226067.200,238224.900,470873.000,518487.400,221790.900,269990.400,300720.600,265048.300,0.000
225333.600,237681.500,470240.000,517770.100,221168.200,269401.000,299980.700,264427.800,0.000
225026.900,237473.300,469916.200,517338.800,220836.700,269057.700,299470.700,264060.800,0.000
225565.600,237881.900,470308.700,517730.800,221253.500,269428.500,299885.000,264447.300,0.000
226203.700,238341.800,470836.800,518344.500,221840.800,269999.800,300643.300,265050.900,0.000
226056.600,238209.700,470733.900,518275.200,221787.300,269979.400,300694.100,265035.700,0.000
225325.400,237666.500,470100.000,517554.700,221161.000,269386.200,299951.000,264415.000,0.000
225021.400,237461.300,469777.300,517123.200,220825.800,269038.800,299435.400,264045.500,0.000
225564.900,237873.200,470169.500,517515.900,221243.800,269411.600,299848.500,264431.000,0.000
226201.100,238329.300,470697.300,518133.800,221836.100,269984.800,300610.300,265038.400,0.000
226063.700,238211.300,470604.200,518076.200,221795.400,269975.500,300669.500,265034.800,0.000
225323.800,237658.800,469962.500,517353.200,221164.000,269376.100,299920.900,264407.400,0.000
225011.500,237442.700,469630.300,516914.400,220821.800,269019.800,299398.100,264029.900,0.000
225549.800,237847.800,470022.300,517306.500,221238.800,269390.800,299809.900,264416.200,0.000
226179.500,238298.900,470543.800,517916.400,221822.900,269954.200,300561.400,265011.100,0.000
226028.100,238167.500,470440.600,517847.400,221769.500,269931.200,300606.900,264993.600,0.000
225298.300,237626.000,469810.800,517132.600,221145.700,269340.600,299866.500,264375.500,0.000
225001.200,237425.500,469492.100,516708.500,220817.500,268999.300,299358.700,264011.100,0.000
225538.800,237832.200,469881.300,517098.300,221228.900,269366.500,299767.400,264392.400,0.000
226175.200,238288.600,470405.700,517713.300,221814.400,269936.600,300524.200,264992.800,0.000
226033.900,238165.000,470307.500,517654.300,221769.500,269922.700,300582.200,264982.800,0.000
225304.300,237626.200,469679.600,516941.100,221151.700,269339.900,299848.100,264368.600,0.000
225000.100,237418.700,469354.800,516509.500,220816.900,268996.400,299334.000,263998.200,0.000
225538.100,237824.100,469741.400,516896.800,221224.400,269362.900,299738.300,264377.400,0.000
226172.300,238278.000,470268.000,517509.800,221808.500,269931.800,300491.900,264976.300,0.000
226029.300,238153.000,470172.100,517447.500,221762.800,269916.200,300545.900,264965.600,0.000
225279.000,237595.300,469522.800,516713.100,221123.400,269306.100,299787.300,264330.500,0.000
224962.400,237377.100,469185.800,516270.500,220777.700,268945.500,299258.900,263948.000,0.000
225506.100,237790.900,469583.200,516667.700,221195.500,269320.900,299674.000,264338.600,0.000
226144.800,238246.600,470113.300,517285.300,221783.300,269893.700,300434.200,264942.300,0.000
225991.300,238109.700,470007.200,517214.100,221727.400,269869.300,300478.000,264921.300,0.000
225258.900,237565.400,469376.500,516498.700,221105.500,269279.600,299736.600,264305.000,0.000
224953.000,237355.700,469048.300,516063.700,220770.000,268930.400,299218.300,263934.400,0.000
225497.100,237774.700,469443.300,516458.100,221188.600,269304.900,299632.400,264321.600,0.000
226134.600,238235.000,469972.100,517075.300,221778.600,269877.000,300389.800,264923.800,0.000
225989.600,238105.300,469874.900,517014.300,221734.200,269860.600,300444.900,264913.400,0.000
225261.000,237565.600,469245.900,516301.400,221114.500,269274.400,299709.500,264298.400,0.000
224954.800,237359.200,468919.100,515866.900,220775.300,268924.800,299192.100,263925.800,0.000
225497.000,237774.100,469313.200,516258.900,221189.700,269295.200,299604.000,264310.000,0.000
226140.000,238237.700,469849.300,516884.300,221784.800,269873.100,300368.400,264918.300,0.000
225990.800,238105.900,469749.000,516821.600,221733.900,269855.800,300419.200,264902.400,0.000
225242.500,237544.900,469104.400,516094.800,221100.300,269254.900,299666.300,264271.000,0.000
224939.200,237340.800,468780.300,515662.000,220766.900,268906.700,299149.800,263900.700,0.000
225484.300,237758.600,469178.300,516058.500,221184.900,269279.800,299562.100,264287.100,0.000
226118.800,238214.400,469709.200,516678.300,221772.800,269850.600,300319.000,264888.800,0.000
225976.800,238088.400,469613.800,516621.900,221726.000,269836.300,300371.800,264877.200,0.000
225244.900,237544.000,468985.500,515911.900,221106.500,269251.700,299635.700,264262.800,0.000
224932.400,237329.500,468651.700,515469.700,220761.700,268893.900,299109.200,263882.600,0.000
225468.700,237737.100,469038.600,515857.500,221171.100,269258.200,299513.800,264260.800,0.000
226107.000,238196.200,469569.800,516478.900,221761.000,269831.000,300274.900,264864.000,0.000
225954.500,238057.700,469466.100,516417.200,221710.300,269812.200,300325.000,264848.800,0.000
225220.800,237510.500,468835.100,515705.100,221088.700,269224.400,299585.200,264229.900,0.000
224926.400,237314.500,468518.900,515280.100,220760.400,268882.800,299075.500,263863.900,0.000
225462.200,237723.600,468909.500,515670.200,221172.600,269250.800,299484.600,264244.500,0.000
226096.800,238182.500,469437.100,516285.200,221758.000,269821.800,300241.200,264844.900,0.000
225950.600,238054.000,469342.700,516227.300,221715.400,269809.600,300299.300,264837.600,0.000
225219.000,237512.100,468716.100,515515.300,221095.600,269220.800,299562.600,264222.800,0.000
224920.800,237314.800,468397.600,515085.500,220763.500,268875.800,299050.300,263858.200,0.000
225455.700,237722.700,468787.800,515472.700,221175.200,269247.300,299459.000,264244.100,0.000
226093.500,238178.500,469318.400,516091.800,221765.800,269822.300,300220.500,264855.300,0.000
225943.300,238044.000,469214.500,516026.100,221712.600,269802.300,300269.600,264846.800,0.000
225200.500,237491.000,468576.400,515306.900,221085.500,269208.800,299526.600,264232.700,0.000
224895.100,237287.400,468252.800,514876.000,220752.800,268863.400,299013.600,263871.800,0.000
225429.700,237695.600,468641.000,515263.100,221162.300,269227.600,299421.600,264261.800,0.000
226060.800,238146.300,469167.900,515879.500,221750.100,269796.600,300181.300,264874.300,0.000
225917.900,238020.700,469073.700,515825.200,221707.700,269785.600,300241.700,264877.800,0.000
225188.400,237481.800,468445.800,515117.500,221088.900,269200.300,299508.500,264274.300,0.000
224871.600,237263.000,468113.100,514683.000,220748.500,268846.400,298991.100,263909.300,0.000
225407.200,237670.200,468504.300,515077.900,221165.500,269218.100,299407.100,264306.300,0.000
226049.600,238133.600,469035.200,515699.400,221755.200,269791.900,300170.600,264921.200,0.000
225904.300,238003.300,468936.000,515642.600,221704.700,269773.200,300228.900,264917.600,0.000
225174.000,237458.100,468309.200,514937.400,221082.700,269187.100,299498.700,264311.700,0.000
224879.600,237259.800,467994.500,514518.800,220754.300,268849.300,298995.500,263958.000,0.000
225409.400,237660.700,468374.500,514900.400,221157.200,269206.600,299394.100,264335.100,0.000
226032.100,238105.500,468892.700,515508.500,221733.600,269764.000,300140.100,264930.600,0.000
225884.100,237970.700,468788.800,515443.700,221677.300,269738.700,300186.500,264916.400,0.000
225156.800,237431.000,468163.500,514737.500,221060.800,269154.200,299452.900,264308.000,0.000
224847.900,237221.200,467839.800,514306.300,220725.200,268804.800,298937.000,263941.600,0.000
225385.300,237631.600,468233.100,514702.100,221138.500,269175.500,299350.500,264331.100,0.000
226024.600,238093.300,468768.500,515328.800,221731.900,269751.500,300116.700,264943.200,0.000
225893.300,237976.700,468684.600,515283.800,221695.400,269747.400,300186.300,264949.200,0.000
225160.500,237433.000,468055.700,514574.600,221073.200,269158.900,299451.200,264337.200,0.000
224840.700,237215.000,467723.400,514134.800,220727.600,268799.400,298925.400,263957.800,0.000
225373.900,237623.100,468114.000,514526.800,221139.200,269165.800,299333.600,264341.600,0.000
226009.800,238080.900,468644.000,515150.300,221731.500,269739.300,300096.700,264949.000,0.000
225856.700,237940.000,468538.800,515086.100,221677.200,269716.200,300147.800,264934.300,0.000
225130.000,237402.300,467908.900,514374.600,221050.900,269125.000,299410.300,264317.100,0.000
224819.400,237193.100,467580.500,513943.300,220714.800,268774.000,298891.700,263944.900,0.000
225351.700,237596.000,467964.400,514328.200,221122.100,269134.200,299292.200,264323.200,0.000
225988.300,238051.300,468491.700,514945.400,221709.000,269702.200,300049.200,264927.400,0.000
225852.000,237929.500,468402.500,514897.000,221668.800,269693.800,300113.900,264928.000,0.000
225117.700,237382.300,467772.900,514188.300,221049.300,269104.700,299378.800,264313.600,0.000
224803.500,237169.700,467439.700,513751.100,220706.000,268746.700,298854.600,263934.600,0.000
225343.100,237582.400,467832.600,514146.200,221117.700,269114.100,299265.800,264319.800,0.000
225985.500,238046.800,468368.800,514773.600,221713.400,269689.800,300033.600,264932.700,0.000
225841.900,237917.200,468269.900,514713.400,221665.800,269669.200,300088.400,264923.200,0.000
225108.000,237369.600,467635.500,514000.800,221040.200,269073.300,299347.200,264303.500,0.000
224795.600,237155.400,467306.900,513571.900,220704.100,268723.000,298831.500,263933.300,0.000
225332.100,237567.600,467698.100,513964.800,221116.400,269089.800,299241.200,264318.000,0.000
225969.100,238026.200,468229.900,514588.900,221706.200,269662.100,300003.900,264924.400,0.000
225837.800,237910.900,468147.800,514548.800,221674.000,269659.300,300073.800,264929.600,0.000
225099.300,237363.100,467511.600,513835.300,221047.900,269064.200,299330.400,264309.500,0.000
224771.500,237133.000,467165.100,513383.900,220690.100,268689.700,298790.900,263917.200,0.000
225313.900,237544.900,467562.000,513783.500,221108.000,269061.600,299203.800,264307.000,0.000
225944.000,237994.100,468086.600,514400.800,221690.300,269629.700,299957.700,264906.700,0.000
225801.600,237865.100,467988.900,514345.500,221643.000,269613.700,300012.800,264896.000,0.000
225075.300,237326.500,467365.200,513644.200,221028.200,269028.800,299281.000,264283.000,0.000
224769.600,237121.700,467044.000,513218.300,220694.700,268682.600,298766.800,263912.300,0.000
225309.300,237535.400,467432.800,513610.400,221105.700,269048.700,299173.800,264289.400,0.000
225945.500,237991.600,467962.800,514231.700,221694.500,269618.800,299935.800,264889.900,0.000
225808.600,237869.100,467872.200,514182.300,221655.500,269611.100,300000.700,264885.100,0.000
225078.500,237324.500,467243.300,513474.900,221033.200,269023.100,299263.600,264268.200,0.000
224760.800,237104.900,466908.900,513037.700,220686.700,268662.000,298737.000,263884.800,0.000
225297.000,237510.800,467301.100,513430.300,221099.300,269028.100,299145.000,264265.100,0.000
225941.100,237974.000,467836.300,514057.300,221692.800,269604.100,299909.400,264872.100,0.000
225803.400,237851.100,467742.200,514004.400,221648.200,269590.700,299968.600,264862.600,0.000
225070.700,237304.500,467111.000,513291.800,221021.800,269000.100,299230.400,264240.200,0.000
224757.600,237088.800,466778.300,512856.700,220678.800,268643.800,298707.800,263860.300,0.000
225288.100,237488.000,467163.200,513243.600,221084.400,269004.500,299107.900,264233.800,0.000
225926.200,237946.800,467694.700,513866.000,221675.800,269574.400,299866.000,264836.100,0.000
225790.000,237830.000,467607.900,513820.500,221638.700,269565.500,299931.300,264833.700,0.000
225062.900,237294.000,466984.700,513118.800,221021.900,268984.100,299201.000,264222.900,0.000
224750.600,237085.600,466659.100,512692.100,220683.800,268634.100,298683.100,263851.500,0.000
225286.100,237494.500,467050.700,513087.600,221096.000,269001.700,299089.500,264233.800,0.000
225927.100,237954.000,467584.800,513712.100,221687.300,269574.800,299850.000,264838.200,0.000
225782.400,237822.400,467486.100,513654.700,221639.200,269554.800,299902.400,264823.600,0.000
225051.600,237278.200,466860.700,512949.000,221016.500,268966.000,299167.300,264208.700,0.000
224733.500,237057.800,466527.100,512513.800,220666.300,268605.200,298640.900,263826.600,0.000
225268.100,237462.800,466916.400,512906.400,221076.100,268970.400,299047.000,264206.800,0.000
225906.600,237922.300,467451.300,513535.600,221671.000,269547.400,299814.300,264815.200,0.000
225772.700,237805.500,467363.700,513487.200,221632.500,269538.400,299880.300,264811.700,0.000
225040.400,237264.600,466734.100,512776.600,221010.300,268949.700,299142.400,264191.500,0.000
224740.400,237066.500,466417.600,512356.200,220685.000,268613.200,298633.400,263826.700,0.000
225267.700,237467.300,466798.300,512739.400,221088.500,268971.500,299030.300,264196.400,0.000
225887.500,237910.000,467314.900,513347.000,221663.700,269528.000,299775.400,264781.700,0.000
225745.800,237782.800,467222.500,513299.000,221622.600,269518.300,299840.000,264777.500,0.000
225015.300,237241.300,466595.600,512593.800,221002.100,268931.800,299105.500,264162.500,0.000
224705.500,237034.500,466271.100,512165.100,220665.300,268581.600,298587.500,263788.900,0.000
225237.900,237440.300,466658.800,512554.300,221074.000,268945.000,298992.300,264167.900,0.000
225870.100,237896.600,467184.200,513169.600,221656.100,269509.700,299744.600,264766.300,0.000
225729.900,237769.500,467093.500,513118.700,221614.900,269498.700,299805.200,264759.600,0.000
224999.700,237227.900,466464.600,512412.100,220995.100,268911.100,299068.200,264141.800,0.000
224687.400,237016.400,466136.700,511982.300,220654.800,268561.000,298548.100,263766.000,0.000
225228.600,237429.000,466530.400,512377.200,221063.600,268927.600,298955.100,264145.500,0.000
225869.800,237889.300,467067.500,513005.600,221658.600,269501.800,299717.900,264752.900,0.000
225731.300,237764.200,466975.000,512953.600,221618.300,269486.500,299775.200,264743.700,0.000
224998.400,237220.600,466348.900,512248.800,220999.200,268899.200,299039.900,264127.500,0.000
224683.900,237007.300,466021.900,511822.000,220662.200,268550.400,298522.400,263754.300,0.000
225219.600,237417.600,466410.400,512213.100,221071.100,268914.900,298927.100,264132.300,0.000
225859.600,237879.000,466946.000,512841.500,221664.900,269490.000,299691.000,264739.200,0.000
225723.000,237757.300,466857.200,512794.000,221625.400,269481.800,299753.300,264734.400,0.000
224991.800,237216.400,466231.600,512086.900,221006.000,268896.700,299020.700,264120.300,0.000
224673.000,236998.300,465897.000,511647.000,220659.700,268537.300,298492.400,263736.400,0.000
225184.500,237379.400,466263.900,512016.400,221047.300,268880.000,298873.900,264093.600,0.000
225837.800,237852.300,466806.900,512653.300,221650.700,269464.400,299645.800,264709.600,0.000
225700.900,237728.400,466715.400,512603.800,221608.000,269452.400,299703.200,264701.200,0.000
224973.400,237185.400,466087.900,511896.900,220984.500,268863.800,298965.300,264081.900,0.000
224658.800,236968.400,465755.300,511459.700,220639.900,268507.000,298441.700,263700.600,0.000
225197.700,237379.700,466147.300,511853.300,221049.400,268873.800,298847.300,264079.500,0.000
225841.300,237843.800,466687.800,512482.700,221644.000,269452.300,299613.300,264685.700,0.000
225709.200,237729.000,466605.900,512441.800,221611.600,269448.900,299684.000,264685.700,0.000
224972.100,237181.700,465977.500,511736.300,220988.800,268860.100,298947.600,264067.500,0.000
224651.000,236957.600,465641.500,511298.300,220639.100,268495.600,298416.200,263681.700,0.000
225183.000,237359.700,466028.000,511685.400,221043.400,268852.100,298814.700,264052.900,0.000
225829.400,237829.100,466568.800,512319.000,221640.200,269429.400,299581.700,264662.400,0.000
225695.500,237712.100,466482.200,512275.200,221601.400,269420.600,299646.100,264658.300,0.000
224969.300,237174.300,465859.600,511572.700,220984.600,268836.000,298914.700,264045.200,0.000
224648.000,236952.600,465523.300,511133.600,220636.200,268473.300,298385.700,263659.800,0.000
225172.600,237350.500,465905.500,511517.600,221036.900,268828.600,298780.100,264029.200,0.000
225812.800,237811.900,466440.500,512144.600,221631.300,269403.900,299543.300,264635.100,0.000
225675.700,237686.700,466351.100,512097.900,221591.700,269393.700,299607.600,264630.200,0.000
224942.700,237141.200,465724.200,511395.000,220972.600,268808.700,298873.500,264014.000,0.000
224628.700,236930.600,465393.600,510961.500,220629.100,268453.900,298347.100,263632.300,0.000
225162.500,237341.900,465785.100,511355.400,221038.700,268822.900,298752.300,264011.300,0.000
225792.200,237792.500,466310.500,511971.300,221622.800,269387.300,299503.000,264605.500,0.000
225654.400,237671.800,466221.500,511921.000,221582.200,269376.300,299566.000,264599.000,0.000
224930.200,237136.500,465602.300,511222.900,220969.500,268794.600,298837.800,263990.300,0.000
224616.200,236922.100,465274.200,510794.100,220629.400,268441.500,298315.400,263615.300,0.000
225149.500,237327.100,465656.900,511179.800,221029.600,268799.600,298707.400,263986.100,0.000
225793.700,237786.600,466193.700,511811.400,221621.300,269377.300,299471.300,264594.300,0.000
225662.700,237665.600,466112.500,511771.000,221584.400,269376.000,299541.800,264595.100,0.000
224926.100,237117.200,465481.400,511060.700,220954.900,268783.600,298799.700,263971.500,0.000
224611.700,236905.500,465152.600,510630.400,220613.100,268429.900,298277.300,263592.700,0.000
225139.500,237305.900,465537.100,511019.400,221017.500,268789.900,298678.400,263966.700,0.000
225777.500,237760.300,466065.000,511640.000,221602.500,269354.700,299432.100,264564.100,0.000
225639.800,237635.500,465970.400,511590.300,221558.800,269339.200,299488.300,264554.800,0.000
224908.900,237091.900,465343.600,510886.200,220938.600,268749.300,298751.700,263938.200,0.000
224595.800,236881.400,465021.000,510458.300,220600.600,268398.800,298234.700,263565.200,0.000
225135.600,237295.900,465420.200,510859.600,221018.400,268771.300,298649.900,263953.700,0.000
225770.000,237751.800,465952.400,511483.200,221608.000,269342.400,299410.700,264555.600,0.000
225633.100,237627.800,465864.400,511437.300,221568.500,269332.800,299474.800,264550.300,0.000
224896.200,237079.500,465232.400,510725.500,220941.500,268739.400,298733.500,263928.700,0.000
224575.900,236863.100,464897.000,510287.500,220595.000,268380.700,298205.000,263546.800,0.000
225120.000,237279.100,465295.800,510690.300,221013.600,268756.700,298619.000,263934.800,0.000
225763.500,237741.500,465833.300,511321.100,221608.700,269333.400,299383.800,264542.200,0.000
225615.400,237607.400,465734.400,511263.400,221557.100,269310.600,299434.800,264527.500,0.000
224883.400,237065.700,465112.300,510562.300,220938.800,268726.000,298701.400,263915.400,0.000
224569.600,236851.700,464787.500,510133.300,220598.100,268374.400,298180.800,263542.000,0.000
225096.700,237252.000,465170.800,510519.500,220999.600,268733.300,298575.700,263914.000,0.000
225729.700,237705.100,465701.600,511144.100,221588.400,269302.200,299330.800,264513.900,0.000
225598.800,237588.100,465620.300,511102.700,221555.500,269298.500,299397.900,264511.700,0.000
224870.800,237047.400,464998.800,510398.900,220937.500,268714.100,298663.800,263896.300,0.000
224550.500,236829.200,464666.300,509962.000,220588.000,268352.500,298134.200,263511.800,0.000
225082.700,237235.000,465052.300,510355.200,220992.900,268712.800,298533.600,263886.100,0.000
225720.200,237692.600,465582.500,510980.700,221580.500,269283.600,299292.300,264489.300,0.000
225587.900,237577.200,465498.900,510941.500,221547.000,269282.200,299363.500,264492.500,0.000
224868.300,237048.700,464884.800,510250.500,220940.900,268711.400,298644.300,263892.200,0.000
224560.300,236840.000,464559.400,509825.300,220603.800,268365.600,298128.300,263520.700,0.000
225095.100,237246.200,464950.600,510221.200,221011.900,268732.800,298532.800,263899.100,0.000
225732.500,237703.800,465484.800,510846.600,221600.400,269303.000,299291.800,264500.500,0.000
225591.700,237578.200,465391.300,510792.700,221554.500,269286.800,299349.300,264489.500,0.000
224853.300,237027.800,464757.500,510077.400,220925.600,268691.100,298606.900,263865.800,0.000
224528.100,236801.600,464418.800,509633.900,220572.400,268322.400,298071.300,263476.800,0.000
225059.400,237208.600,464807.200,510028.000,220982.400,268685.900,298472.300,263853.500,0.000
225704.300,237672.600,465343.500,510660.600,221580.000,269262.000,299237.800,264462.300,0.000
225562.100,237542.600,465247.100,510609.400,221535.300,269245.600,299297.600,264453.200,0.000
224836.300,237006.600,464624.200,509909.300,220917.100,268661.100,298566.400,263839.800,0.000
224521.900,236794.100,464301.500,509481.500,220581.200,268310.500,298047.600,263466.200,0.000
225051.500,237197.100,464694.000,509873.800,220993.000,268676.800,298453.000,263847.500,0.000
225688.500,237652.500,465227.100,510498.800,221583.500,269248.800,299213.700,264452.700,0.000
225548.900,237524.600,465133.400,510447.600,221538.900,269234.200,299272.700,264442.500,0.000
224818.400,236982.100,464505.000,509741.300,220916.500,268644.300,298535.300,263823.700,0.000
224500.200,236762.700,464171.700,509304.500,220568.300,268284.500,298005.800,263438.500,0.000
225037.200,237173.800,464565.700,509699.900,220977.000,268652.300,298409.700,263817.500,0.000
225678.300,237636.300,465102.400,510329.100,221566.600,269227.500,299170.900,264421.900,0.000
225536.600,237507.800,465010.200,510281.200,221520.900,269214.500,299232.300,264413.600,0.000
224815.000,236973.600,464396.100,509591.100,220909.200,268639.500,298509.900,263809.400,0.000
224524.300,236785.100,464089.800,509181.300,220585.500,268308.000,298008.000,263451.000,0.000
225065.400,237200.300,464486.500,509581.000,220997.900,268679.100,298415.800,263832.000,0.000
225706.000,237658.800,465024.800,510215.200,221593.500,269256.400,299183.500,264440.200,0.000
225552.300,237517.600,464924.700,510159.700,221539.500,269233.200,299235.400,264423.900,0.000
224815.500,236972.000,464291.700,509448.200,220906.400,268636.100,298489.500,263798.900,0.000
224495.400,236753.200,463957.900,509011.200,220558.100,268276.900,297959.800,263413.200,0.000
225023.300,237152.600,464342.100,509398.300,220960.900,268637.000,298355.800,263782.500,0.000
225661.300,237607.800,464879.400,510025.800,221551.900,269211.000,299116.300,264386.600,0.000
225527.200,237489.100,464793.600,509983.900,221511.100,269201.100,299180.400,264380.800,0.000
224795.900,236947.800,464166.600,509281.700,220887.900,268613.000,298445.300,263763.400,0.000
224475.300,236729.800,463830.800,508849.000,220539.800,268252.300,297921.100,263382.200,0.000
224991.300,237118.000,464204.400,509229.800,220934.400,268602.300,298312.700,263745.800,0.000
225632.700,237577.000,464739.000,509858.700,221524.000,269172.700,299072.600,264347.900,0.000
225524.100,237482.100,464676.600,509839.100,221506.900,269186.000,299157.900,264364.700,0.000
224800.700,236948.000,464060.200,509142.600,220893.700,268607.100,298432.300,263758.200,0.000
224480.300,236728.000,463727.800,508705.700,220545.500,268248.000,297904.900,263375.900,0.000
225006.800,237124.800,464111.700,509092.700,220946.600,268606.600,298298.900,263748.100,0.000
225648.100,237584.200,464648.600,509721.500,221537.800,269181.400,299059.500,264354.200,0.000
225523.800,237473.500,464570.800,509684.600,221505.300,269181.000,299131.500,264360.300,0.000
224792.800,236930.900,463949.500,508986.300,220889.300,268598.700,298402.900,263755.400,0.000
224467.000,236708.800,463613.600,508549.400,220542.300,268237.800,297874.700,263376.300,0.000
224996.200,237113.300,463995.800,508935.800,220945.100,268595.700,298268.900,263751.300,0.000
225639.400,237576.200,464536.200,509570.500,221546.600,269178.300,299037.800,264372.300,0.000
225508.600,237459.000,464452.700,509533.700,221512.500,269174.800,299110.500,264384.100,0.000
224771.600,236909.900,463821.400,508827.600,220886.300,268582.900,298373.700,263775.000,0.000
224452.700,236692.000,463489.700,508396.300,220542.800,268229.100,297850.600,263405.800,0.000
224976.700,237089.100,463872.700,508784.000,220946.600,268589.700,298249.100,263788.600,0.000
225624.200,237559.500,464413.900,509421.600,221544.500,269168.700,299017.900,264410.100,0.000
225488.200,237438.500,464327.700,509383.800,221504.400,269159.500,299084.700,264417.600,0.000
224753.300,236890.300,463702.100,508682.300,220881.600,268572.700,298352.300,263811.200,0.000
224437.500,236676.700,463374.900,508254.500,220538.200,268217.700,297832.000,263440.300,0.000
224966.600,237081.100,463762.100,508650.200,220943.500,268578.300,298234.700,263822.200,0.000
225591.800,237526.100,464284.400,509270.500,221522.700,269137.700,298986.000,264421.800,0.000
225454.600,237399.800,464194.700,509226.000,221483.300,269125.400,299050.200,264423.800,0.000
224729.500,236859.900,463573.300,508528.100,220867.300,268542.000,298321.900,263820.700,0.000
224411.400,236643.400,463248.300,508102.400,220528.800,268190.600,297803.700,263453.400,0.000
224945.600,237055.200,463639.900,508501.100,220938.900,268555.900,298210.100,263839.800,0.000
225598.000,237528.100,464184.800,509141.600,221540.300,269135.800,298981.300,264460.600,0.000
225462.800,237402.500,464097.500,509096.800,221500.600,269123.300,299044.400,264461.200,0.000
224731.800,236857.300,463476.100,508395.600,220880.100,268533.900,298313.200,263851.000,0.000
224407.400,236633.100,463144.500,507962.700,220532.100,268172.900,297788.800,263471.800,0.000
224932.700,237033.800,463529.300,508353.300,220934.000,268530.800,298186.100,263845.600,0.000
225578.500,237502.100,464068.100,508986.900,221527.900,269105.700,298951.800,264456.900,0.000
225444.700,237381.700,463982.300,508947.100,221487.600,269097.400,299020.500,264459.800,0.000
224710.300,236838.100,463357.200,508244.800,220865.100,268505.600,298285.900,263846.100,0.000
224389.500,236621.400,463026.300,507813.400,220520.000,268145.700,297759.800,263467.000,0.000
224922.700,237029.000,463418.800,508212.900,220930.700,268511.900,298166.400,263851.100,0.000
225564.100,237484.500,463957.100,508847.200,221526.900,269088.700,298933.400,264462.600,0.000
225432.600,237365.800,463871.000,508805.100,221487.700,269077.100,298999.400,264460.100,0.000
224711.200,236835.400,463254.500,508113.400,220876.400,268498.400,298278.200,263855.400,0.000
224381.800,236608.200,462913.000,507671.400,220519.300,268130.300,297744.500,263465.900,0.000
224910.800,237013.700,463301.200,508064.900,220925.600,268492.800,298146.200,263843.200,0.000
225557.700,237475.500,463842.000,508698.800,221519.600,269069.800,298912.800,264454.200,0.000
225426.600,237349.500,463759.700,508661.100,221483.900,269061.900,298981.900,264458.500,0.000
224697.100,236808.500,463134.300,507960.800,220863.300,268473.800,298249.500,263845.900,0.000
224373.300,236589.000,462800.200,507527.800,220513.700,268110.900,297724.200,263463.300,0.000
224903.200,236992.100,463190.600,507921.300,220917.300,268469.800,298126.700,263840.400,0.000
225547.700,237457.800,463733.700,508557.100,221512.800,269046.900,298893.300,264452.200,0.000
225408.100,237331.800,463643.300,508511.500,221468.700,269032.100,298955.300,264445.000,0.000
224670.800,236782.800,463014.100,507805.600,220844.500,268440.300,298217.500,263824.900,0.000
224351.600,236565.500,462683.700,507371.700,220498.900,268080.400,297689.500,263443.100,0.000
224892.400,236980.500,463082.900,507770.300,220913.100,268449.400,298096.000,263827.600,0.000
