EEG 1, EEG 2, EEG 3, EEG 4, EEG 5, EEG 6, EEG 7, EEG 8, TRIG
343685.200,356411.800,750000.100,750000.100,364725.400,327376.200,325988.700,338526.500,0.000
325600.500,337777.300,750000.100,750000.100,345736.200,310149.600,309046.200,320810.800,0.000
314515.300,326136.900,750000.100,750000.100,333719.400,299483.700,298429.000,309756.700,0.000
305566.100,316648.300,750000.100,750000.100,323970.100,290794.000,289776.100,300842.900,0.000
297954.700,308697.500,750000.100,750000.100,315973.900,283477.000,282580.400,293434.400,0.000
290761.000,301276.600,750000.100,750000.100,308551.700,276674.000,275900.700,286488.000,0.000
283863.300,294067.900,750000.100,744832.900,301176.700,270147.800,269384.900,279676.600,0.000
277832.900,287621.600,750000.100,705192.000,294417.500,264342.100,263491.500,273566.900,0.000
272916.300,282338.000,750000.100,671234.900,288911.200,259545.600,258650.500,268614.100,0.000
268623.300,277849.100,750000.100,641691.600,284404.400,255423.400,254595.800,264462.500,0.000
264287.400,273405.900,750000.100,615324.900,279991.300,251358.600,250620.600,260322.500,0.000
259888.500,268824.900,750000.100,591552.000,275289.400,247235.100,246488.100,255982.900,0.000
255952.700,264605.700,750000.100,570325.500,270815.800,243456.400,242622.600,251966.000,0.000
252800.400,261198.600,750000.100,551622.800,267238.200,240373.300,239492.100,248775.100,0.000
250084.700,258374.900,750000.100,534955.400,264417.400,237759.500,236932.700,246170.300,0.000
247158.400,255425.800,750000.100,519508.600,261513.900,235044.300,234295.400,243420.300,0.000
244027.100,252191.300,750000.100,505065.200,258182.600,232128.100,231372.500,240331.800,0.000
241252.100,249200.800,750000.100,491937.700,254974.400,229456.100,228619.000,237469.900,0.000
239145.300,246902.700,750000.100,480273.100,252529.900,227365.400,226489.000,235308.000,0.000
237351.900,245048.000,750000.100,469752.200,250707.500,225635.700,224817.800,233614.500,0.000
235285.700,242999.300,750000.100,459748.800,248728.300,223737.800,223000.500,231705.700,0.000
232963.500,240618.700,750000.100,450136.600,246271.400,221587.100,220849.300,229417.300,0.000
230898.500,238384.900,750000.100,441287.900,243842.200,219594.000,218779.100,227261.900,0.000
229433.900,236763.400,750000.100,433447.500,242099.000,218119.000,217264.900,225740.100,0.000
228227.100,235525.500,750000.100,426324.300,240913.200,216950.800,216152.900,224626.100,0.000
226712.600,234052.500,750000.100,419387.800,239523.300,215574.900,214852.300,223254.100,0.000
224910.800,232221.100,750000.100,412589.600,237629.700,213917.200,213194.800,221479.100,0.000
223339.000,230504.600,750000.100,406293.300,235742.000,212393.300,211598.500,219813.700,0.000
222314.700,229350.000,750000.100,400762.500,234485.300,211344.400,210512.700,218729.600,0.000
221514.600,228543.600,750000.100,395731.700,233735.800,210564.700,209785.800,218011.400,0.000
220399.800,227490.600,750000.100,390728.600,232774.500,209570.300,208867.800,217034.700,0.000
218969.000,226042.900,750000.100,385696.300,231283.900,208267.700,207565.800,215632.000,0.000
217748.800,224702.300,750000.100,381016.800,229778.400,207075.900,206305.400,214311.200,0.000
217021.600,223868.000,750000.100,376946.000,228850.000,206314.700,205508.100,213521.500,0.000
216492.100,223346.600,750000.100,373266.400,228394.300,205795.700,205045.000,213073.200,0.000
215652.600,222576.400,750000.100,369526.700,227723.300,205061.500,204388.300,212366.200,0.000
214500.800,221417.800,750000.100,365682.700,226530.000,204025.300,203351.500,211234.500,0.000
213527.800,220331.200,750000.100,362099.900,225299.800,203074.600,202330.300,210164.300,0.000
213031.200,219737.600,750000.100,359032.400,224621.500,202529.700,201750.900,209605.200,0.000
212718.600,219442.100,750000.100,356286.300,224396.900,202217.300,201494.600,209369.800,0.000
212080.600,218881.600,750000.100,353424.300,223940.000,201674.500,201024.700,208858.100,0.000
211111.200,217914.300,749467.100,350389.600,222942.000,200809.000,200152.900,207908.600,0.000
210323.100,217028.300,745867.600,347578.500,221916.700,200038.600,199312.300,207025.700,0.000
209991.100,216605.200,734703.500,345233.700,221419.800,199656.400,198896.600,206635.900,0.000
209819.600,216454.000,720314.100,343127.800,221342.800,199476.200,198770.600,206530.000,0.000
209328.600,216037.800,706212.300,340863.300,221032.900,199066.400,198429.500,206153.200,0.000
208516.800,215231.900,692525.600,338410.600,220204.400,198348.900,197705.200,205354.300,0.000
207869.500,214492.900,679386.900,336141.100,219332.100,197711.900,196994.300,204610.900,0.000
207653.300,214190.300,667177.400,334278.700,218954.700,197434.600,196678.800,204327.500,0.000
207610.700,214167.200,655727.600,332668.600,219005.600,197376.000,196664.900,204351.400,0.000
207251.000,213884.900,644403.800,330892.800,218835.300,197094.700,196450.700,204110.400,0.000
206556.200,213200.900,632981.700,328893.800,218130.400,196489.600,195837.000,203430.700,0.000
205995.800,212552.000,621935.500,327001.500,217353.700,195934.400,195211.300,202771.800,0.000
205883.500,212352.400,611745.800,325522.800,217089.900,195753.500,194995.400,202588.500,0.000
205941.000,212438.900,602233.100,324282.600,217258.300,195791.900,195083.600,202710.500,0.000
205663.100,212247.600,592738.600,322841.800,217176.100,195585.300,194946.500,202548.800,0.000
205057.000,211657.500,583078.200,321167.700,216568.800,195060.900,194419.000,201957.200,0.000
204592.900,211104.300,573723.500,319611.100,215894.000,194594.000,193883.200,201392.700,0.000
204556.900,210991.900,565142.800,318435.800,215715.900,194490.000,193746.100,201287.800,0.000
204677.600,211146.700,557152.400,317469.800,215950.000,194588.800,193894.200,201472.300,0.000
204458.900,211016.700,549111.400,316286.400,215926.400,194437.500,193809.300,201361.900,0.000
203908.100,210483.700,540843.500,314847.200,215376.200,193967.200,193332.600,200820.200,0.000
203497.500,209988.800,532824.500,313523.100,214759.300,193549.000,192844.700,200306.800,0.000
203524.100,209939.800,525536.800,312590.200,214650.600,193507.400,192767.100,200263.900,0.000
203705.900,210153.600,518787.800,311843.000,214948.200,193663.500,192972.500,200505.900,0.000
203547.300,210082.800,511939.800,310877.800,214989.600,193568.000,192945.900,200457.000,0.000
203054.500,209609.200,504816.200,309655.300,214503.800,193152.800,192527.100,199979.000,0.000
202696.200,209173.600,497895.300,308524.200,213945.500,192789.300,192096.700,199520.700,0.000
202761.900,209167.800,491644.800,307757.900,213876.300,192785.900,192055.900,199512.000,0.000
202967.300,209408.000,485876.300,307168.900,214200.000,192963.700,192280.500,199776.400,0.000
202841.700,209375.200,479986.100,306369.700,214279.800,192901.700,192287.500,199766.300,0.000
202376.000,208928.800,473779.200,305281.600,213826.400,192514.800,191898.900,199314.900,0.000
202054.100,208526.700,467745.700,304297.400,213303.700,192184.000,191501.200,198889.800,0.000
202151.500,208556.000,462351.100,303676.400,213265.800,192209.500,191488.800,198915.700,0.000
202395.400,208830.800,457420.300,303236.800,213630.700,192427.100,191755.500,199224.300,0.000
202309.600,208838.000,452335.900,302554.500,213753.500,192404.500,191802.100,199249.300,0.000
201899.300,208453.200,446918.100,301616.500,213353.800,192067.800,191460.900,198847.700,0.000
201612.400,208082.500,441627.800,300763.200,212865.300,191767.500,191092.900,198459.900,0.000
201735.200,208139.300,436943.900,300253.100,212858.900,191813.800,191105.700,198509.700,0.000
201996.800,208440.600,432689.800,299901.900,213242.300,192045.400,191382.700,198830.100,0.000
201937.700,208475.700,428265.300,299330.800,213389.600,192047.200,191446.500,198879.800,0.000
201541.800,208103.500,423478.800,298488.400,213008.200,191723.400,191119.300,198494.900,0.000
201269.600,207750.900,418804.900,297732.000,212545.700,191444.300,190772.900,198126.400,0.000
201416.800,207827.100,414721.100,297314.300,212562.200,191517.700,190807.300,198202.000,0.000
201701.200,208154.800,411043.800,297045.700,212965.500,191770.200,191102.300,198541.000,0.000
201658.300,208208.500,407177.500,296559.800,213133.000,191787.900,191186.600,198610.100,0.000
201274.000,207845.200,402919.100,295798.400,212765.700,191477.400,190869.300,198239.700,0.000
201016.700,207512.500,398755.500,295097.700,212315.300,191207.000,190529.500,197875.200,0.000
201175.600,207605.100,395173.300,294752.400,212353.500,191292.400,190580.200,197966.200,0.000
201471.700,207938.400,391976.900,294559.800,212771.500,191553.600,190888.600,198321.800,0.000
201440.700,207994.700,388570.400,294140.100,212945.700,191581.100,190980.600,198397.100,0.000
201062.900,207630.100,384751.500,293428.000,212569.100,191267.200,190662.200,198021.800,0.000
200814.700,207297.200,381018.700,292791.900,212120.800,191004.100,190328.500,197668.900,0.000
200982.700,207393.400,377849.000,292505.500,212154.800,191092.500,190380.600,197763.100,0.000
201281.000,207724.300,375058.800,292370.800,212575.500,191360.400,190693.600,198124.000,0.000
201259.900,207798.000,372057.800,292000.800,212766.800,191399.300,190797.100,198210.200,0.000
200911.500,207472.800,368651.700,291363.800,212436.100,191123.900,190514.800,197871.400,0.000
200687.900,207171.700,365310.800,290792.700,212017.600,190886.200,190208.900,197541.300,0.000
200861.400,207269.000,362504.900,290550.600,212064.700,190985.200,190271.800,197645.500,0.000
201187.400,207633.000,360083.100,290468.300,212510.200,191275.000,190608.000,198026.400,0.000
201159.600,207703.200,357409.400,290135.200,212692.900,191306.400,190703.900,198106.100,0.000
200792.400,207362.600,354314.000,289518.600,212342.600,191011.000,190403.700,197750.700,0.000
200586.100,207081.000,351312.800,289007.500,211947.200,190792.200,190118.600,197443.100,0.000
200775.500,207198.700,348828.400,288812.300,212008.900,190904.300,190196.000,197559.600,0.000
201092.800,207549.300,346696.800,288761.600,212446.000,191190.000,190526.400,197936.600,0.000
201075.200,207624.700,344324.100,288476.400,212639.200,191230.600,190634.700,198031.500,0.000
200717.000,207287.000,341515.400,287898.100,212292.800,190940.200,190341.000,197683.500,0.000
200495.200,206988.700,338768.600,287396.300,211873.400,190699.800,190034.900,197356.100,0.000
200676.600,207100.500,336547.000,287223.000,211925.500,190804.600,190105.500,197466.400,0.000
200996.100,207454.900,334682.300,287205.400,212373.100,191097.900,190442.300,197848.900,0.000
201014.900,207566.400,332592.300,286977.000,212596.800,191171.100,190578.700,197974.600,0.000
200677.600,207259.600,330050.200,286431.200,212274.800,190902.600,190302.700,197643.400,0.000
200447.800,206953.600,327537.700,285952.700,211857.100,190662.000,189992.900,197316.700,0.000
200632.700,207070.900,325550.000,285815.700,211918.200,190772.000,190065.900,197432.300,0.000
200951.300,207427.200,323907.100,285816.200,212360.600,191056.800,190400.200,197806.600,0.000
200948.800,207516.200,322019.200,285585.500,212568.000,191112.800,190521.700,197909.900,0.000
200604.300,207188.700,319686.200,285075.300,212238.200,190841.000,190244.500,197576.500,0.000
200388.000,206891.500,317391.500,284624.500,211823.800,190609.800,189947.200,197257.100,0.000
200585.700,207021.000,315615.200,284514.000,211890.800,190728.400,190030.300,197382.300,0.000
200915.500,207389.100,314179.100,284542.800,212343.000,191023.400,190371.100,197769.900,0.000
200915.400,207482.000,312487.900,284334.500,212551.900,191078.800,190491.000,197878.100,0.000
200565.700,207147.800,310331.600,283830.800,212209.000,190790.400,190196.700,197534.400,0.000
200331.400,206826.900,308198.500,283387.300,211770.800,190536.200,189875.500,197196.000,0.000
200521.800,206943.100,306593.200,283288.500,211829.700,190648.700,189952.600,197314.900,0.000
200861.500,207316.900,305338.300,283349.400,212289.500,190955.300,190303.600,197712.200,0.000
200878.100,207430.100,303833.000,283174.500,212517.600,191030.600,190443.900,197836.300,0.000
200525.500,207103.900,301845.300,282683.800,212184.300,190747.400,190155.900,197493.500,0.000
200285.900,206790.900,299880.500,282260.300,211753.800,190496.100,189836.200,197157.000,0.000
200498.400,206933.100,298461.500,282211.300,211837.100,190633.300,189936.000,197299.000,0.000
200876.500,207349.100,297407.800,282332.800,212341.000,190981.700,190331.000,197738.700,0.000
200875.500,207443.600,296041.600,282153.200,212556.700,191044.800,190460.400,197851.200,0.000
200528.800,207122.300,294205.700,281683.500,212224.400,190764.400,190176.800,197511.100,0.000
200304.100,206818.600,292392.800,281286.300,211803.700,190520.600,189870.800,197185.100,0.000
200500.900,206944.900,291094.300,281232.600,211869.100,190637.000,189952.500,197309.300,0.000
200837.900,207319.100,290130.900,281319.500,212325.100,190940.000,190300.800,197696.300,0.000
200846.500,207422.600,288900.700,281171.400,212542.800,191006.300,190432.000,197810.800,0.000
200501.800,207099.700,287198.800,280721.600,212213.400,190733.100,190153.400,197480.100,0.000
200295.900,206818.100,285532.400,280355.400,211810.800,190510.500,189864.100,197172.700,0.000
200482.800,206937.500,284350.800,280307.100,211868.000,190620.100,189936.500,197288.800,0.000
200811.900,207302.900,283503.900,280399.400,212317.700,190915.400,190275.400,197671.600,0.000
200825.000,207406.100,282400.000,280271.600,212541.300,190986.900,190409.300,197792.800,0.000
200493.500,207098.400,280828.900,279840.500,212226.700,190726.200,190142.600,197469.500,0.000
200273.700,206793.900,279255.700,279466.300,211805.400,190487.300,189834.600,197143.400,0.000
200459.700,206901.400,278176.600,279422.700,211853.300,190589.600,189901.500,197255.900,0.000
200790.100,207267.200,277435.500,279531.400,212302.600,190886.400,190242.600,197643.700,0.000
200796.100,207366.700,276429.200,279409.000,212516.900,190951.300,190374.100,197760.900,0.000
200460.100,207055.200,274959.200,278995.200,212197.600,190688.300,190107.700,197439.500,0.000
200250.400,206764.700,273502.000,278649.300,211789.500,190461.700,189810.500,197127.200,0.000
200443.200,206887.100,272533.300,278612.900,211851.100,190576.300,189884.300,197242.600,0.000
200784.500,207264.100,271901.500,278747.800,212312.300,190883.900,190236.600,197640.800,0.000
200794.600,207364.800,270992.600,278640.300,212530.800,190953.600,190369.500,197757.800,0.000
200449.500,207038.800,269600.100,278214.900,212198.000,190675.600,190086.300,197417.400,0.000
200229.700,206740.600,268224.300,277863.100,211780.600,190439.900,189783.900,197097.500,0.000
200412.100,206853.300,267339.000,277842.300,211831.300,190545.400,189853.900,197212.300,0.000
200764.500,207241.700,266807.300,277998.600,212303.800,190863.700,190216.600,197623.500,0.000
200794.600,207367.300,266006.900,277911.800,212546.600,190952.300,190370.400,197760.900,0.000
200450.500,207044.000,264699.300,277500.800,212214.900,190675.600,190085.700,197422.500,0.000
200233.700,206746.600,263404.800,277169.000,211801.000,190441.700,189781.200,197103.800,0.000
200437.800,206879.600,262616.500,277175.900,211873.500,190568.500,189873.100,197239.600,0.000
200781.100,207258.900,262150.200,277317.000,212329.500,190876.700,190226.900,197636.700,0.000
200793.800,207369.000,261408.200,277229.500,212553.800,190950.900,190366.100,197759.200,0.000
200456.800,207057.100,260182.600,276839.000,212233.700,190683.300,190095.500,197430.800,0.000
200245.900,206767.700,258971.400,276519.400,211827.000,190455.700,189803.400,197119.000,0.000
200435.400,206883.500,258240.700,276512.400,211881.400,190565.500,189876.700,197230.400,0.000
200775.300,207258.400,257845.800,276666.300,212340.600,190872.900,190230.100,197624.800,0.000
200782.600,207361.300,257171.200,276586.800,212562.000,190944.200,190367.500,197746.600,0.000
200444.000,207044.800,256013.400,276209.600,212239.500,190675.200,190096.300,197424.500,0.000
200224.600,206744.000,254853.800,275881.300,211816.100,190436.700,189788.800,197099.800,0.000
200424.700,206872.800,254197.200,275893.200,211884.200,190561.500,189876.800,197225.900,0.000
200758.400,207236.700,253857.300,276051.200,212340.100,190863.300,190225.800,197617.800,0.000
200773.500,207344.200,253243.600,275978.200,212560.800,190930.300,190360.500,197735.400,0.000
200435.400,207028.500,252141.000,275600.500,212230.600,190654.800,190082.600,197404.300,0.000
200222.800,206729.800,251051.100,275285.300,211820.000,190423.500,189785.300,197091.600,0.000
200416.600,206846.300,250446.300,275309.600,211877.300,190537.500,189863.100,197215.300,0.000
200754.700,207223.400,250170.300,275468.700,212335.000,190841.800,190214.800,197608.900,0.000
200769.100,207332.100,249616.100,275395.500,212560.000,190915.700,190352.700,197726.600,0.000
200424.300,207006.900,248565.200,275018.900,212227.000,190639.900,190072.700,197392.200,0.000
200207.500,206712.600,247525.300,274712.500,211808.800,190402.700,189772.300,197074.700,0.000
200401.600,206835.500,246980.900,274741.000,211872.900,190524.100,189862.700,197206.600,0.000
200756.000,207232.500,246780.900,274937.300,212355.800,190855.000,190242.300,197628.000,0.000
200774.300,207355.500,246285.900,274871.900,212589.200,190930.300,190385.200,197749.300,0.000
200439.400,207047.800,245300.700,274506.200,212276.400,190666.600,190117.200,197422.600,0.000
200215.700,206742.200,244303.300,274193.200,211856.500,190428.100,189809.100,197095.400,0.000
200429.500,206888.700,243819.900,274240.400,211936.200,190561.300,189904.500,197233.000,0.000
200777.800,207271.200,243648.200,274436.000,212403.500,190879.300,190263.500,197638.100,0.000
200787.200,207371.000,243180.700,274362.800,212618.200,190944.500,190387.600,197742.000,0.000
200447.000,207045.000,242221.300,273994.500,212278.400,190666.100,190098.000,197398.600,0.000
200239.300,206751.700,241278.000,273699.700,211859.300,190432.300,189797.400,197084.800,0.000
200438.300,206867.000,240815.700,273730.400,211911.900,190546.000,189871.500,197204.600,0.000
200773.200,207233.100,240675.100,273909.900,212361.300,190850.600,190212.700,197595.300,0.000
200790.400,207337.100,240259.500,273856.900,212580.400,190922.700,190348.100,197716.600,0.000
200471.500,207036.500,239367.900,273510.100,212267.700,190664.100,190089.600,197401.900,0.000
200252.300,206729.400,238455.800,273217.900,211844.700,190420.000,189778.800,197078.800,0.000
200457.000,206856.500,238042.400,273272.800,211906.000,190538.400,189858.500,197207.000,0.000
200790.100,207223.600,237944.300,273446.600,212360.600,190842.400,190206.000,197596.100,0.000
200822.900,207351.200,237587.000,273403.000,212602.600,190935.200,190357.800,197731.400,0.000
200515.500,207072.300,236748.300,273075.400,212306.000,190690.900,190107.500,197426.400,0.000
200287.100,206761.800,235868.900,272777.700,211881.300,190444.100,189793.900,197095.000,0.000
200481.200,206876.800,235481.800,272819.100,211939.800,190556.000,189871.100,197218.500,0.000
200838.500,207281.200,235441.800,273013.300,212422.900,190885.600,190243.900,197629.900,0.000
200845.900,207394.200,235102.700,272965.600,212651.200,190961.800,190380.700,197746.000,0.000
200522.500,207097.900,234283.900,272631.400,212340.100,190705.000,190117.300,197428.900,0.000
200317.400,206812.500,233456.700,272355.700,211933.500,190476.300,189820.200,197120.100,0.000
200521.400,206940.300,233109.600,272414.200,212001.700,190600.100,189900.300,197251.100,0.000
200858.900,207316.500,233082.200,272608.500,212462.800,190908.800,190250.500,197642.000,0.000
200872.200,207435.100,232779.700,272565.600,212693.800,190988.900,190397.400,197760.100,0.000
200534.800,207125.800,231983.900,272223.200,212374.100,190722.500,190130.700,197433.200,0.000
200316.400,206824.400,231175.500,271937.700,211947.700,190477.300,189821.800,197109.300,0.000
200523.400,206954.200,230865.600,271997.400,212012.400,190599.400,189908.600,197241.800,0.000
200860.700,207331.400,230874.100,272199.200,212475.000,190914.100,190266.900,197639.000,0.000
200871.000,207442.800,230595.000,272162.700,212698.800,190988.600,190405.700,197753.500,0.000
200525.900,207120.700,229807.400,271804.100,212361.300,190707.400,190118.100,197408.800,0.000
200312.700,206820.700,229031.800,271531.200,211941.800,190472.200,189811.800,197093.300,0.000
200512.700,206943.100,228745.300,271595.300,212007.900,190593.200,189897.100,197226.100,0.000
200856.600,207331.100,228782.700,271812.300,212476.200,190909.300,190260.800,197630.500,0.000
200853.900,207434.600,228522.900,271769.900,212695.900,190979.000,190392.800,197741.100,0.000
200521.000,207128.400,227783.200,271445.600,212377.300,190716.600,190122.300,197420.100,0.000
200303.400,206826.700,227030.800,271161.200,211953.900,190474.500,189815.300,197103.400,0.000
200500.800,206947.600,226767.900,271219.700,212015.400,190590.800,189897.100,197229.200,0.000
200826.800,207314.500,226818.400,271420.300,212474.000,190896.400,190246.600,197619.900,0.000
200847.200,207443.600,226604.600,271394.300,212717.300,190985.300,190396.000,197746.000,0.000
200534.800,207155.400,225908.100,271081.800,212420.600,190739.300,190141.300,197438.300,0.000
200320.500,206854.600,225183.100,270807.800,212001.600,190501.600,189835.000,197123.600,0.000
200505.300,206962.900,224932.100,270865.400,212051.100,190608.500,189905.400,197243.700,0.000
200837.900,207332.600,225007.400,271074.200,212507.300,190915.800,190257.500,197633.700,0.000
200842.400,207438.100,224799.600,271045.200,212733.800,190993.300,190398.300,197749.500,0.000
200508.400,207131.500,224100.500,270726.000,212412.300,190726.500,190125.600,197422.200,0.000
200285.900,206820.600,223385.400,270441.600,211982.900,190478.500,189808.700,197096.700,0.000
200473.000,206930.900,223157.500,270486.200,212034.800,190586.500,189880.400,197216.200,0.000
200820.200,207320.900,223271.900,270715.500,212510.000,190912.000,190250.600,197623.300,0.000
200831.700,207435.200,223092.000,270694.000,212741.700,190994.200,190396.000,197740.400,0.000
200492.300,207117.100,222408.900,270362.500,212411.900,190722.100,190120.300,197408.200,0.000
200276.800,206812.600,221719.700,270098.700,211984.500,190477.200,189811.800,197094.900,0.000
200477.700,206932.800,221520.400,270173.500,212041.100,190594.800,189891.400,197230.000,0.000
200817.600,207314.400,221643.200,270393.300,212504.200,190911.100,190249.000,197629.600,0.000
200828.700,207430.100,221483.100,270366.200,212734.600,190993.000,190394.000,197744.800,0.000
200502.600,207127.500,220829.600,270048.400,212417.800,190729.400,190126.300,197426.100,0.000
200289.200,206821.400,220156.500,269790.400,211988.800,190481.000,189811.900,197108.600,0.000
200476.800,206929.800,219965.700,269849.600,212035.900,190586.500,189881.800,197229.400,0.000
200806.200,207303.900,220098.400,270061.000,212492.500,190898.300,190236.300,197622.000,0.000
200809.500,207411.200,219946.000,270032.200,212715.200,190974.100,190376.800,197734.500,0.000
200484.700,207108.100,219312.900,269722.000,212400.800,190713.900,190113.800,197416.700,0.000
200275.800,206806.800,218661.300,269468.300,211977.100,190471.700,189808.800,197107.000,0.000
200465.900,206919.900,218485.900,269532.500,212024.700,190577.800,189876.800,197228.600,0.000
200805.700,207307.800,218649.300,269759.100,212495.300,190899.500,190241.000,197632.000,0.000
200812.500,207422.700,218523.400,269740.400,212727.500,190978.800,190385.500,197750.200,0.000
200471.800,207106.700,217895.600,269412.700,212401.000,190704.400,190109.500,197420.600,0.000
200261.600,206802.900,217259.500,269164.600,211980.200,190462.000,189803.100,197109.600,0.000
200469.600,206927.800,217116.500,269255.900,212045.700,190586.500,189891.300,197248.500,0.000
200801.400,207301.400,217283.900,269473.200,212501.100,190897.200,190244.900,197641.100,0.000
200801.500,207411.100,217163.500,269442.100,212721.300,190972.900,190380.800,197749.000,0.000
200470.400,207107.000,216556.500,269128.300,212402.000,190707.000,190112.100,197427.300,0.000
200257.300,206804.300,215936.700,268880.300,211977.200,190459.200,189805.600,197117.000,0.000
200455.000,206922.800,215801.500,268960.300,212032.600,190569.100,189882.500,197240.300,0.000
200786.900,207294.600,215983.800,269179.900,212489.800,190883.500,190235.500,197630.400,0.000
200796.300,207415.300,215884.000,269162.300,212717.500,190964.700,190377.300,197745.700,0.000
200463.300,207109.000,215292.900,268850.700,212400.000,190699.600,190107.000,197423.500,0.000
200245.800,206796.700,214680.700,268592.900,211970.400,190451.100,189792.100,197104.700,0.000
200448.600,206919.400,214563.200,268681.400,212029.600,190570.300,189875.900,197237.400,0.000
200790.300,207308.700,214766.700,268914.600,212497.400,190891.300,190239.600,197635.100,0.000
200801.500,207425.700,214681.200,268910.400,212729.600,190972.800,190382.000,197751.600,0.000
200468.000,207115.200,214099.100,268600.800,212410.200,190702.700,190108.100,197426.100,0.000
200250.500,206807.600,213502.400,268342.100,211982.700,190454.200,189794.000,197109.400,0.000
200443.900,206925.200,213394.000,268421.600,212039.200,190568.600,189871.200,197239.800,0.000
200780.700,207306.500,213608.800,268656.300,212507.100,190887.400,190231.700,197637.600,0.000
200785.000,207414.700,213529.200,268645.300,212731.000,190962.000,190368.800,197745.900,0.000
200458.300,207110.300,212965.300,268345.800,212411.000,190698.300,190102.600,197425.600,0.000
200249.500,206809.500,212388.400,268108.800,211989.300,190456.800,189798.500,197118.100,0.000
200435.500,206917.800,212280.600,268172.000,212036.000,190561.700,189869.000,197235.000,0.000
200774.500,207296.200,212506.900,268407.400,212501.800,190882.800,190236.700,197633.900,0.000
200789.600,207419.200,212446.500,268403.800,212733.500,190968.000,190387.100,197751.200,0.000
200463.600,207116.300,211893.800,268097.100,212412.300,190700.300,190119.300,197424.600,0.000
200256.600,206820.500,211329.400,267858.800,211990.800,190457.100,189810.800,197110.900,0.000
200440.200,206924.900,211234.300,267941.600,212034.100,190557.000,189874.100,197229.900,0.000
200774.700,207305.700,211473.900,268180.600,212497.400,190874.500,190232.500,197634.900,0.000
200784.900,207424.700,211425.300,268165.800,212727.100,190956.300,190377.800,197748.800,0.000
200458.800,207122.200,210880.100,267868.300,212408.700,190691.600,190110.300,197424.300,0.000
200252.200,206825.500,210325.300,267634.100,211996.400,190457.300,189812.600,197120.100,0.000
200455.800,206953.200,210252.500,267727.900,212059.600,190575.900,189897.900,197253.800,0.000
200783.900,207324.200,210494.300,267960.600,212516.400,190887.100,190254.100,197645.700,0.000
200790.900,207441.800,210448.600,267957.600,212741.800,190965.500,190394.500,197759.700,0.000
200446.300,207128.200,209905.300,267641.700,212416.100,190691.800,190117.500,197427.400,0.000
200229.500,206819.200,209351.700,267393.600,211990.000,190446.000,189805.200,197110.100,0.000
200433.000,206943.000,209290.100,267494.300,212052.900,190566.900,189886.600,197243.000,0.000
200768.500,207318.000,209547.000,267739.800,212518.100,190886.200,190246.800,197641.200,0.000
200793.500,207450.600,209526.700,267755.000,212757.500,190979.700,190400.700,197766.500,0.000
200467.400,207149.200,209001.800,267452.000,212439.800,190717.300,190130.900,197441.200,0.000
200255.600,206847.100,208460.300,267203.700,212016.100,190472.500,189822.100,197126.600,0.000
200445.400,206955.200,208394.900,267288.300,212068.100,190579.000,189893.500,197246.400,0.000
200777.300,207331.000,208655.600,267529.900,212534.000,190895.100,190249.200,197641.500,0.000
200794.200,207459.800,208640.000,267550.100,212771.500,190983.400,190397.200,197767.300,0.000
200448.300,207135.200,208105.300,267223.900,212437.300,190703.000,190107.300,197423.200,0.000
200240.300,206833.400,207572.300,266983.900,212014.300,190458.700,189797.000,197105.800,0.000
200442.300,206954.000,207519.400,267077.500,212067.200,190571.500,189872.800,197230.800,0.000
200778.700,207335.600,207789.500,267314.900,212528.800,190886.100,190229.800,197622.600,0.000
200786.700,207452.500,207775.000,267319.800,212759.900,190968.500,190374.700,197739.200,0.000
200458.800,207148.900,207270.400,267030.600,212444.800,190704.800,190109.900,197419.300,0.000
200246.100,206844.700,206747.300,266797.800,212022.100,190461.100,189801.500,197108.200,0.000
200431.600,206948.000,206694.700,266873.600,212069.300,190565.300,189866.000,197225.200,0.000
200766.300,207323.500,206968.900,267115.100,212528.100,190877.800,190221.900,197619.500,0.000
200780.600,207447.500,206967.400,267124.700,212764.300,190965.200,190373.400,197739.500,0.000
200450.600,207139.800,206466.900,266829.700,212446.100,190699.600,190103.700,197415.600,0.000
200236.600,206830.500,205945.300,266594.100,212015.200,190449.500,189786.400,197098.600,0.000
200428.600,206945.000,205906.400,266684.800,212066.600,190561.900,189860.800,197225.200,0.000
200761.800,207325.000,206193.800,266929.600,212532.600,190881.300,190223.100,197625.500,0.000
200771.700,207440.500,206196.100,266934.900,212764.200,190966.500,190370.600,197747.500,0.000
200449.600,207141.800,205707.900,266646.800,212449.000,190704.000,190103.800,197427.600,0.000
200229.300,206829.300,205189.100,266409.700,212014.600,190452.000,189788.300,197105.400,0.000
200421.700,206942.400,205155.500,266503.700,212063.400,190562.100,189862.300,197230.800,0.000
200766.400,207333.000,205459.400,266759.500,212539.100,190889.800,190231.000,197638.700,0.000
200779.100,207451.300,205468.500,266766.800,212773.800,190977.200,190373.900,197760.300,0.000
200439.700,207131.400,204970.700,266455.000,212446.100,190704.800,190093.400,197420.800,0.000
200225.400,206823.200,204459.100,266214.800,212012.100,190455.300,189774.000,197096.300,0.000
200418.800,206933.000,204429.800,266315.200,212059.400,190562.600,189844.600,197217.900,0.000
200756.800,207314.400,204735.400,266562.800,212524.400,190882.900,190208.800,197617.700,0.000
200762.800,207427.200,204747.600,266563.300,212750.500,190959.800,190349.700,197729.900,0.000
200436.200,207125.200,204269.800,266276.200,212436.000,190697.100,190084.700,197408.900,0.000
200226.600,206822.600,203776.600,266062.900,212013.800,190453.400,189778.000,197099.300,0.000
200415.500,206936.300,203755.500,266150.800,212063.000,190559.600,189851.200,197221.800,0.000
200752.100,207316.200,204060.300,266386.500,212526.600,190874.400,190211.500,197615.900,0.000
200770.800,207441.500,204088.000,266401.600,212763.200,190962.000,190364.300,197737.200,0.000
200440.400,207137.000,203611.200,266110.400,212444.500,190698.300,190097.500,197413.600,0.000
200225.000,206831.100,203111.700,265878.100,212015.500,190450.500,189786.100,197096.300,0.000
200416.600,206941.900,203094.900,265976.700,212064.200,190558.600,189858.500,197220.700,0.000
200749.200,207317.600,203409.500,266228.900,212527.700,190874.000,190217.900,197618.800,0.000
200753.100,207424.400,203428.700,266229.300,212753.400,190949.600,190356.900,197731.200,0.000
200429.000,207124.500,202961.700,265948.300,212438.200,190687.800,190091.400,197412.200,0.000
200215.600,206822.600,202471.500,265715.600,212011.600,190443.000,189779.800,197094.500,0.000
200411.300,206940.100,202464.900,265817.600,212063.000,190555.300,189854.800,197221.900,0.000
200738.300,207313.700,202775.300,266054.400,212519.100,190865.000,190206.700,197609.300,0.000
200751.400,207433.800,202808.600,266067.000,212752.000,190948.900,190355.300,197731.500,0.000
200419.100,207123.700,202340.300,265782.600,212426.600,190680.100,190081.700,197405.200,0.000
200208.700,206822.800,201861.100,265553.100,212002.500,190437.600,189773.700,197092.600,0.000
200401.500,206938.200,201859.200,265644.300,212054.200,190547.900,189846.900,197213.600,0.000
200737.000,207318.600,202184.000,265893.900,212516.700,190866.400,190206.100,197606.300,0.000
200750.200,207440.800,202226.200,265909.600,212753.200,190955.900,190355.800,197725.500,0.000
200423.600,207138.500,201768.000,265624.900,212439.000,190694.500,190091.400,197405.000,0.000
200209.900,206831.400,201286.000,265393.500,212010.200,190443.700,189780.800,197086.000,0.000
200397.800,206938.100,201281.500,265489.700,212054.500,190545.100,189848.700,197206.600,0.000
200733.300,207313.600,201604.300,265736.300,212513.400,190855.500,190201.400,197598.500,0.000
200752.300,207436.300,201649.200,265753.800,212748.700,190944.500,190352.500,197718.400,0.000
200432.900,207138.600,201202.100,265474.900,212436.600,190690.200,190092.200,197403.400,0.000
200224.100,206836.600,200732.000,265256.100,212014.000,190453.400,189787.200,197094.000,0.000
200411.400,206945.800,200732.400,265357.500,212059.100,190559.300,189854.800,197216.100,0.000
200730.100,207309.400,201052.000,265592.800,212511.000,190863.000,190205.800,197604.000,0.000
200739.300,207429.500,201092.900,265594.400,212743.800,190940.500,190349.700,197714.500,0.000
200420.000,207131.600,200647.200,265318.000,212433.300,190680.600,190086.700,197399.000,0.000
200213.600,206833.500,200187.200,265098.100,212014.900,190441.500,189783.400,197093.100,0.000
200404.800,206944.500,200197.300,265203.600,212065.100,190546.900,189852.400,197215.100,0.000
200736.600,207314.600,200526.800,265454.300,212520.200,190856.000,190202.800,197602.600,0.000
200746.300,207432.000,200575.100,265460.800,212750.600,190939.300,190349.200,197718.100,0.000
200414.300,207125.200,200127.200,265172.100,212429.300,190670.800,190079.600,197394.900,0.000
200208.300,206825.900,199664.600,264956.700,212004.200,190426.900,189771.100,197081.100,0.000
200407.000,206940.600,199681.700,265063.300,212056.500,190538.200,189848.700,197204.800,0.000
200749.000,207322.500,200029.200,265323.800,212525.200,190862.000,190215.600,197606.700,0.000
200758.900,207435.200,200078.900,265334.700,212754.200,190942.000,190357.300,197722.600,0.000
200430.400,207125.900,199637.500,265054.300,212437.100,190678.600,190089.600,197400.300,0.000
200220.800,206826.500,199177.900,264829.600,212012.600,190433.300,189782.100,197086.400,0.000
200414.400,206941.800,199194.600,264925.300,212065.100,190542.700,189853.600,197207.700,0.000
200753.500,207327.700,199540.200,265185.200,212533.500,190863.300,190215.700,197607.000,0.000
200758.000,207444.000,199592.700,265194.200,212763.600,190947.100,190358.300,197723.000,0.000
200433.600,207139.400,199161.600,264921.800,212455.900,190695.200,190099.500,197410.800,0.000
200226.000,206840.200,198709.300,264699.100,212034.100,190454.000,189794.100,197098.900,0.000
200409.500,206949.800,198725.700,264796.300,212081.600,190558.700,189863.600,197216.700,0.000
200746.200,207333.500,199073.200,265054.500,212545.300,190877.900,190224.000,197611.800,0.000
200755.200,207451.800,199131.100,265075.000,212776.700,190964.500,190368.800,197731.700,0.000
200419.300,207138.200,198689.000,264788.000,212453.800,190693.700,190094.100,197407.800,0.000
200209.500,206832.300,198232.300,264561.400,212023.800,190443.200,189778.300,197085.600,0.000
200409.300,206947.800,198261.400,264682.100,212077.800,190559.000,189853.700,197215.600,0.000
200745.000,207323.900,198604.000,264933.800,212529.300,190869.400,190202.300,197605.000,0.000
200753.500,207440.400,198662.800,264941.800,212756.500,190951.500,190343.300,197718.500,0.000
200424.000,207136.300,198235.000,264664.000,212442.300,190688.800,190079.200,197400.800,0.000
200211.400,206833.600,197785.100,264441.500,212015.900,190442.800,189771.300,197087.000,0.000
200398.200,206938.800,197807.300,264537.900,212057.200,190547.900,189836.500,197200.600,0.000
200739.300,207324.700,198166.900,264800.100,212520.100,190868.300,190201.200,197598.900,0.000
200758.100,207453.100,198244.800,264818.000,212759.200,190958.400,190357.800,197723.500,0.000
200427.100,207141.800,197815.200,264537.600,212437.000,190689.100,190090.200,197396.800,0.000
200212.500,206833.600,197362.300,264319.000,212006.400,190438.200,189777.800,197077.700,0.000
200407.600,206945.700,197393.300,264422.900,212060.400,190549.500,189853.100,197204.400,0.000
200746.500,207330.100,197752.500,264678.300,212529.000,190872.100,190213.600,197605.300,0.000
200767.200,207460.400,197836.100,264707.500,212772.400,190968.900,190370.400,197738.800,0.000
200439.500,207155.800,197406.900,264422.300,212452.700,190702.700,190102.000,197412.300,0.000
200207.800,206828.700,196941.300,264185.800,212007.400,190438.900,189775.300,197078.800,0.000
200405.700,206944.300,196977.900,264300.300,212059.400,190549.700,189848.600,197205.100,0.000
200735.600,207316.500,197332.900,264551.200,212519.700,190863.200,190205.500,197599.300,0.000
200755.300,207442.800,197410.500,264575.900,212758.100,190952.800,190358.900,197725.600,0.000
200420.600,207132.900,196982.200,264293.100,212434.700,190681.200,190083.800,197395.800,0.000
200207.500,206828.800,196539.300,264073.300,212007.900,190435.500,189770.900,197079.600,0.000
200407.200,206953.200,196584.100,264189.100,212064.600,190553.900,189849.400,197209.500,0.000
200736.300,207328.100,196942.200,264445.900,212521.700,190867.500,190207.300,197602.700,0.000
200742.000,207444.100,197015.500,264453.300,212753.800,190948.500,190354.000,197718.800,0.000
200407.200,207134.400,196593.600,264169.300,212437.200,190680.800,190085.100,197393.200,0.000
200194.200,206830.400,196154.900,263946.700,212014.200,190434.900,189774.600,197077.000,0.000
200394.000,206950.400,196195.500,264057.800,212064.500,190544.800,189848.700,197204.400,0.000
200729.400,207328.400,196560.600,264318.500,212526.900,190860.200,190206.100,197600.000,0.000
200739.600,207444.700,196638.500,264337.700,212759.200,190943.500,190348.500,197716.700,0.000
200417.300,207141.700,196222.000,264067.900,212446.200,190682.200,190083.100,197398.100,0.000
200201.700,206833.500,195782.800,263846.500,212019.500,190437.000,189775.600,197081.100,0.000
200387.100,206936.900,195818.700,263946.700,212064.700,190541.800,189846.300,197198.800,0.000
200734.200,207325.700,196194.100,264218.700,212531.800,190861.600,190210.300,197601.600,0.000
200749.600,207449.000,196281.400,264248.900,212769.500,190948.600,190363.400,197729.800,0.000
200415.900,207139.100,195861.300,263955.300,212447.300,190681.000,190091.700,197404.100,0.000
200199.000,206826.900,195420.700,263726.300,212014.500,190431.000,189776.300,197081.700,0.000
200392.200,206933.200,195461.400,263834.400,212059.700,190537.500,189845.800,197200.400,0.000
200735.000,207313.200,195838.100,264108.500,212530.600,190860.500,190210.900,197604.100,0.000
200752.600,207437.900,195928.100,264131.700,212768.800,190945.800,190360.300,197725.800,0.000
200421.900,207129.800,195512.600,263845.500,212447.600,190677.600,190090.700,197398.200,0.000
200207.200,206820.600,195076.200,263624.300,212016.000,190429.600,189778.300,197079.000,0.000
200400.300,206929.000,195119.200,263733.500,212063.000,190539.700,189849.400,197200.800,0.000
200737.700,207306.800,195491.900,263995.300,212527.900,190856.000,190206.200,197598.300,0.000
200752.700,207426.700,195583.800,264019.600,212767.400,190946.100,190352.700,197719.400,0.000
200434.500,207130.200,195182.100,263748.000,212459.200,190689.100,190088.700,197402.900,0.000
200218.000,206817.800,194748.600,263531.800,212030.800,190441.800,189774.300,197084.400,0.000
200410.900,206929.700,194798.700,263644.000,212081.800,190555.100,189848.800,197212.400,0.000
200742.200,207304.500,195168.100,263886.400,212539.100,190869.700,190203.800,197603.400,0.000
200754.800,207423.400,195254.800,263909.200,212771.000,190954.800,190347.500,197723.900,0.000
200421.700,207116.500,194841.400,263625.300,212450.500,190686.000,190073.700,197399.300,0.000
200208.200,206810.800,194410.200,263405.200,212020.800,190438.600,189761.100,197081.500,0.000
200399.900,206923.100,194457.700,263515.500,212068.600,190551.500,189832.300,197205.600,0.000
200737.000,207303.200,194833.500,263770.400,212528.600,190869.500,190192.000,197603.600,0.000
200760.400,207439.700,194937.100,263803.600,212772.900,190963.100,190352.700,197736.100,0.000
200428.000,207133.400,194527.200,263524.200,212453.900,190696.900,190082.700,197410.900,0.000
200204.700,206818.200,194091.400,263298.300,212019.800,190443.000,189764.300,197084.800,0.000
200400.200,206934.500,194147.600,263415.400,212071.000,190554.600,189841.500,197213.100,0.000
200730.200,207310.500,194519.000,263675.100,212526.000,190863.500,190194.900,197604.600,0.000
200733.300,207424.600,194602.500,263683.800,212753.700,190941.200,190337.200,197718.200,0.000
200409.300,207128.200,194203.500,263414.300,212443.900,190681.200,190074.100,197400.200,0.000
200199.200,206826.300,193782.300,263206.200,212017.600,190434.700,189765.600,197089.100,0.000
200384.900,206928.000,193824.800,263304.100,212057.800,190536.200,189830.200,197200.900,0.000
200723.100,207304.500,194203.400,263569.600,212522.000,190858.400,190190.600,197597.800,0.000
200735.000,207418.400,194295.100,263590.900,212751.300,190942.900,190333.900,197714.700,0.000
200409.200,207117.700,193896.400,263314.400,212437.800,190681.000,190066.900,197393.300,0.000
200197.100,206815.300,193473.700,263095.400,212011.100,190435.000,189756.200,197075.900,0.000
200389.600,206926.500,193524.600,263201.500,212055.600,190542.600,189825.300,197196.800,0.000
200726.200,207305.600,193908.300,263464.800,212519.700,190860.100,190185.500,197594.700,0.000
200744.300,207433.400,194015.000,263496.200,212759.200,190949.700,190337.700,197720.200,0.000
200419.700,207133.500,193618.000,263222.700,212441.600,190683.200,190071.500,197398.900,0.000
200206.700,206826.400,193192.400,263010.400,212013.400,190432.200,189761.300,197083.200,0.000
200394.000,206935.000,193242.300,263121.000,212056.900,190537.700,189829.300,197202.800,0.000
200729.000,207312.300,193621.900,263372.300,212515.800,190853.200,190183.900,197593.700,0.000
200747.500,207437.500,193726.400,263395.100,212755.000,190939.800,190334.000,197713.100,0.000
200416.600,207133.000,193327.500,263120.300,212439.800,190673.400,190064.100,197390.800,0.000
200198.100,206821.000,192901.900,262906.200,212006.400,190422.400,189748.500,197073.500,0.000
200390.800,206931.000,192954.000,263013.300,212047.100,190525.400,189814.900,197190.000,0.000
200737.800,207320.000,193348.000,263282.400,212520.000,190852.300,190183.500,197597.300,0.000
200750.700,207442.300,193450.800,263309.200,212759.000,190939.300,190331.500,197719.600,0.000
200415.000,207133.100,193049.700,263031.800,212438.200,190672.100,190059.800,197395.100,0.000
200201.400,206832.800,192632.100,262817.000,212010.000,190427.800,189749.200,197077.200,0.000
200397.800,206955.000,192696.100,262936.000,212060.100,190542.100,189824.500,197204.200,0.000
200729.700,207327.300,193082.300,263193.900,212518.200,190857.300,190183.600,197599.300,0.000
200741.100,207443.300,193185.000,263224.700,212749.100,190940.600,190332.400,197718.900,0.000
200410.300,207139.400,192783.600,262940.700,212425.700,190669.600,190059.000,197389.300,0.000
200195.900,206834.200,192366.300,262723.400,211998.500,190421.500,189745.400,197073.600,0.000
200378.800,206935.400,192422.300,262831.000,212042.900,190525.100,189809.100,197193.200,0.000
200720.300,207318.200,192816.500,263101.500,212512.200,190846.300,190172.800,197597.400,0.000
200740.800,207442.900,192927.800,263142.900,212753.200,190936.800,190329.000,197723.600,0.000
200410.800,207135.100,192532.700,262863.800,212435.200,190671.500,190061.000,197396.600,0.000
200197.200,206829.700,192116.100,262643.400,212006.900,190426.800,189750.500,197076.400,0.000
200378.600,206928.800,192166.000,262751.100,212045.500,190527.500,189814.600,197190.100,0.000
200710.800,207300.900,192550.700,263016.500,212504.900,190840.400,190172.000,197586.400,0.000
200723.100,207418.900,192654.700,263043.000,212737.600,190920.900,190317.900,197705.000,0.000
200398.300,207118.500,192267.600,262770.600,212422.900,190659.200,190055.800,197385.200,0.000
200200.800,206830.500,191870.700,262574.500,212009.400,190427.500,189762.100,197085.900,0.000
200389.200,206939.200,191931.900,262685.600,212052.400,190533.800,189830.500,197203.900,0.000
200717.000,207312.100,192317.200,262940.600,212505.100,190841.300,190181.300,197590.400,0.000
200734.100,207437.800,192429.600,262970.800,212741.200,190926.000,190331.700,197714.400,0.000
200397.200,207124.500,192033.300,262697.000,212421.900,190658.000,190057.300,197390.300,0.000
200173.000,206801.500,191609.600,262470.700,211983.800,190404.000,189732.700,197061.300,0.000
200370.400,206917.300,191676.400,262589.200,212028.900,190511.900,189801.100,197183.300,0.000
200711.600,207303.200,192077.300,262856.600,212496.600,190832.900,190165.200,197586.400,0.000
200720.900,207418.600,192183.500,262881.900,212731.600,190919.000,190311.100,197704.800,0.000
200388.600,207113.600,191791.700,262609.900,212414.700,190654.000,190042.400,197380.000,0.000
200177.900,206812.900,191380.200,262392.900,211987.700,190407.200,189730.600,197062.100,0.000
200373.700,206927.600,191449.200,262508.200,212039.300,190518.000,189804.600,197187.500,0.000
200713.900,207308.200,191845.100,262784.000,212503.000,190834.900,190163.600,197587.000,0.000
200722.400,207421.600,191950.500,262810.800,212734.800,190918.200,190303.100,197705.800,0.000
200391.800,207115.100,191557.900,262526.600,212417.200,190654.000,190029.900,197381.100,0.000
200188.900,206820.300,191155.000,262325.800,211995.100,190415.300,189725.000,197075.300,0.000
200377.900,206930.200,191218.000,262432.200,212041.100,190519.500,189791.900,197191.800,0.000
200712.200,207311.500,191616.700,262700.900,212506.500,190833.300,190151.900,197586.300,0.000
200724.800,207433.900,191734.200,262731.000,212747.900,190921.000,190304.900,197710.800,0.000
200388.400,207120.000,191339.700,262447.600,212425.200,190648.000,190029.000,197379.600,0.000
200170.900,206804.300,190924.900,262235.200,211991.400,190397.600,189712.300,197059.900,0.000
200362.800,206914.200,190991.800,262346.400,212035.500,190505.200,189780.300,197181.800,0.000
200700.200,207297.200,191388.100,262613.900,212498.300,190824.200,190138.800,197581.100,0.000
200705.500,207406.500,191491.300,262634.100,212722.100,190902.100,190275.500,197694.800,0.000
200384.800,207110.100,191116.000,262373.600,212415.700,190649.300,190017.200,197381.700,0.000
200175.300,206808.900,190712.800,262170.900,211992.300,190409.000,189709.900,197069.100,0.000
200356.700,206909.600,190770.000,262273.000,212028.600,190507.300,189770.200,197178.900,0.000
200688.500,207284.200,191163.200,262533.200,212484.300,190817.800,190124.500,197571.600,0.000
200707.000,207409.300,191280.700,262563.700,212721.900,190904.700,190275.700,197695.200,0.000
200381.500,207109.400,190900.000,262299.600,212411.700,190643.800,190012.500,197376.500,0.000
200161.600,206801.800,190489.100,262075.400,211981.800,190396.800,189696.100,197055.100,0.000
200347.800,206907.500,190552.500,262185.900,212022.300,190500.900,189762.300,197172.200,0.000
200684.800,207283.700,190951.800,262454.000,212483.100,190818.600,190123.400,197569.300,0.000
200691.900,207394.200,191059.400,262474.000,212710.600,190899.000,190264.700,197683.000,0.000
200370.300,207094.200,190679.300,262206.200,212396.500,190635.000,189999.800,197362.900,0.000
200157.700,206789.900,190272.500,261992.900,211968.800,190387.100,189688.900,197044.100,0.000
200352.400,206904.500,190345.700,262113.500,212018.400,190497.300,189761.800,197170.200,0.000
200684.200,207280.900,190741.800,262381.600,212478.400,190810.500,190118.500,197568.300,0.000
200707.700,207413.500,190868.300,262424.600,212725.900,190906.500,190278.900,197701.300,0.000
200388.000,207118.500,190495.000,262165.100,212420.600,190651.700,190022.000,197388.500,0.000
200167.500,206801.800,190085.600,261947.000,211984.900,190400.000,189705.400,197066.600,0.000
200364.100,206914.200,190160.500,262065.500,212031.400,190510.400,189776.300,197187.600,0.000
200697.800,207288.000,190555.300,262328.200,212488.600,190825.300,190129.000,197580.400,0.000
200703.400,207398.500,190664.800,262344.100,212717.800,190906.400,190269.000,197689.100,0.000
200381.300,207104.200,190291.800,262085.300,212410.100,190649.700,190006.300,197375.500,0.000
200173.200,206804.000,189896.200,261886.900,211987.800,190410.400,189701.000,197065.100,0.000
200354.400,206909.200,189962.800,261996.700,212028.000,190512.100,189765.300,197180.200,0.000
200695.500,207298.600,190372.100,262267.200,212498.500,190834.900,190131.100,197584.200,0.000
200716.000,207425.200,190495.700,262299.300,212740.600,190924.200,190283.300,197708.200,0.000
200380.100,207112.900,190108.100,262025.000,212417.800,190651.800,190006.900,197379.900,0.000
200163.500,206803.000,189702.100,261811.300,211984.800,190402.400,189691.000,197059.100,0.000
200358.200,206913.100,189776.400,261926.900,212029.200,190507.300,189761.000,197180.400,0.000
200696.400,207294.200,190180.500,262195.900,212488.000,190821.400,190120.500,197577.700,0.000
200706.700,207410.900,190298.000,262221.700,212722.500,190903.500,190267.500,197695.000,0.000
200381.400,207106.500,189920.800,261951.700,212410.400,190641.700,190005.000,197374.900,0.000
200172.500,206807.100,189523.600,261744.200,211991.000,190399.900,189700.700,197062.700,0.000
200361.700,206918.500,189596.000,261861.700,212038.100,190505.300,189770.900,197183.900,0.000
200697.500,207294.500,189996.900,262133.600,212496.500,190819.200,190126.500,197579.000,0.000
200707.400,207406.000,190112.500,262155.400,212724.300,190897.700,190268.600,197695.500,0.000
200378.700,207101.600,189737.100,261884.600,212411.000,190638.000,190005.800,197376.400,0.000
200160.200,206791.500,189327.900,261665.000,211976.600,190389.300,189687.900,197052.500,0.000
200358.000,206905.400,189404.500,261787.900,212026.500,190502.200,189758.400,197176.600,0.000
200703.700,207293.300,189815.700,262060.900,212498.000,190826.200,190122.100,197580.000,0.000
200716.800,207413.300,189937.500,262094.600,212734.300,190913.500,190269.100,197702.900,0.000
200383.700,207109.000,189557.600,261813.900,212416.500,190646.100,189997.600,197371.200,0.000
200168.900,206808.700,189159.800,261601.200,211992.700,190401.200,189687.300,197052.200,0.000
200361.300,206919.500,189239.600,261723.100,212043.700,190512.800,189761.200,197176.400,0.000
200701.600,207296.900,189642.200,261999.400,212502.400,190825.700,190117.500,197571.000,0.000
200718.800,207418.500,189765.500,262031.900,212737.600,190911.300,190267.700,197693.900,0.000
200395.400,207122.300,189394.500,261757.700,212427.100,190651.200,190006.000,197374.500,0.000
200184.700,206821.400,188996.000,261547.000,212000.000,190406.000,189698.000,197057.100,0.000
200368.100,206921.500,189064.500,261660.200,212039.800,190506.100,189762.800,197172.200,0.000
200708.900,207303.300,189473.400,261927.400,212505.700,190823.800,190123.000,197569.300,0.000
200718.000,207417.600,189592.700,261955.600,212734.200,190903.500,190264.800,197686.300,0.000
200385.000,207103.100,189205.800,261680.600,212407.800,190631.300,189986.400,197356.000,0.000
200178.900,206802.300,188804.400,261473.300,211980.200,190385.600,189673.000,197039.000,0.000
200372.900,206913.300,188877.100,261585.900,212023.700,190493.000,189740.800,197158.100,0.000
200712.800,207290.500,189280.800,261866.300,212482.300,190810.600,190096.800,197554.800,0.000
200728.600,207409.800,189403.500,261893.300,212716.000,190896.200,190246.700,197677.100,0.000
200398.100,207098.800,189024.700,261620.100,212398.600,190630.700,189978.000,197351.400,0.000
200188.600,206796.100,188625.100,261409.600,211971.000,190382.000,189665.400,197032.100,0.000
200388.000,206913.600,188712.600,261533.000,212025.200,190497.800,189743.500,197163.100,0.000
200721.600,207288.900,189114.500,261799.200,212476.900,190809.200,190093.200,197549.700,0.000
200725.300,207401.000,189229.700,261823.100,212704.500,190887.800,190233.400,197658.600,0.000
200399.800,207100.200,188857.900,261555.500,212392.900,190625.300,189969.300,197339.600,0.000
200194.600,206806.100,188471.300,261353.200,211976.100,190386.700,189669.000,197030.400,0.000
200382.100,206913.700,188550.000,261471.600,212019.400,190491.500,189736.100,197149.500,0.000
200718.300,207290.100,188957.500,261745.700,212482.400,190807.500,190094.000,197544.800,0.000
200730.000,207411.100,189080.800,261774.700,212716.600,190891.600,190242.700,197664.100,0.000
200400.000,207109.400,188708.900,261504.300,212405.500,190632.000,189979.600,197346.600,0.000
200185.500,206805.200,188312.200,261294.200,211980.000,190386.000,189670.800,197033.200,0.000
200369.100,206908.900,188384.400,261410.500,212019.800,190487.900,189735.900,197152.200,0.000
200712.300,207292.100,188797.100,261690.500,212484.500,190808.800,190098.400,197553.100,0.000
200723.300,207408.600,188924.200,261719.400,212719.700,190893.600,190247.200,197671.300,0.000
200383.000,207088.600,188539.300,261441.800,212391.600,190616.900,189969.600,197335.800,0.000
200171.300,206785.200,188143.200,261230.000,211963.200,190370.500,189661.400,197016.300,0.000
200360.500,206896.300,188222.600,261341.600,212005.900,190476.300,189731.500,197135.600,0.000
200700.000,207277.800,188635.900,261614.100,212472.500,190799.400,190097.000,197536.000,0.000
200714.600,207395.000,188761.000,261655.700,212706.000,190887.300,190247.700,197656.800,0.000
200389.700,207099.700,188393.300,261390.300,212393.300,190627.400,189987.800,197339.200,0.000
200170.300,206789.000,187997.300,261182.500,211964.800,190382.600,189679.500,197026.300,0.000
200357.700,206895.700,188077.800,261295.900,212011.100,190491.500,189749.600,197150.400,0.000
200703.800,207282.100,188490.600,261571.100,212476.700,190812.300,190109.000,197551.000,0.000
200712.700,207395.900,188611.700,261603.200,212705.600,190893.400,190251.300,197669.900,0.000
200389.500,207100.000,188244.900,261339.900,212395.300,190633.900,189988.900,197354.800,0.000
200157.700,206774.300,187834.100,261105.800,211952.900,190372.100,189663.100,197019.300,0.000
200358.600,206893.900,187927.800,261231.500,212008.700,190490.000,189742.100,197149.200,0.000
200702.700,207279.200,188346.800,261514.000,212479.400,190815.900,190106.300,197552.700,0.000
200716.200,207398.600,188470.500,261547.500,212713.100,190897.600,190253.200,197672.000,0.000
200377.200,207084.300,188086.300,261265.400,212385.200,190620.400,189975.800,197338.000,0.000
200159.200,206773.400,187688.700,261052.200,211953.600,190371.700,189662.300,197014.800,0.000
200348.100,206882.400,187769.800,261167.700,212000.400,190479.000,189730.500,197132.400,0.000
200698.200,207268.500,188188.800,261448.200,212471.600,190803.800,190095.200,197536.500,0.000
200727.100,207397.600,188329.800,261496.500,212718.500,190900.800,190254.500,197670.900,0.000
200398.200,207086.200,187959.500,261235.800,212401.400,190636.100,189986.300,197352.600,0.000
200186.700,206781.400,187564.000,261022.100,211969.900,190386.000,189671.300,197032.000,0.000
200382.600,206893.900,187649.400,261138.500,212018.500,190495.300,189740.900,197154.300,0.000
200727.300,207273.000,188064.500,261415.200,212484.500,190816.000,190099.000,197554.400,0.000
200738.300,207383.300,188185.300,261436.500,212709.300,190894.100,190236.300,197665.300,0.000
200417.100,207083.300,187818.700,261175.100,212394.900,190632.800,189971.200,197349.100,0.000
200201.100,206773.800,187424.100,260959.600,211965.300,190385.800,189658.200,197029.100,0.000
200391.500,206887.600,187510.600,261074.900,212015.100,190497.500,189729.500,197151.700,0.000
200730.200,207271.400,187926.100,261350.500,212478.700,190817.100,190088.100,197551.500,0.000
200741.600,207385.800,188053.800,261389.500,212708.200,190898.900,190232.200,197671.000,0.000
200405.400,207074.100,187677.400,261108.100,212384.100,190627.200,189957.600,197341.000,0.000
200207.600,206788.800,187300.500,260906.700,211971.300,190394.800,189661.300,197038.700,0.000
200411.000,206916.300,187400.600,261041.300,212035.200,190515.300,189742.000,197176.200,0.000
200741.800,207295.000,187813.500,261314.600,212498.800,190830.300,190095.000,197574.600,0.000
200747.500,207409.100,187937.000,261343.100,212729.500,190911.800,190236.300,197693.400,0.000
200407.800,207095.400,187556.500,261055.300,212404.700,190638.600,189962.000,197360.500,0.000
200193.000,206787.200,187164.700,260847.300,211977.600,190393.900,189653.800,197044.000,0.000
200388.200,206900.800,187250.000,260967.200,212022.800,190504.900,189726.400,197167.100,0.000
200727.700,207284.500,187667.200,261246.800,212489.500,190828.200,190092.100,197570.000,0.000
200736.000,207402.800,187794.100,261273.200,212723.900,190912.400,190239.200,197686.700,0.000
200403.600,207095.900,187418.300,261001.400,212402.600,190644.700,189966.700,197357.800,0.000
200187.000,206786.800,187022.200,260793.500,211972.200,190395.200,189654.100,197038.600,0.000
200368.700,206888.900,187103.000,260904.200,212012.800,190495.500,189719.000,197157.900,0.000
200703.800,207270.500,187517.900,261170.800,212473.800,190811.200,190078.300,197555.100,0.000
200720.300,207395.700,187652.100,261207.800,212712.600,190899.200,190230.400,197678.900,0.000
200395.100,207094.200,187287.600,260944.600,212400.900,190639.600,189965.600,197360.500,0.000
200184.700,206795.000,186902.600,260742.700,211979.600,190400.300,189659.400,197049.600,0.000
200369.500,206898.600,186983.800,260858.800,212019.100,190502.000,189723.800,197165.700,0.000
200699.800,207274.400,187394.400,261122.500,212475.000,190813.400,190079.400,197559.800,0.000
200702.800,207386.600,187516.700,261143.900,212703.600,190891.800,190224.000,197671.800,0.000
200379.900,207088.900,187155.500,260883.400,212393.000,190635.400,189965.300,197355.500,0.000
200166.400,206782.800,186764.800,260673.700,211963.400,190389.800,189653.000,197039.500,0.000
200359.600,206894.500,186854.700,260797.800,212015.500,190500.400,189724.500,197162.400,0.000
200704.700,207280.600,187278.100,261088.500,212487.600,190825.300,190090.600,197570.200,0.000
200709.600,207395.300,187404.900,261108.700,212717.300,190907.000,190234.500,197686.300,0.000
200372.100,207081.100,187030.400,260825.800,212393.300,190636.600,189962.400,197353.100,0.000
200163.600,206782.400,186646.400,260625.500,211972.400,190397.900,189659.300,197044.200,0.000
200351.500,206894.500,186734.700,260747.500,212020.900,190505.500,189734.700,197169.600,0.000
200682.100,207270.200,187147.000,261014.600,212479.000,190816.400,190089.300,197559.800,0.000
200693.500,207390.800,187276.900,261038.300,212712.100,190900.000,190233.400,197675.900,0.000
200363.600,207086.500,186908.800,260769.400,212392.400,190630.700,189964.300,197350.700,0.000
200144.800,206781.900,186519.900,260559.200,211965.500,190380.100,189654.800,197030.100,0.000
200342.800,206902.600,186618.400,260683.300,212024.700,190496.600,189732.500,197155.000,0.000
200681.400,207284.500,187038.400,260960.100,212492.100,190815.500,190091.700,197552.900,0.000
200687.300,207394.300,187163.500,260993.500,212718.300,190892.200,190233.300,197665.700,0.000
200360.500,207083.000,186794.300,260734.900,212395.300,190625.300,189963.500,197341.100,0.000
200148.300,206781.100,186407.300,260523.500,211968.800,190381.800,189654.500,197026.000,0.000
200341.300,206894.100,186501.400,260645.000,212019.200,190493.300,189729.000,197151.400,0.000
200669.300,207262.900,186913.800,260913.500,212475.100,190804.700,190083.600,197544.200,0.000
200675.400,207377.300,187042.200,260938.700,212704.700,190886.800,190226.100,197663.500,0.000
200348.200,207076.800,186676.100,260670.400,212385.400,190623.800,189958.500,197341.900,0.000
200137.400,206774.500,186289.100,260468.600,211959.900,190379.800,189647.200,197028.300,0.000
200330.500,206884.000,186377.000,260590.000,212006.200,190484.700,189718.100,197151.100,0.000
200666.900,207264.900,186790.200,260861.100,212465.800,190797.000,190073.900,197542.000,0.000
200667.300,207371.800,186910.800,260884.100,212688.500,190870.900,190209.200,197649.700,0.000
200337.900,207065.200,186545.500,260618.100,212371.200,190605.200,189941.500,197328.300,0.000
200136.500,206773.800,186175.500,260428.900,211959.600,190372.700,189648.200,197030.700,0.000
200326.500,206886.300,186266.100,260558.200,212009.000,190481.500,189720.600,197157.300,0.000
200642.400,207250.800,186664.900,260807.100,212455.000,190780.500,190058.800,197535.700,0.000
200647.200,207359.300,186793.700,260832.300,212683.700,190860.900,190199.600,197649.200,0.000
200323.100,207058.900,186428.800,260572.500,212368.800,190595.900,189934.400,197325.800,0.000
200108.700,206748.200,186030.400,260359.000,211931.100,190340.700,189612.500,196999.700,0.000
200303.000,206858.400,186122.500,260483.800,211979.100,190451.900,189686.600,197127.000,0.000
200642.400,207239.200,186546.400,260760.500,212444.300,190771.900,190050.500,197528.900,0.000
200660.200,207365.800,186682.700,260797.100,212679.500,190861.300,190201.300,197653.300,0.000
200326.500,207051.500,186311.200,260535.400,212356.800,190593.600,189928.700,197327.400,0.000
200106.600,206735.200,185917.900,260323.300,211925.600,190343.900,189615.000,197007.100,0.000
200306.300,206857.300,186015.600,260445.900,211977.500,190457.100,189692.600,197132.200,0.000
200638.700,207237.300,186434.900,260719.400,212435.500,190771.100,190049.800,197527.700,0.000
200649.000,207357.900,186568.000,260751.900,212668.100,190857.900,190199.000,197648.100,0.000
200319.900,207051.700,186203.400,260489.600,212350.300,190596.100,189936.500,197325.100,0.000
200102.000,206738.800,185808.000,260276.200,211913.900,190343.400,189621.600,197004.600,0.000
200304.200,206863.100,185905.500,260406.900,211970.000,190459.500,189698.600,197135.300,0.000
200639.900,207242.100,186326.900,260683.400,212437.600,190781.200,190061.500,197535.900,0.000
200652.700,207358.800,186456.500,260710.000,212667.700,190864.800,190206.900,197652.900,0.000
200326.100,207057.000,186088.800,260452.000,212347.600,190598.700,189936.700,197327.700,0.000
200112.000,206755.500,185705.500,260238.300,211925.800,190355.700,189628.400,197012.800,0.000
200309.300,206871.200,185803.900,260364.700,211981.800,190469.800,189705.100,197140.100,0.000
200650.100,207254.700,186225.200,260641.400,212445.600,190787.300,190063.100,197534.400,0.000
200654.600,207365.900,186353.100,260667.800,212671.900,190865.400,190200.800,197647.000,0.000
200316.700,207047.400,185979.900,260397.100,212344.400,190593.100,189923.800,197318.600,0.000
200105.000,206737.200,185593.300,260195.200,211916.500,190349.800,189615.600,197005.800,0.000
200304.000,206859.700,185689.300,260320.900,211968.200,190463.100,189693.400,197134.900,0.000
200637.000,207246.200,186109.500,260590.200,212430.300,190779.700,190053.100,197531.100,0.000
200643.800,207363.200,186242.600,260618.600,212662.000,190865.500,190198.100,197646.300,0.000
200313.800,207050.800,185877.200,260358.800,212342.000,190602.400,189929.700,197324.900,0.000
200116.100,206759.700,185503.700,260173.300,211924.400,190366.600,189631.400,197023.800,0.000
200310.400,206871.400,185594.000,260286.300,211971.800,190473.300,189701.100,197146.300,0.000
200639.600,207246.900,186007.400,260543.900,212429.500,190782.700,190050.900,197530.000,0.000
200647.400,207364.400,186136.300,260573.300,212658.800,190862.300,190192.500,197642.300,0.000
200315.700,207059.500,185773.200,260309.900,212342.300,190597.600,189924.900,197318.800,0.000
200100.300,206752.400,185389.400,260106.700,211919.500,190353.900,189615.600,197004.800,0.000
200295.600,206867.000,185485.400,260234.100,211973.500,190467.500,189688.000,197130.100,0.000
200630.800,207249.700,185903.000,260501.100,212436.100,190783.200,190044.200,197523.200,0.000
200649.500,207379.800,186047.500,260544.700,212680.300,190875.600,190201.200,197653.600,0.000
200323.400,207074.800,185684.900,260282.100,212363.600,190607.600,189932.500,197329.300,0.000
200108.400,206762.000,185294.500,260084.300,211930.200,190354.700,189616.800,197010.000,0.000
200282.500,206852.300,185369.300,260185.300,211959.000,190447.200,189672.400,197117.500,0.000
200614.500,207223.700,185785.100,260448.400,212416.500,190763.100,190026.900,197510.200,0.000
200631.100,207347.200,185921.300,260481.500,212651.600,190848.400,190172.900,197629.500,0.000
200303.300,207045.200,185560.500,260222.600,212335.900,190585.100,189905.300,197310.000,0.000
200093.400,206741.700,185181.600,260020.000,211912.900,190342.900,189599.100,196999.700,0.000
200289.200,206855.400,185279.300,260147.200,211964.900,190455.700,189673.600,197125.500,0.000
200629.200,207238.600,185706.400,260434.300,212431.900,190778.200,190036.800,197530.600,0.000
200626.600,207340.000,185827.900,260453.100,212654.000,190846.800,190170.300,197633.600,0.000
200299.900,207036.900,185460.700,260183.700,212331.900,190576.300,189897.000,197303.900,0.000
200082.500,206731.600,185074.200,259972.100,211904.300,190329.700,189583.800,196984.100,0.000
200272.700,206841.400,185167.000,260093.300,211953.900,190439.200,189654.800,197101.800,0.000
200615.000,207226.300,185592.400,260372.800,212421.100,190764.200,190020.800,197501.500,0.000
200633.000,207353.700,185735.500,260413.900,212662.400,190858.400,190176.600,197626.800,0.000
200300.900,207041.200,185370.300,260154.600,212339.200,190589.500,189907.800,197304.800,0.000
200081.400,206730.500,184980.900,259941.000,211901.500,190335.400,189589.800,196981.800,0.000
200281.100,206850.700,185082.500,260068.300,211956.100,190449.400,189668.600,197110.900,0.000
200622.900,207238.000,185511.700,260354.000,212426.600,190771.100,190037.900,197518.400,0.000
200629.600,207353.700,185645.400,260378.800,212659.800,190852.200,190187.100,197634.000,0.000
200303.000,207049.000,185287.600,260119.000,212345.400,190589.800,189925.100,197314.300,0.000
200101.200,206753.000,184915.200,259923.900,211928.000,190352.900,189626.000,197008.800,0.000
200290.500,206863.900,185009.200,260041.800,211976.200,190458.800,189696.400,197129.100,0.000
200621.300,207239.000,185428.200,260314.400,212434.900,190770.500,190049.000,197521.900,0.000
200623.700,207346.500,185553.900,260338.200,212657.000,190847.200,190184.500,197629.900,0.000
200295.100,207040.300,185190.800,260076.300,212339.600,190584.700,189914.800,197306.700,0.000
200086.800,206740.600,184816.500,259880.500,211919.000,190342.800,189612.600,196996.800,0.000
200289.900,206860.500,184921.900,260015.800,211975.500,190456.800,189692.500,197126.800,0.000
200622.600,207238.400,185340.900,260282.500,212435.100,190769.800,190048.000,197519.400,0.000
200626.800,207350.500,185471.300,260306.900,212662.800,190849.500,190189.400,197629.700,0.000
200297.600,207042.600,185107.200,260044.000,212343.500,190587.000,189921.300,197304.800,0.000
200088.900,206739.900,184727.300,259845.300,211918.600,190346.900,189618.000,196994.700,0.000
200283.100,206847.800,184823.000,259969.000,211964.100,190454.700,189689.500,197117.500,0.000
200623.500,207232.200,185251.100,260245.600,212430.200,190776.100,190052.300,197516.700,0.000
200631.000,207350.200,185385.300,260273.200,212660.900,190857.400,190198.000,197630.900,0.000
200299.500,207042.300,185023.100,260012.800,212338.100,190588.500,189928.000,197306.400,0.000
200096.200,206746.000,184649.800,259811.900,211918.300,190353.200,189623.300,196996.900,0.000
200292.900,206865.400,184753.600,259944.100,211975.400,190468.000,189701.000,197127.400,0.000
200622.400,207236.900,185171.600,260208.000,212432.900,190778.900,190054.900,197515.700,0.000
200629.800,207349.000,185302.900,260239.100,212656.400,190856.500,190195.900,197628.100,0.000
200297.800,207034.700,184935.400,259966.700,212329.600,190586.100,189921.300,197297.900,0.000
200086.700,206723.900,184551.100,259762.300,211898.800,190335.700,189608.300,196978.700,0.000
200278.000,206838.000,184648.100,259887.100,211948.300,190443.800,189680.000,197102.100,0.000
200614.800,207223.800,185074.800,260167.700,212414.500,190764.300,190043.100,197502.000,0.000
200624.600,207341.300,185210.200,260207.300,212642.600,190847.300,190189.000,197622.000,0.000
200297.900,207035.500,184846.800,259938.800,212322.200,190583.800,189921.300,197295.500,0.000
200082.400,206727.100,184462.500,259728.800,211894.200,190335.700,189607.000,196977.800,0.000
200284.500,206852.800,184567.000,259863.200,211952.900,190452.500,189685.800,197112.400,0.000
200623.700,207239.700,184995.300,260135.500,212421.000,190773.100,190047.700,197511.600,0.000
200636.700,207360.200,185131.000,260170.400,212650.400,190856.600,190190.800,197627.300,0.000
200297.000,207040.900,184759.400,259899.600,212319.000,190582.500,189912.900,197295.400,0.000
200081.300,206726.700,184374.200,259694.000,211886.900,190333.100,189601.500,196977.100,0.000
200277.300,206845.100,184473.000,259811.300,211938.000,190442.500,189675.100,197098.900,0.000
200616.100,207229.500,184899.000,260088.800,212402.800,190759.600,190033.600,197495.200,0.000
200627.000,207345.800,185033.700,260121.800,212634.400,190844.200,190179.700,197612.900,0.000
200305.100,207045.300,184679.300,259869.700,212324.100,190588.300,189920.300,197299.700,0.000
200091.000,206737.200,184302.000,259671.000,211902.200,190346.900,189612.200,196991.000,0.000
200285.700,206856.100,184402.900,259791.900,211955.300,190455.900,189683.400,197116.100,0.000
200614.600,207231.600,184821.800,260051.900,212415.000,190764.400,190038.200,197502.500,0.000
200621.100,207342.100,184955.700,260087.000,212642.300,190843.300,190180.800,197615.400,0.000
200287.200,207028.300,184587.100,259820.400,212315.200,190572.900,189905.600,197286.900,0.000
200080.500,206722.800,184204.500,259625.500,211882.100,190326.500,189593.900,196971.500,0.000
200273.300,206833.300,184304.100,259812.000,211930.100,190437.200,189666.600,197097.300,0.000
200599.700,207204.200,184722.700,260135.500,212389.500,190749.600,190023.700,197487.800,0.000
200610.300,207320.800,184855.700,260147.100,212614.800,190829.900,190167.800,197599.500,0.000
200282.200,207014.700,184494.300,259865.300,212292.300,190564.800,189898.600,197276.100,0.000
200074.600,206708.400,184119.800,259655.800,211869.600,190325.100,189596.400,196969.100,0.000
200281.200,206836.600,184229.000,259772.300,211927.500,190442.200,189676.600,197100.800,0.000
200613.700,207216.500,184653.400,260034.900,212386.500,190754.400,190028.900,197491.200,0.000
200622.200,207331.800,184789.400,260060.700,212615.400,190836.100,190172.400,197606.900,0.000
200303.600,207031.200,184434.800,259804.700,212300.500,190578.500,189908.800,197290.700,0.000
200089.500,206727.200,184056.500,259591.800,211877.500,190335.500,189599.500,196976.900,0.000
200277.100,206837.000,184151.700,259703.400,211924.000,190441.900,189670.900,197098.900,0.000
200614.300,207216.900,184576.900,259981.200,212387.200,190758.200,190032.000,197496.500,0.000
200626.000,207338.200,184712.700,260009.800,212616.000,190842.300,190176.400,197612.600,0.000
200306.600,207037.800,184358.900,259757.800,212300.700,190585.800,189915.900,197300.600,0.000
200090.500,206728.000,183979.800,259547.800,211873.800,190339.800,189605.000,196983.600,0.000
200275.800,206831.000,184077.300,259660.800,211925.000,190447.700,189676.400,197101.800,0.000
200608.200,207204.300,184496.500,259932.700,212385.500,190762.100,190031.600,197496.700,0.000
200618.000,207320.800,184628.000,259960.900,212611.600,190843.000,190172.700,197611.600,0.000
200294.900,207025.500,184275.200,259704.000,212299.600,190588.600,189913.600,197294.200,0.000
200084.000,206723.700,183899.100,259505.400,211876.300,190345.900,189607.800,196980.000,0.000
200285.000,206843.300,184003.500,259631.700,211931.000,190457.400,189680.900,197107.400,0.000
200627.600,207228.300,184433.600,259909.100,212399.100,190777.000,190039.300,197508.800,0.000
200631.800,207337.800,184563.500,259942.500,212623.000,190852.900,190175.400,197621.300,0.000
200293.400,207023.300,184195.100,259675.300,212296.100,190581.700,189898.100,197291.300,0.000
200080.800,206719.700,183818.300,259463.900,211871.800,190339.500,189590.900,196979.300,0.000
200277.300,206834.700,183922.000,259586.400,211924.800,190453.500,189667.000,197109.500,0.000
200615.500,207214.900,184349.400,259865.300,212389.700,190775.200,190030.400,197508.100,0.000
200628.800,207337.100,184487.600,259900.500,212621.600,190859.200,190178.100,197625.000,0.000
200288.100,207016.300,184113.800,259623.500,212286.000,190579.000,189895.600,197289.800,0.000
200072.900,206705.000,183728.000,259420.900,211849.700,190327.000,189579.100,196974.700,0.000
200275.100,206829.700,183838.300,259551.000,211908.600,190448.400,189662.300,197112.400,0.000
200617.600,207216.100,184273.300,259843.300,212379.800,190772.700,190031.500,197520.800,0.000
200610.300,207315.300,184393.400,259854.600,212594.800,190838.600,190163.000,197618.100,0.000
200281.800,207009.800,184029.300,259585.000,212271.900,190572.000,189893.500,197290.600,0.000
200076.600,206711.800,183654.300,259379.600,211850.200,190333.900,189589.100,196979.100,0.000
200276.100,206832.000,183762.800,259507.600,211908.700,190448.100,189669.700,197112.300,0.000
200616.200,207217.500,184195.700,259785.500,212379.200,190768.500,190034.900,197513.300,0.000
200618.900,207331.000,184328.100,259811.100,212605.700,190847.600,190175.500,197623.400,0.000
200290.000,207023.800,183969.100,259555.600,212285.900,190584.800,189909.600,197301.700,0.000
200087.500,206728.700,183598.300,259355.300,211866.900,190347.300,189607.700,196993.400,0.000
200276.900,206840.400,183693.400,259473.900,211914.000,190454.700,189677.300,197115.000,0.000
200604.800,207214.500,184110.300,259738.500,212373.400,190767.600,190032.200,197506.300,0.000
200613.800,207329.000,184244.000,259770.100,212601.600,190850.000,190171.300,197620.500,0.000
200286.600,207024.400,183887.700,259511.900,212281.400,190587.500,189902.600,197300.700,0.000
200081.400,206723.000,183516.700,259323.700,211860.000,190348.000,189598.600,196995.000,0.000
200278.800,206840.900,183618.800,259443.200,211914.000,190460.000,189673.500,197122.600,0.000
200613.800,207225.200,184047.400,259714.400,212381.500,190780.400,190036.900,197522.500,0.000
200617.300,207332.800,184177.800,259741.900,212606.300,190855.400,190175.000,197630.700,0.000
200282.500,207019.700,183812.900,259469.900,212282.800,190582.000,189898.000,197301.400,0.000
200073.500,206715.600,183439.300,259269.800,211858.400,190335.800,189591.600,196988.000,0.000
200275.500,206838.000,183551.500,259404.300,211919.500,190449.800,189674.400,197121.700,0.000
200613.900,207222.100,183984.000,259685.800,212390.800,190771.000,190040.400,197524.300,0.000
200618.600,207333.300,184116.300,259719.100,212614.700,190847.200,190182.000,197636.900,0.000
200283.600,207017.900,183747.400,259455.300,212285.700,190573.000,189904.600,197306.600,0.000
200068.800,206710.500,183364.800,259239.200,211855.600,190323.900,189590.000,196985.000,0.000
200270.500,206834.100,183474.900,259375.000,211915.500,190443.000,189673.200,197122.200,0.000
200601.200,207209.200,183900.400,259648.900,212380.000,190761.800,190036.400,197521.800,0.000
200607.600,207320.600,184035.900,259677.100,212606.800,190842.100,190177.400,197633.800,0.000
200278.300,207014.200,183674.800,259419.800,212284.200,190576.200,189905.000,197310.100,0.000
200071.900,206716.600,183302.500,259216.600,211863.500,190335.400,189599.800,196999.600,0.000
200275.000,206839.700,183414.700,259349.400,211925.000,190453.900,189683.200,197136.400,0.000
200607.300,207219.400,183842.800,259621.500,212391.100,190770.200,190041.500,197532.000,0.000
200607.700,207329.100,183979.100,259650.000,212620.000,190847.500,190181.400,197639.200,0.000
200278.800,207021.700,183619.400,259387.900,212299.700,190581.300,189909.200,197309.600,0.000
200063.900,206715.400,183235.900,259177.700,211868.400,190330.000,189593.800,196988.400,0.000
200256.300,206828.600,183336.800,259302.100,211914.500,190438.800,189668.000,197113.200,0.000
200591.500,207212.000,183767.400,259576.800,212381.100,190756.800,190029.800,197510.000,0.000
200605.200,207332.500,183910.300,259613.400,212615.600,190841.500,190177.100,197628.200,0.000
200270.800,207019.300,183544.300,259348.300,212287.300,190569.400,189899.100,197294.700,0.000
200057.900,206717.600,183172.200,259145.900,211863.300,190323.600,189590.700,196982.200,0.000
200260.500,206843.600,183285.600,259271.500,211925.300,190442.500,189672.400,197113.800,0.000
200584.800,207214.100,183705.200,259540.400,212384.800,190753.900,190025.200,197503.400,0.000
200578.800,207318.500,183826.800,259566.500,212601.700,190823.000,190155.300,197608.900,0.000
200245.200,207006.600,183460.500,259292.400,212272.500,190551.200,189879.200,197277.500,0.000
200044.000,206709.300,183094.400,259098.200,211852.900,190312.600,189578.800,196971.100,0.000
200245.700,206829.100,183205.200,259230.300,211911.800,190427.100,189658.900,197103.200,0.000
200578.700,207205.300,183633.500,259508.100,212376.300,190744.700,190017.500,197497.400,0.000
200591.500,207323.100,183771.700,259545.800,212606.200,190828.600,190164.100,197612.600,0.000
200270.100,207020.200,183415.400,259295.100,212285.300,190564.700,189896.500,197294.000,0.000
200051.600,206702.000,183034.300,259077.100,211852.900,190313.100,189581.300,196974.900,0.000
200254.500,206827.200,183146.000,259207.500,211910.500,190427.500,189658.200,197104.800,0.000
200587.900,207209.100,183575.900,259488.200,212377.900,190745.100,190017.200,197502.300,0.000
200593.900,207322.500,183709.500,259512.600,212603.500,190823.200,190153.900,197609.500,0.000
200263.800,207014.500,183348.100,259247.000,212280.900,190553.300,189878.100,197279.700,0.000
200057.400,206717.700,182978.900,259053.700,211860.000,190313.500,189571.900,196971.500,0.000
200254.100,206834.900,183085.600,259179.500,211917.300,190428.600,189647.000,197101.600,0.000
200578.200,207202.500,183501.800,259449.100,212370.700,190735.400,189995.600,197489.700,0.000
200578.100,207309.400,183628.300,259476.600,212590.100,190810.100,190132.400,197596.400,0.000
200252.500,207005.300,183270.800,259221.300,212270.900,190547.600,189864.900,197272.500,0.000
200052.400,206713.000,182905.900,259026.900,211855.800,190317.600,189568.500,196969.300,0.000
200244.700,206825.900,183014.400,259153.600,211913.600,190433.900,189650.100,197101.700,0.000
200581.300,207209.700,183444.200,259431.200,212376.500,190749.700,190009.800,197498.500,0.000
200586.900,207320.800,183578.600,259463.200,212600.300,190829.000,190145.800,197607.900,0.000
200250.600,207001.800,183215.000,259199.300,212274.700,190560.200,189870.300,197279.200,0.000
200040.400,206697.600,182840.700,258995.800,211851.800,190314.700,189562.000,196966.100,0.000
200245.300,206829.100,182953.600,259123.600,211914.600,190432.800,189643.700,197097.400,0.000
200586.000,207217.800,183387.200,259411.000,212384.000,190757.000,190008.300,197501.500,0.000
200586.200,207323.100,183515.100,259430.100,212598.500,190830.100,190141.900,197608.800,0.000
200248.900,206999.900,183146.500,259154.500,212263.400,190555.000,189863.900,197272.000,0.000
200042.800,206695.400,182773.900,258956.100,211839.700,190311.800,189558.900,196958.800,0.000
200243.500,206815.400,182881.000,259090.500,211897.100,190425.900,189640.400,197088.700,0.000
200582.700,207202.600,183314.100,259367.800,212364.200,190746.800,190004.800,197487.300,0.000
200585.500,207314.000,183450.900,259395.000,212587.600,190823.500,190144.900,197599.100,0.000
200253.600,206999.000,183088.100,259131.900,212256.600,190552.100,189868.500,197269.900,0.000
200046.000,206696.800,182716.600,258936.100,211831.400,190311.500,189564.300,196961.000,0.000
200248.400,206823.600,182831.300,259073.100,211892.700,190432.000,189649.500,197097.800,0.000
200576.300,207198.100,183254.500,259343.400,212348.100,190743.000,190003.000,197490.200,0.000
200580.500,207306.200,183387.400,259366.300,212569.800,190819.600,190142.200,197601.500,0.000
200253.100,206998.500,183027.200,259101.100,212243.800,190551.900,189870.800,197273.600,0.000
200043.800,206688.900,182652.100,258903.200,211814.400,190306.600,189559.200,196958.600,0.000
200248.800,206818.300,182767.000,259033.000,211876.100,190424.600,189640.500,197091.000,0.000
200582.700,207198.500,183196.700,259307.700,212340.800,190743.500,190002.500,197486.500,0.000
200594.300,207319.000,183338.600,259347.700,212573.900,190830.300,190152.800,197605.000,0.000
200263.100,207006.000,182972.800,259085.700,212247.100,190559.100,189878.800,197275.100,0.000
200051.600,206697.000,182594.000,258876.400,211818.000,190309.700,189566.200,196958.600,0.000
200251.100,206817.700,182705.800,259008.300,211878.800,190423.100,189647.100,197091.500,0.000
200589.600,207203.900,183141.500,259291.300,212350.300,190745.000,190013.200,197495.000,0.000
200594.200,207316.300,183278.300,259322.600,212579.300,190823.600,190153.100,197606.100,0.000
200261.500,207002.200,182914.000,259061.600,212252.600,190554.300,189876.400,197279.500,0.000
200061.400,206708.800,182551.500,258872.700,211836.700,190319.600,189577.500,196976.500,0.000
200254.900,206824.100,182658.300,258994.300,211888.600,190431.800,189651.300,197100.600,0.000
200589.800,207206.300,183086.500,259274.300,212351.600,190748.200,190009.600,197498.200,0.000
200587.500,207311.900,183213.600,259292.200,212568.600,190819.900,190141.700,197598.300,0.000
200259.300,207002.000,182855.700,259032.200,212245.300,190553.700,189870.100,197271.400,0.000
200051.600,206694.800,182484.100,258840.800,211819.300,190310.200,189563.700,196963.200,0.000
200246.700,206810.200,182592.400,258956.700,211872.600,190421.500,189637.900,197088.900,0.000
200581.700,207198.800,183024.400,259226.000,212339.600,190738.000,189995.800,197483.100,0.000
200584.600,207311.800,183158.200,259256.400,212564.900,190815.000,190133.000,197595.300,0.000
200257.000,207004.300,182801.800,258999.800,212242.400,190548.800,189860.900,197271.700,0.000
200051.200,206703.800,182434.000,258807.600,211821.600,190310.900,189559.200,196962.200,0.000
200239.800,206813.400,182537.700,258930.300,211871.900,190419.500,189631.400,197084.500,0.000
200568.500,207183.300,182962.400,259194.500,212333.700,190729.800,189985.100,197476.200,0.000
200584.300,207309.000,183104.100,259236.900,212562.600,190812.600,190127.100,197593.800,0.000
200252.800,207001.700,182744.200,258972.700,212235.200,190546.800,189854.200,197268.500,0.000
200043.600,206697.200,182370.500,258769.600,211809.300,190303.400,189546.200,196954.900,0.000
200241.500,206816.500,182483.500,258905.500,211869.800,190419.700,189628.500,197086.400,0.000
200571.200,207193.600,182911.100,259179.800,212333.700,190734.500,189987.900,197481.400,0.000
200574.000,207302.400,183045.500,259211.200,212559.100,190811.300,190129.600,197593.700,0.000
200248.700,206997.700,182687.200,258946.200,212235.300,190542.300,189861.300,197268.500,0.000
200042.700,206695.800,182316.200,258742.700,211811.500,190298.300,189554.500,196956.800,0.000
200243.500,206817.500,182428.100,258874.800,211873.100,190415.200,189636.400,197088.700,0.000
200578.000,207196.800,182858.200,259154.300,212338.900,190732.800,189996.500,197484.600,0.000
200579.400,207301.400,182991.000,259196.100,212560.100,190809.500,190133.200,197597.100,0.000
200237.500,206976.600,182622.300,258914.800,212225.700,190533.200,189848.700,197258.500,0.000
200049.000,206691.800,182267.800,258731.500,211818.700,190307.000,189556.800,196963.500,0.000
200250.900,206816.100,182380.700,258863.700,211883.100,190427.300,189639.500,197097.800,0.000
200578.800,207192.000,182804.600,259130.600,212343.500,190739.800,189993.700,197487.300,0.000
200578.000,207298.000,182934.500,259161.700,212560.500,190812.500,190127.600,197594.400,0.000
200247.100,206984.700,182571.400,258903.800,212229.600,190542.400,189851.000,197266.300,0.000
200037.800,206680.100,182196.500,258703.500,211802.100,190297.500,189539.500,196951.800,0.000
200241.500,206807.400,182314.600,258843.400,211871.900,190419.300,189626.700,197089.600,0.000
200562.200,207178.200,182733.300,259098.100,212330.500,190726.900,189978.900,197474.200,0.000
200559.000,207282.800,182862.000,259120.800,212548.500,190797.100,190112.700,197579.500,0.000
200235.300,206980.400,182511.700,258869.700,212231.000,190536.900,189849.700,197263.200,0.000
200037.900,206689.600,182154.000,258682.200,211820.300,190305.800,189556.100,196961.500,0.000
200244.500,206816.500,182276.200,258824.800,211888.900,190426.000,189644.100,197101.800,0.000
200575.000,207192.500,182701.300,259090.900,212349.400,190734.000,189997.800,197492.100,0.000
200576.600,207300.500,182835.900,259127.000,212572.800,190810.100,190136.500,197602.700,0.000
200242.000,206985.000,182474.100,258858.600,212245.600,190541.100,189864.100,197274.100,0.000
200022.500,206673.000,182094.400,258646.900,211809.900,190289.700,189550.500,196953.600,0.000
200216.300,206784.900,182198.800,258770.000,211859.800,190399.100,189621.800,197074.100,0.000
200560.300,207173.700,182635.000,259052.500,212329.800,190726.400,189988.500,197477.500,0.000
200566.100,207283.700,182764.800,259081.600,212547.900,190800.400,190122.200,197584.200,0.000
200237.000,206973.700,182402.700,258823.500,212220.700,190531.300,189847.500,197257.300,0.000
200033.100,206673.500,182034.900,258628.800,211798.500,190291.400,189541.400,196946.300,0.000
200237.400,206801.100,182153.400,258762.700,211863.900,190408.500,189625.900,197079.600,0.000
200569.500,207181.600,182583.000,259039.500,212328.000,190723.800,189986.100,197476.200,0.000
200571.300,207293.800,182715.200,259071.800,212545.800,190799.800,190121.500,197583.000,0.000
200238.500,206982.200,182355.200,258805.700,212215.100,190531.000,189846.400,197256.800,0.000
200031.900,206682.600,181988.700,258602.500,211792.800,190290.800,189542.400,196947.300,0.000
200231.900,206806.800,182102.900,258735.100,211854.500,190410.900,189625.000,197081.200,0.000
200557.000,207176.300,182523.200,259005.000,212311.200,190719.900,189974.800,197469.700,0.000
200564.100,207288.100,182658.600,259043.900,212538.500,190800.400,190116.600,197582.900,0.000
200232.200,206972.200,182294.000,258779.800,212212.000,190528.300,189842.000,197256.000,0.000
200035.200,206681.300,181932.700,258584.900,211798.200,190291.900,189542.000,196954.700,0.000
200234.900,206806.900,182054.200,258714.600,211866.700,190417.500,189631.000,197094.800,0.000
200557.800,207175.500,182473.600,258984.600,212324.500,190728.500,189985.100,197484.700,0.000
200555.200,207276.300,182596.800,259005.800,212537.700,190797.900,190115.800,197584.900,0.000
200219.600,206961.300,182233.500,258735.400,212206.800,190525.800,189840.800,197254.000,0.000
200019.900,206666.900,181872.800,258554.100,211791.400,190292.800,189544.800,196954.100,0.000
200227.800,206800.000,181996.900,258699.000,211861.800,190418.500,189635.300,197097.300,0.000
200554.600,207177.600,182420.100,258957.700,212318.900,190724.000,189985.600,197481.600,0.000
200554.800,207289.500,182552.300,258988.200,212537.500,190798.300,190122.600,197586.600,0.000
200216.900,206968.600,182186.000,258722.300,212207.200,190527.500,189845.400,197254.900,0.000
200013.500,206667.200,181817.800,258528.100,211786.100,190286.300,189536.700,196944.500,0.000
200223.300,206798.900,181940.400,258665.000,211852.800,190405.400,189617.400,197079.200,0.000
200554.000,207176.600,182366.800,258933.900,212314.800,190717.700,189971.900,197472.600,0.000
200554.200,207282.200,182498.900,258960.400,212535.200,190793.000,190108.200,197581.300,0.000
200225.700,206971.200,182141.600,258702.100,212209.300,190525.500,189835.000,197256.000,0.000
200010.500,206661.400,181766.400,258500.300,211777.800,190276.600,189520.300,196941.600,0.000
200209.000,206781.500,181878.500,258638.400,211838.500,190392.800,189601.100,197073.100,0.000
200545.800,207167.800,182309.300,258920.400,212303.900,190709.500,189961.100,197468.000,0.000
200545.500,207276.100,182442.500,258935.400,212523.600,190783.700,190099.500,197572.400,0.000
200205.600,206952.800,182075.400,258663.600,212188.500,190507.700,189820.200,197235.500,0.000
199997.500,206648.800,181704.900,258468.100,211766.100,190267.700,189516.100,196926.000,0.000
200208.400,206776.400,181827.800,258610.600,211835.800,190394.800,189606.800,197068.000,0.000
200546.700,207163.700,182260.200,258888.200,212301.600,190713.700,189968.000,197464.300,0.000
200540.800,207267.300,182383.800,258906.800,212513.900,190780.800,190096.900,197567.000,0.000
200210.800,206952.900,182024.800,258648.900,212187.400,190516.600,189826.400,197243.500,0.000
200006.600,206648.900,181659.300,258457.000,211765.800,190278.400,189523.200,196936.100,0.000
200209.100,206774.000,181777.500,258597.500,211830.900,190398.900,189609.300,197072.900,0.000
200538.500,207155.400,182207.100,258863.100,212295.700,190712.800,189967.800,197460.900,0.000
200540.900,207263.800,182341.800,258893.000,212517.400,190787.000,190106.000,197567.300,0.000
200210.100,206948.200,181976.600,258622.100,212183.500,190516.000,189826.800,197231.100,0.000
200000.600,206639.300,181599.100,258415.000,211752.200,190270.800,189513.600,196912.300,0.000
200202.300,206762.000,181712.800,258545.000,211809.000,190388.100,189591.900,197044.100,0.000
200535.300,207145.200,182145.300,258815.200,212273.900,190708.800,189953.600,197442.300,0.000
200542.000,207257.200,182279.700,258849.000,212497.000,190789.800,190093.400,197555.600,0.000
200210.300,206944.800,181918.200,258588.300,212166.000,190519.800,189820.800,197230.100,0.000
200007.700,206645.500,181551.700,258393.100,211740.000,190282.500,189518.700,196922.800,0.000
200210.900,206767.100,181671.000,258526.500,211802.400,190402.600,189605.700,197060.000,0.000
200546.800,207152.800,182105.400,258798.900,212266.600,190720.400,189966.600,197456.500,0.000
200546.800,207261.000,182236.200,258824.500,212482.000,190794.400,190099.600,197561.200,0.000
200215.700,206945.200,181874.200,258573.100,212150.600,190521.100,189822.500,197234.700,0.000
200013.800,206645.600,181510.000,258375.700,211730.000,190281.000,189519.800,196929.900,0.000
200207.900,206763.600,181619.600,258488.400,211786.900,190393.400,189598.200,197054.200,0.000
200533.800,207136.800,182046.000,258756.700,212250.000,190707.200,189955.500,197446.700,0.000
200539.300,207248.000,182181.800,258793.800,212470.200,190783.400,190091.000,197557.900,0.000
200214.800,206946.000,181825.500,258531.200,212146.800,190518.800,189818.600,197235.200,0.000
200020.000,206657.300,181468.000,258343.500,211739.100,190290.200,189522.600,196937.900,0.000
200222.300,206781.100,181586.800,258487.000,211805.100,190409.100,189607.100,197076.500,0.000
200544.200,207150.500,182008.900,258745.200,212260.500,190713.900,189954.800,197461.800,0.000
200537.600,207250.400,182136.400,258770.500,212475.300,190780.500,190084.500,197564.200,0.000
200197.300,206920.100,181764.800,258496.700,212135.000,190501.500,189799.900,197226.100,0.000
199999.200,206625.700,181400.200,258303.800,211711.400,190263.400,189497.000,196921.100,0.000
200201.300,206757.100,181520.400,258434.200,211776.200,190382.900,189585.100,197058.100,0.000
200533.500,207136.900,181950.300,258720.700,212239.500,190701.000,189946.200,197456.800,0.000
200534.100,207242.200,182078.900,258751.800,212456.800,190777.200,190081.700,197564.700,0.000
200204.500,206934.800,181720.900,258482.800,212131.000,190512.100,189811.400,197236.300,0.000
200000.400,206637.500,181357.000,258288.100,211710.600,190274.100,189508.300,196928.900,0.000
200197.300,206758.600,181469.000,258418.400,211769.700,190388.700,189584.700,197059.300,0.000
200524.100,207135.400,181900.100,258694.500,212233.400,190701.700,189942.100,197454.600,0.000
200516.500,207237.900,182030.300,258713.900,212449.400,190769.600,190072.900,197555.700,0.000
200188.600,206928.300,181673.300,258453.700,212123.900,190501.900,189801.400,197229.400,0.000
199993.100,206637.400,181314.000,258265.800,211708.700,190266.500,189503.500,196929.000,0.000
200202.200,206772.300,181439.800,258408.300,211778.500,190392.100,189591.800,197070.700,0.000
200532.900,207149.700,181873.000,258684.400,212244.100,190710.700,189953.000,197467.500,0.000
200528.000,207251.300,182001.700,258700.700,212458.500,190779.500,190085.000,197569.800,0.000
200195.300,206936.000,181640.000,258431.500,212125.800,190509.000,189807.100,197236.700,0.000
199996.100,206639.700,181278.200,258243.000,211707.300,190272.900,189506.100,196932.600,0.000
200203.500,206769.400,181402.900,258386.700,211777.300,190397.000,189599.800,197073.500,0.000
200540.200,207154.500,181840.200,258664.200,212249.800,190716.800,189965.800,197472.300,0.000
200541.700,207264.400,181973.200,258691.100,212472.200,190790.200,190101.400,197576.900,0.000
200206.600,206947.500,181608.000,258424.100,212137.200,190517.400,189819.200,197241.800,0.000
200014.100,206658.700,181253.200,258244.700,211725.200,190288.400,189525.300,196945.300,0.000
200224.800,206791.300,181382.100,258396.400,211796.500,190413.500,189618.300,197094.500,0.000
200545.600,207157.900,181802.500,258649.700,212248.500,190719.800,189966.900,197475.600,0.000
200544.800,207267.800,181935.300,258674.900,212466.600,190791.900,190103.200,197576.400,0.000
200209.900,206952.900,181572.700,258411.800,212135.700,190519.400,189825.900,197245.600,0.000
200010.000,206657.800,181209.200,258218.800,211716.800,190284.000,189523.400,196937.600,0.000
200216.200,206793.300,181336.500,258356.800,211790.300,190409.300,189615.900,197078.300,0.000
200541.900,207174.300,181767.300,258628.600,212254.500,190724.900,189973.900,197472.100,0.000
200539.300,207280.700,181902.800,258661.900,212480.300,190803.100,190114.700,197581.200,0.000
200208.500,206968.800,181540.500,258400.200,212150.300,190528.300,189839.100,197249.600,0.000
200008.300,206674.300,181180.500,258206.400,211733.100,190291.400,189535.700,196943.500,0.000
200207.700,206797.100,181301.200,258331.100,211798.600,190409.300,189617.500,197074.300,0.000
200534.400,207172.400,181729.100,258601.600,212260.100,190718.100,189972.900,197465.900,0.000
200523.600,207266.000,181851.400,258626.200,212471.800,190782.800,190099.600,197567.200,0.000
200196.100,206957.300,181494.700,258372.000,212146.300,190517.100,189827.900,197240.800,0.000
199995.000,206665.900,181131.200,258176.400,211728.300,190277.600,189525.700,196933.900,0.000
200195.000,206794.600,181252.900,258308.000,211796.300,190398.300,189609.200,197070.600,0.000
200516.100,207161.300,181679.300,258569.400,212254.000,190706.100,189960.700,197460.100,0.000
200515.700,207262.000,181807.000,258597.000,212468.400,190776.500,190089.300,197564.900,0.000
200192.000,206957.700,181447.100,258339.800,212141.000,190511.000,189818.000,197239.700,0.000
199980.400,206652.100,181071.000,258131.000,211711.200,190263.400,189504.100,196916.900,0.000
200186.500,206782.900,181200.100,258272.000,211788.300,190390.600,189596.900,197056.700,0.000
200519.400,207161.700,181636.900,258553.300,212262.200,190710.800,189962.000,197457.900,0.000
200535.500,207281.000,181781.000,258598.600,212493.000,190792.100,190107.600,197574.000,0.000
200204.300,206971.100,181420.300,258335.100,212164.000,190521.300,189832.600,197244.100,0.000
199992.800,206663.500,181049.400,258128.700,211738.100,190275.800,189522.500,196931.400,0.000
200191.000,206780.700,181167.000,258266.600,211799.800,190391.400,189601.700,197065.900,0.000
200525.600,207162.000,181600.700,258541.200,212268.100,190709.400,189960.300,197460.900,0.000
200528.800,207271.200,181733.500,258566.700,212492.300,190787.700,190097.900,197568.900,0.000
200198.900,206958.900,181370.600,258302.800,212166.300,190517.600,189823.900,197241.000,0.000
199998.000,206660.800,181004.500,258110.000,211745.100,190277.000,189519.700,196936.000,0.000
200197.300,206782.100,181124.200,258245.600,211808.500,190396.500,189602.500,197073.900,0.000
200528.300,207165.600,181558.800,258524.800,212276.700,190715.000,189962.800,197470.600,0.000
200530.700,207276.600,181696.700,258555.300,212500.400,190792.200,190103.400,197581.900,0.000
200190.200,206955.100,181329.700,258285.700,212162.400,190514.700,189820.200,197243.900,0.000
199987.000,206658.500,180966.100,258092.000,211742.900,190277.500,189515.200,196932.100,0.000
200188.900,206784.000,181087.100,258222.800,211807.700,190395.800,189595.500,197067.100,0.000
200522.700,207166.200,181519.300,258498.100,212274.200,190711.700,189950.100,197461.900,0.000
200526.500,207274.400,181656.600,258535.200,212500.500,190789.300,190087.500,197572.800,0.000
200194.700,206961.300,181294.900,258272.200,212171.200,190516.700,189809.100,197242.500,0.000
199986.200,206661.200,180924.300,258070.200,211743.800,190270.600,189498.000,196924.500,0.000
200194.200,206790.300,181050.800,258218.900,211813.000,190393.800,189586.500,197066.300,0.000
200519.000,207159.900,181476.400,258481.800,212272.300,190705.500,189939.400,197457.400,0.000
200520.200,207265.200,181606.400,258508.800,212489.500,190778.000,190074.100,197562.400,0.000
200183.200,206949.100,181243.700,258239.800,212158.800,190505.400,189799.000,197232.400,0.000
199979.800,206650.700,180874.400,258044.700,211733.800,190262.800,189493.100,196921.600,0.000
200182.700,206776.600,180992.200,258180.000,211795.800,190378.700,189576.300,197055.700,0.000
200515.100,207157.000,181429.200,258463.200,212264.300,190696.100,189938.900,197454.300,0.000
200509.300,207261.200,181560.900,258483.500,212484.100,190769.800,190073.300,197559.800,0.000
200178.800,206947.100,181202.800,258221.500,212158.100,190504.000,189801.900,197236.500,0.000
199978.200,206649.600,180836.300,258030.400,211733.300,190264.300,189496.500,196925.800,0.000
200181.700,206776.800,180954.000,258169.500,211793.600,190383.900,189577.000,197056.800,0.000
200511.800,207153.500,181383.900,258442.800,212253.300,190696.600,189930.800,197449.400,0.000
200511.200,207257.400,181516.500,258460.200,212469.700,190766.900,190063.400,197552.900,0.000
200191.300,206955.500,181168.300,258206.300,212152.000,190506.900,189798.100,197231.600,0.000
199992.400,206659.100,180804.900,258019.400,211735.800,190274.000,189495.200,196928.100,0.000
200185.200,206772.500,180913.600,258147.400,211789.300,190385.500,189570.300,197054.900,0.000
200510.300,207147.300,181340.300,258414.400,212250.200,190698.200,189927.600,197443.700,0.000
200512.300,207255.900,181474.000,258447.400,212470.900,190775.200,190064.200,197552.400,0.000
200181.500,206947.500,181113.200,258187.000,212139.200,190505.800,189787.700,197223.300,0.000
199983.200,206656.000,180754.600,257998.200,211724.600,190274.900,189490.000,196919.100,0.000
200189.700,206786.800,180878.000,258132.800,211795.600,190401.200,189582.100,197059.600,0.000
200514.700,207158.600,181302.000,258404.600,212250.200,190708.000,189932.000,197447.700,0.000
200515.200,207265.800,181433.000,258432.100,212465.500,190779.100,190066.100,197551.200,0.000
200185.500,206952.000,181073.400,258172.500,212137.100,190510.500,189792.600,197223.100,0.000
199986.500,206657.000,180712.600,257987.800,211720.500,190277.200,189494.500,196920.200,0.000
200180.900,206773.600,180824.800,258117.800,211779.100,190391.500,189574.500,197052.300,0.000
200514.500,207152.200,181257.300,258385.400,212243.700,190705.900,189931.700,197447.100,0.000
200518.000,207262.100,181395.000,258418.400,212466.700,190783.600,190065.500,197557.400,0.000
200180.400,206946.100,181031.600,258148.700,212133.400,190509.500,189783.500,197221.600,0.000
199977.800,206643.600,180669.400,257965.400,211711.400,190269.500,189481.200,196917.400,0.000
200173.300,206761.100,180781.500,258083.900,211767.200,190381.500,189558.700,197045.200,0.000
200512.400,207146.800,181219.100,258368.200,212238.300,190704.600,189923.000,197448.100,0.000
200508.000,207245.300,181343.600,258387.400,212447.300,190772.100,190050.100,197549.700,0.000
200180.800,206934.600,180981.300,258122.800,212113.100,190499.500,189772.000,197214.000,0.000
199977.800,206635.500,180614.500,257929.800,211688.200,190258.300,189463.900,196901.600,0.000
200181.700,206757.100,180734.200,258071.200,211752.700,190376.300,189547.400,197040.700,0.000
200519.600,207141.000,181170.500,258350.900,212219.900,190695.300,189909.000,197441.400,0.000
200518.100,207248.000,181304.800,258378.000,212436.700,190767.500,190042.800,197547.500,0.000
200176.800,206926.900,180940.800,258104.900,212101.600,190488.500,189761.800,197209.300,0.000
199970.300,206626.200,180577.900,257908.100,211680.400,190249.900,189459.900,196901.200,0.000
200174.500,206752.200,180704.100,258047.000,211746.000,190372.800,189550.800,197043.200,0.000
200505.500,207129.400,181139.600,258326.400,212210.300,190688.600,189915.000,197442.200,0.000
200507.000,207241.200,181277.400,258358.400,212433.800,190767.100,190054.300,197550.400,0.000
200172.900,206927.800,180915.700,258096.100,212103.100,190494.600,189778.800,197219.300,0.000
199966.100,206627.800,180548.000,257894.800,211677.100,190254.600,189472.200,196907.000,0.000
200170.800,206757.800,180669.700,258033.600,211743.600,190380.200,189557.600,197042.700,0.000
200506.800,207140.600,181105.500,258316.600,212212.700,190700.900,189918.300,197440.800,0.000
200506.800,207241.900,181237.000,258346.600,212431.300,190773.600,190050.100,197546.500,0.000
200176.500,206928.100,180875.600,258087.900,212101.300,190501.600,189772.800,197216.300,0.000
199973.000,206629.200,180507.000,257889.200,211674.000,190256.500,189463.400,196902.300,0.000
200179.400,206758.200,180632.500,258020.000,211743.100,190377.800,189551.000,197039.200,0.000
200509.100,207134.800,181064.900,258297.100,212208.300,190695.300,189910.200,197432.000,0.000
200503.300,207230.600,181190.900,258321.600,212421.200,190763.600,190040.300,197532.500,0.000
200180.400,206924.400,180832.400,258072.200,212094.600,190496.200,189768.600,197208.600,0.000
199985.000,206640.900,180478.000,257883.000,211685.300,190270.400,189477.100,196914.500,0.000
200175.900,206755.100,180590.700,258002.800,211740.900,190383.900,189554.100,197040.700,0.000
200502.500,207125.800,181015.600,258265.800,212196.800,190692.100,189903.500,197422.500,0.000
200506.600,207234.900,181151.000,258304.000,212418.500,190771.100,190042.500,197532.100,0.000
200179.500,206924.200,180794.800,258050.700,212094.000,190504.700,189772.200,197209.500,0.000
199974.300,206621.600,180425.000,257845.400,211666.500,190259.000,189463.600,196894.800,0.000
200178.500,206750.800,180549.400,257987.100,211733.400,190382.300,189553.900,197033.000,0.000
200516.400,207135.400,180989.100,258274.500,212201.000,190703.200,189915.400,197433.400,0.000
200523.700,207249.500,181131.700,258314.400,212426.100,190783.200,190056.200,197547.500,0.000
200192.200,206935.900,180772.900,258043.200,212099.200,190513.100,189784.100,197219.800,0.000
199993.400,206641.700,180412.800,257851.300,211684.200,190278.300,189485.800,196916.300,0.000
200194.800,206767.000,180534.100,257985.500,211751.200,190397.900,189569.100,197049.700,0.000
200525.100,207148.600,180968.500,258258.600,212222.100,190715.400,189927.300,197442.600,0.000
200517.200,207244.800,181092.600,258280.000,212432.600,190778.300,190051.200,197537.500,0.000
200183.200,206924.700,180726.500,258015.100,212097.600,190500.600,189768.100,197204.200,0.000
199981.600,206628.800,180365.100,257820.000,211679.900,190266.300,189467.400,196901.100,0.000
200188.000,206762.400,180494.300,257960.400,211755.400,190394.600,189562.600,197044.900,0.000
200523.000,207150.500,180935.200,258245.200,212229.600,190716.100,189931.800,197446.600,0.000
200517.200,207253.300,181070.200,258271.700,212450.300,190787.900,190068.200,197551.800,0.000
200178.800,206933.400,180707.700,258005.200,212119.000,190514.100,189791.500,197219.500,0.000
199979.600,206636.300,180345.000,257821.400,211696.300,190274.300,189489.600,196912.400,0.000
200179.900,206758.900,180464.600,257944.600,211756.400,190390.500,189571.700,197045.300,0.000
200513.800,207140.700,180899.800,258221.600,212219.300,190705.400,189930.700,197439.500,0.000
200506.500,207241.800,181027.300,258243.000,212430.700,190770.900,190060.300,197542.500,0.000
200165.500,206917.200,180659.300,257965.300,212091.400,190488.600,189775.300,197201.800,0.000
199962.200,206617.300,180296.300,257769.500,211668.300,190246.500,189469.800,196891.000,0.000
200167.600,206744.300,180419.600,257909.500,211734.400,190366.400,189554.500,197026.800,0.000
200506.700,207133.500,180862.400,258196.800,212208.300,190689.600,189919.900,197431.700,0.000
200504.500,207236.900,180996.700,258225.200,212426.300,190763.100,190054.100,197539.200,0.000
200171.900,206924.500,180637.100,257960.400,212092.700,190490.400,189775.100,197208.000,0.000
199968.300,206629.200,180276.100,257767.600,211674.600,190253.900,189472.500,196904.000,0.000
200172.800,206752.800,180399.000,257910.800,211738.500,190375.100,189556.500,197042.200,0.000
200502.600,207128.400,180828.200,258177.200,212196.600,190685.300,189909.500,197427.900,0.000
200502.200,207233.100,180962.100,258199.900,212416.600,190760.800,190044.700,197532.600,0.000
200171.600,206918.900,180605.600,257942.400,212091.300,190494.600,189773.100,197208.500,0.000
199973.000,206628.600,180244.100,257749.500,211670.800,190256.900,189468.900,196904.000,0.000
200169.400,206750.000,180362.000,257877.800,211730.000,190371.700,189549.200,197033.100,0.000
200500.300,207130.900,180796.800,258154.000,212196.300,190686.900,189907.000,197427.300,0.000
200502.500,207235.900,180929.600,258182.200,212411.500,190755.900,190038.600,197528.500,0.000
200171.100,206918.700,180570.000,257927.800,212081.000,190485.700,189765.400,197198.800,0.000
199962.500,206611.500,180202.700,257731.000,211658.000,190244.600,189462.600,196892.900,0.000
200176.300,206744.700,180328.800,257875.100,211722.900,190367.000,189551.700,197034.900,0.000
200510.500,207124.200,180764.600,258157.700,212186.200,190684.400,189912.200,197436.400,0.000
200504.100,207227.600,180898.600,258176.700,212401.900,190756.100,190044.600,197536.000,0.000
200173.800,206917.300,180544.100,257919.400,212078.500,190491.200,189773.400,197207.900,0.000
199975.600,206627.100,180186.300,257735.700,211664.800,190257.800,189474.900,196902.600,0.000
200172.000,206749.200,180305.300,257867.300,211727.300,190375.100,189558.500,197035.500,0.000
200503.300,207126.000,180741.000,258146.300,212196.800,190692.600,189923.600,197434.700,0.000
200506.400,207242.800,180880.500,258175.500,212426.300,190771.600,190068.300,197547.200,0.000
200168.500,206925.200,180514.800,257906.300,212091.300,190493.500,189788.000,197211.700,0.000
199968.600,206631.400,180156.000,257710.200,211672.600,190259.000,189487.800,196909.000,0.000
200172.800,206762.700,180283.200,257849.400,211742.600,190383.700,189576.200,197050.800,0.000
200503.000,207142.400,180713.700,258121.200,212208.700,190698.600,189932.300,197441.400,0.000
200496.700,207247.200,180846.500,258145.600,212428.000,190772.900,190065.000,197541.400,0.000
200164.100,206931.700,180488.600,257888.300,212097.400,190501.500,189789.700,197214.200,0.000
199967.000,206629.500,180129.000,257712.400,211676.100,190262.600,189486.800,196911.500,0.000
200172.900,206761.100,180253.500,257842.300,211742.900,190384.900,189575.300,197047.800,0.000
200503.800,207141.800,180687.400,258115.100,212208.800,190699.900,189936.700,197444.400,0.000
200498.600,207241.900,180813.200,258128.800,212422.600,190767.500,190064.200,197543.300,0.000
200163.800,206922.000,180446.400,257858.500,212087.700,190491.000,189778.600,197206.000,0.000
199963.000,206622.000,180080.500,257665.300,211663.800,190251.500,189470.700,196895.300,0.000
200169.100,206744.900,180204.300,257808.600,211729.400,190375.800,189556.500,197034.200,0.000
200502.700,207124.800,180639.500,258082.800,212195.600,190695.700,189916.000,197431.600,0.000
200512.900,207241.700,180780.400,258117.600,212422.800,190775.700,190055.500,197545.700,0.000
200185.300,206934.800,180425.400,257863.000,212095.800,190508.900,189781.300,197222.700,0.000
199979.400,206632.800,180058.600,257660.400,211670.100,190264.900,189471.300,196905.200,0.000
200181.400,206755.100,180178.600,257794.000,211731.900,190381.500,189553.800,197038.700,0.000
200510.500,207132.400,180611.500,258069.600,212195.300,190697.100,189911.300,197434.300,0.000
200516.300,207239.700,180749.500,258109.300,212416.800,190773.800,190047.100,197545.700,0.000
200184.400,206933.200,180393.200,257836.100,212086.700,190505.600,189771.300,197218.500,0.000
199975.000,206626.100,180021.700,257635.300,211653.200,190262.000,189460.500,196905.400,0.000
200170.500,206746.200,180137.900,257760.700,211709.600,190378.900,189544.700,197037.900,0.000
200500.000,207124.200,180570.000,258034.400,212171.300,190696.700,189904.500,197434.600,0.000
200493.900,207224.000,180698.000,258056.500,212384.900,190765.400,190037.700,197536.600,0.000
200167.000,206913.600,180343.100,257803.200,212059.500,190498.100,189767.600,197213.300,0.000
199969.100,206627.600,179988.000,257614.900,211645.500,190262.400,189469.100,196911.600,0.000
200163.100,206747.900,180107.300,257739.900,211707.200,190375.400,189549.800,197043.700,0.000
200487.800,207119.600,180532.500,258005.200,212164.500,190685.800,189901.000,197432.300,0.000
200486.900,207225.000,180663.700,258032.500,212378.800,190759.400,190032.000,197535.700,0.000
200163.500,206917.700,180310.700,257785.000,212051.800,190495.300,189760.900,197215.100,0.000
199962.300,206619.800,179950.100,257592.400,211632.500,190259.500,189460.500,196913.000,0.000
200159.400,206739.600,180063.500,257707.700,211686.600,190371.900,189538.700,197039.200,0.000
200480.700,207105.500,180485.300,257974.600,212137.600,190680.100,189886.900,197426.200,0.000
200477.200,207206.400,180617.400,258004.800,212354.600,190754.800,190021.000,197531.500,0.000
200152.600,206898.800,180261.500,257755.300,212029.300,190488.700,189751.700,197210.900,0.000
199949.200,206601.300,179897.800,257554.900,211605.900,190248.000,189446.800,196902.100,0.000
200143.400,206717.300,180009.900,257674.200,211659.700,190358.100,189520.800,197024.200,0.000
200478.900,207098.500,180444.600,257953.500,212123.700,190676.100,189881.300,197422.200,0.000
200484.800,207206.000,180578.000,257994.900,212339.900,190752.600,190018.000,197532.600,0.000
200146.800,206885.400,180212.700,257722.200,212001.900,190475.000,189735.100,197195.000,0.000
199946.900,206591.700,179854.300,257523.800,211584.200,190239.800,189434.600,196889.200,0.000
200156.600,206725.800,179983.200,257667.300,211656.600,190367.800,189525.000,197034.100,0.000
200487.900,207106.900,180417.400,257952.200,212122.800,190684.000,189884.900,197433.700,0.000
200484.500,207211.300,180548.300,257972.900,212337.700,190752.300,190015.300,197534.700,0.000
200157.000,206901.900,180191.800,257707.900,212010.100,190484.500,189741.500,197206.400,0.000
199963.400,206614.500,179837.900,257524.400,211600.800,190256.100,189449.700,196906.100,0.000
200165.800,206740.500,179957.100,257664.800,211663.600,190376.200,189536.500,197042.100,0.000
200489.300,207110.000,180377.500,257931.100,212118.600,190683.600,189887.900,197428.400,0.000
200488.300,207213.100,180506.600,257958.300,212334.000,190752.900,190018.600,197530.700,0.000
200159.500,206904.700,180151.800,257702.100,212009.200,190484.300,189745.600,197203.800,0.000
199953.200,206607.800,179791.500,257505.400,211593.200,190249.000,189443.000,196898.200,0.000
200150.100,206728.300,179911.100,257637.100,211654.800,190365.200,189525.000,197031.200,0.000
200489.300,207116.700,180351.600,257918.100,212123.600,190684.200,189891.000,197429.600,0.000
200491.400,207226.100,180493.400,257948.500,212346.600,190763.300,190031.100,197538.400,0.000
200164.000,206916.000,180140.700,257690.700,212021.300,190495.300,189758.200,197215.200,0.000
199963.100,206620.700,179784.800,257502.800,211603.900,190260.700,189459.600,196911.500,0.000
200159.100,206740.500,179902.300,257635.600,211660.700,190373.300,189536.500,197038.400,0.000
200486.000,207114.300,180330.800,257907.900,212119.500,190683.400,189887.700,197428.800,0.000
200482.100,207220.000,180464.200,257922.900,212336.300,190753.700,190019.700,197531.300,0.000
200146.300,206897.400,180099.900,257659.200,211998.800,190475.000,189736.100,197195.700,0.000
199947.300,206602.700,179740.300,257469.500,211580.600,190237.800,189433.200,196890.500,0.000
200150.100,206729.100,179860.600,257604.600,211643.900,190355.900,189517.100,197027.000,0.000
200481.200,207107.800,180292.600,257879.200,212109.400,190671.200,189875.000,197421.800,0.000
200486.900,207219.100,180430.200,257913.400,212335.300,190749.000,190011.400,197529.900,0.000
200168.700,206917.200,180080.200,257664.600,212016.600,190483.800,189740.800,197209.500,0.000
199965.300,206622.000,179720.200,257468.600,211598.800,190245.500,189439.100,196904.500,0.000
200160.500,206742.500,179839.700,257598.000,211664.900,190361.600,189524.300,197037.100,0.000
200490.100,207119.000,180270.700,257864.300,212127.900,190676.000,189880.300,197426.500,0.000
200489.900,207226.100,180403.900,257891.800,212344.100,190747.400,190011.200,197528.300,0.000
200156.400,206909.500,180046.700,257630.600,212017.000,190475.400,189737.000,197199.900,0.000
199956.400,206613.500,179690.900,257446.800,211603.600,190242.900,189440.000,196898.600,0.000
200153.700,206734.300,179806.400,257579.200,211662.000,190358.500,189520.200,197030.000,0.000
200481.100,207108.200,180240.600,257852.400,212128.700,190677.700,189883.100,197426.000,0.000
200481.800,207214.900,180374.500,257880.000,212350.000,190751.900,190020.300,197528.000,0.000
200158.100,206910.800,180022.900,257622.000,212027.000,190485.200,189748.500,197199.700,0.000
199960.300,206617.600,179669.000,257436.800,211613.400,190250.900,189450.200,196896.400,0.000
200164.900,206743.500,179799.500,257586.200,211684.400,190374.600,189540.500,197040.900,0.000
200487.900,207117.200,180223.100,257852.100,212137.000,190680.100,189886.400,197423.000,0.000
200473.400,207209.900,180342.500,257861.200,212341.200,190741.600,190005.900,197511.900,0.000
200144.300,206900.900,179985.400,257604.200,212015.200,190474.300,189734.000,197184.800,0.000
199946.600,206606.700,179626.600,257420.000,211597.600,190236.900,189434.300,196881.600,0.000
200153.900,206739.900,179757.300,257554.200,211671.200,190360.700,189525.200,197021.800,0.000
200480.400,207115.100,180192.300,257829.300,212138.700,190678.200,189886.700,197416.700,0.000
200479.400,207221.800,180324.200,257857.900,212358.000,190751.000,190019.600,197520.900,0.000
200153.800,206918.400,179967.800,257602.200,212034.800,190485.000,189745.800,197192.800,0.000
199954.200,206622.500,179607.200,257410.800,211617.000,190249.700,189444.000,196884.900,0.000
200152.100,206748.100,179730.400,257544.000,211686.300,190370.900,189532.100,197022.900,0.000
200470.300,207118.200,180157.700,257808.300,212147.400,190680.100,189889.100,197410.100,0.000
200467.800,207220.900,180290.000,257838.200,212364.300,190750.300,190023.900,197511.700,0.000
200146.400,206916.500,179940.800,257587.400,212042.400,190486.600,189754.800,197188.800,0.000
199946.700,206621.500,179583.300,257398.800,211626.100,190251.900,189453.000,196886.100,0.000
200155.500,206752.800,179708.500,257534.500,211695.200,190374.400,189538.300,197023.800,0.000
200483.200,207133.000,180143.100,257808.000,212158.000,190687.400,189893.800,197415.200,0.000
200477.200,207240.100,180277.200,257829.800,212377.000,190760.200,190027.600,197519.500,0.000
200151.500,206931.000,179924.800,257576.000,212053.600,190493.600,189754.100,197196.800,0.000
199950.100,206632.500,179564.000,257383.700,211633.900,190253.600,189449.500,196888.500,0.000
200141.600,206746.000,179679.100,257511.500,211691.600,190364.600,189527.500,197016.800,0.000
200472.500,207124.500,180113.300,257790.300,212155.100,190678.800,189885.700,197416.100,0.000
200468.300,207228.700,180247.000,257814.000,212371.300,190748.400,190016.000,197521.200,0.000
200134.700,206910.100,179887.100,257543.400,212037.900,190472.900,189735.100,197184.100,0.000
199946.700,206625.200,179542.000,257366.300,211630.400,190245.800,189443.500,196889.600,0.000
200153.400,206755.700,179671.200,257509.500,211702.000,190370.500,189532.000,197028.700,0.000
200473.900,207127.300,180096.300,257776.700,212162.900,190678.300,189882.500,197413.200,0.000
200468.300,207228.500,180221.900,257797.100,212375.200,190749.300,190013.600,197512.900,0.000
200146.000,206920.000,179869.400,257546.700,212051.600,190486.800,189747.200,197191.200,0.000
199942.900,206622.000,179509.500,257357.600,211632.600,190249.900,189447.700,196886.900,0.000
200144.000,206741.800,179628.600,257490.900,211692.800,190365.800,189530.400,197021.100,0.000
200470.200,207117.300,180057.600,257756.900,212150.000,190675.000,189884.500,197409.500,0.000
200474.700,207226.400,180194.200,257788.800,212374.100,190751.800,190026.300,197515.900,0.000
200151.000,206916.900,179840.900,257547.300,212051.100,190486.300,189755.600,197192.400,0.000
199940.700,206611.000,179471.400,257335.600,211623.200,190239.200,189444.500,196876.500,0.000
200137.800,206729.200,179590.200,257459.800,211683.400,190353.800,189522.600,197006.100,0.000
200463.100,207096.100,180017.700,257732.500,212139.600,190663.900,189874.400,197397.600,0.000
200463.800,207202.300,180148.300,257763.100,212352.400,190735.500,190007.100,197503.900,0.000
200128.800,206885.900,179783.000,257500.100,212016.900,190461.400,189726.100,197169.600,0.000
199929.800,206591.600,179423.600,257309.700,211599.000,190225.900,189427.400,196865.600,0.000
200128.100,206715.100,179544.500,257442.500,211660.400,190343.600,189513.600,197002.700,0.000
200448.800,207080.100,179967.400,257709.700,212111.100,190647.900,189863.100,197385.800,0.000
200460.400,207192.200,180110.900,257760.100,212334.300,190732.600,190008.500,197503.700,0.000
200129.100,206882.400,179751.900,257493.200,212000.700,190461.700,189733.600,197174.000,0.000
199920.300,206582.600,179384.500,257291.500,211572.300,190218.000,189425.000,196862.900,0.000
200115.900,206699.600,179499.700,257423.700,211627.300,190333.100,189503.400,196992.200,0.000
200443.400,207071.600,179928.300,257694.300,212081.200,190642.600,189857.700,197377.500,0.000
200449.800,207180.300,180065.600,257729.100,212299.500,190719.600,189995.700,197484.700,0.000
200126.300,206870.400,179710.500,257475.500,211971.500,190454.100,189725.000,197159.000,0.000
199926.000,206570.700,179347.300,257280.300,211547.400,190215.200,189423.400,196850.200,0.000
200126.300,206693.500,179468.900,257415.300,211608.800,190334.400,189507.300,196985.300,0.000
200456.200,207070.500,179902.800,257699.000,212072.900,190652.000,189869.900,197382.700,0.000
200453.200,207173.500,180032.900,257723.000,212284.000,190722.900,190005.600,197484.700,0.000
200125.300,206859.300,179674.100,257458.900,211948.800,190450.100,189726.600,197154.400,0.000
199919.900,206556.800,179306.900,257260.500,211520.400,190204.200,189415.600,196842.200,0.000
200122.300,206683.000,179428.300,257400.100,211583.400,190324.400,189500.600,196979.800,0.000
200456.500,207063.800,179866.200,257682.200,212046.500,190645.000,189860.100,197377.800,0.000
200452.700,207166.600,180000.800,257712.600,212260.500,190717.700,189993.700,197480.800,0.000
200123.600,206851.300,179639.700,257444.400,211929.800,190444.600,189715.600,197149.000,0.000
199934.800,206564.500,179287.600,257263.600,211517.900,190213.900,189419.200,196854.600,0.000
200144.300,206697.200,179418.700,257402.800,211588.200,190340.900,189510.100,196998.400,0.000
200473.400,207076.300,179851.600,257672.800,212051.600,190655.300,189867.200,197389.000,0.000
200469.800,207180.400,179982.100,257699.900,212265.600,190725.700,189996.900,197490.300,0.000
200134.500,206864.500,179621.400,257435.600,211932.200,190451.800,189717.100,197156.700,0.000
