EEG 1, EEG 2, EEG 3, EEG 4, EEG 5, EEG 6, EEG 7, EEG 8, TRIG
346775.100,358935.300,750000.100,750000.100,357402.700,402505.800,630629.800,401411.300,0.000
327320.100,338145.300,750000.100,750000.100,338227.400,381922.900,598469.000,380992.800,0.000
316692.400,326350.900,750000.100,750000.100,327880.300,370867.100,581072.500,370136.900,0.000
307109.500,315881.300,750000.100,750000.100,318604.300,360941.700,565751.800,360363.600,0.000
297606.900,305963.100,750000.100,750000.100,309372.800,351070.800,551050.600,350528.000,0.000
288907.300,297066.600,750000.100,750000.100,300734.300,341741.900,537317.100,341198.200,0.000
281990.100,289809.300,750000.100,750000.100,293692.600,333979.300,525628.400,333511.400,0.000
276624.600,283941.700,750000.100,750000.100,288213.200,327839.200,516079.000,327518.000,0.000
271440.000,278389.000,750000.100,750000.100,283057.800,322117.000,507329.500,321906.800,0.000
265729.900,272637.100,750000.100,750000.100,277420.100,315955.000,498313.800,315761.900,0.000
260243.900,267233.200,750000.100,750000.100,271864.600,309850.400,489481.500,309647.000,0.000
256006.900,262885.500,750000.100,750000.100,267419.700,304827.600,481968.500,304678.300,0.000
252895.300,259462.800,750000.100,750000.100,264129.300,301009.700,475970.200,300977.800,0.000
249698.000,256048.900,750000.100,750000.100,260903.500,297346.900,470345.000,297404.800,0.000
245817.800,252220.400,750000.100,750000.100,257045.800,293089.800,464187.500,293149.000,0.000
241960.200,248510.500,750000.100,750000.100,253094.000,288710.000,457932.200,288739.800,0.000
239126.200,245640.900,750000.100,750000.100,250045.700,285210.300,452704.000,285279.100,0.000
237231.800,243502.400,750000.100,750000.100,247975.900,282727.900,448729.600,282904.000,0.000
235161.000,241258.200,750000.100,750000.100,245875.700,280295.900,444956.800,280549.500,0.000
232339.800,238514.000,750000.100,750000.100,243073.100,277196.200,440517.400,277441.500,0.000
229463.400,235797.400,750000.100,750000.100,240107.500,273901.100,435865.600,274109.800,0.000
227475.000,233786.100,750000.100,750000.100,237915.400,271350.700,432062.600,271589.400,0.000
226308.700,232399.200,750000.100,750000.100,236585.100,269695.200,429340.400,270027.800,0.000
224917.800,230854.800,750000.100,750000.100,235172.000,268029.100,426721.700,268429.700,0.000
222757.800,228773.500,750000.100,750000.100,233041.800,265677.000,423397.700,266066.800,0.000
220498.000,226679.300,750000.100,750000.100,230702.000,263081.100,419789.600,263433.100,0.000
219067.900,225240.700,750000.100,750000.100,229083.800,261177.700,416945.500,261548.100,0.000
218392.800,224363.200,750000.100,750000.100,228264.000,260101.700,415091.800,260553.800,0.000
217469.900,223295.500,750000.100,750000.100,227329.200,258978.400,413286.300,259490.000,0.000
215768.500,221676.900,750000.100,750000.100,225663.800,257148.800,410737.100,257644.300,0.000
213941.800,220013.600,750000.100,750000.100,223770.800,255054.500,407867.300,255507.800,0.000
212885.000,218950.900,750000.100,750000.100,222543.300,253593.000,405687.100,254060.500,0.000
212547.000,218421.600,750000.100,750000.100,222068.000,252911.300,404430.700,253454.000,0.000
211946.300,217682.200,750000.100,750000.100,221463.800,252164.400,403193.200,252765.100,0.000
210575.900,216394.000,750000.100,750000.100,220137.100,250722.800,401211.700,251304.500,0.000
209043.000,215024.700,750000.100,750000.100,218549.100,248983.300,398866.800,249518.600,0.000
208242.300,214223.700,741851.800,750000.100,217595.000,247837.000,397163.100,248385.900,0.000
208133.400,213925.500,726879.800,750000.100,217366.800,247440.700,396339.400,248065.100,0.000
207777.600,213434.000,712801.800,750000.100,217016.100,246977.500,395520.700,247658.200,0.000
206647.500,212387.500,698838.800,750000.100,215938.200,245814.700,393951.400,246479.600,0.000
205334.600,211237.900,685213.400,750000.100,214583.600,244337.200,391994.500,244962.000,0.000
204735.600,210640.900,672731.300,748619.100,213847.300,243437.700,390654.300,244078.700,0.000
204818.000,210541.600,661429.400,746607.500,213826.100,243279.100,390182.000,243994.700,0.000
204637.900,210233.900,650455.600,744647.500,213663.900,243037.700,389692.700,243808.400,0.000
203660.700,209340.100,639227.100,742723.400,212751.400,242066.800,388416.500,242820.200,0.000
202510.900,208355.600,628207.300,740915.100,211571.500,240787.400,386762.500,241501.500,0.000
202060.500,207911.600,618184.400,739270.700,210993.000,240069.700,385700.900,240797.200,0.000
202274.900,207953.400,609199.700,737742.400,211109.500,240070.600,385472.900,240868.100,0.000
202223.300,207778.700,600421.000,736241.800,211079.900,239981.800,385216.600,240830.000,0.000
201390.500,207029.000,591292.600,734761.000,210320.800,239182.100,384188.300,240008.000,0.000
200365.300,206168.300,582251.900,733371.300,209273.900,238057.300,382757.400,238837.100,0.000
200021.800,205832.900,574090.800,732119.800,208806.800,237474.200,381894.400,238260.800,0.000
200340.100,205978.100,566872.900,730966.400,209031.600,237600.800,381856.000,238453.600,0.000
200383.800,205897.200,559773.000,729818.900,209103.600,237627.100,381774.300,238529.500,0.000
199641.300,205241.800,552237.000,728669.100,208437.500,236935.000,380912.600,237816.200,0.000
198714.100,204484.000,544716.600,727595.200,207495.800,235928.000,379655.800,236762.600,0.000
198450.800,204231.600,537994.800,726643.400,207117.000,235446.500,378946.700,236285.100,0.000
198837.800,204447.600,532140.100,725777.100,207417.800,235666.400,379048.200,236563.400,0.000
198970.800,204458.900,526359.600,724909.500,207588.800,235808.600,379128.600,236747.000,0.000
198329.400,203904.500,520096.600,724028.500,207031.300,235240.600,378437.000,236151.000,0.000
197476.300,203216.900,513763.500,723201.200,206167.500,234323.900,377314.100,235184.700,0.000
197277.200,203029.200,508166.800,722484.900,205857.200,233926.400,376727.300,234785.300,0.000
197714.300,203295.700,503379.100,721838.100,206212.800,234212.200,376931.300,235128.200,0.000
197896.800,203354.400,498616.900,721177.300,206435.800,234415.000,377107.800,235373.400,0.000
197312.600,202853.100,493333.300,720495.600,205937.500,233913.800,376519.400,234846.800,0.000
196529.300,202232.200,487953.600,719864.500,205145.200,233082.200,375512.500,233961.100,0.000
196389.100,202105.600,483266.100,719333.200,204901.100,232760.500,375035.000,233636.500,0.000
196877.700,202429.300,479337.800,718857.900,205310.300,233107.000,375331.800,234039.000,0.000
197106.500,202538.600,475394.300,718359.200,205577.900,233364.200,375590.700,234336.100,0.000
196573.700,202090.200,470904.900,717831.300,205130.000,232923.300,375087.900,233868.500,0.000
195815.000,201498.700,466263.000,717340.900,204367.200,232126.400,374142.700,233019.300,0.000
195697.800,201396.000,462280.800,716945.900,204150.900,231836.700,373721.000,232727.100,0.000
196221.700,201753.600,459040.800,716604.200,204598.000,232229.900,374083.400,233176.200,0.000
196492.600,201902.600,455768.000,716235.100,204914.500,232543.000,374419.200,233529.200,0.000
196004.600,201500.600,451923.600,715829.500,204517.700,232159.200,373995.300,233115.700,0.000
195296.400,200964.500,447913.500,715457.800,203810.700,231425.100,373133.800,232327.700,0.000
195199.000,200883.000,444502.700,715165.300,203614.800,231164.500,372758.800,232063.500,0.000
195748.500,201270.600,441818.100,714923.500,204088.500,231590.400,373168.800,232541.100,0.000
196052.000,201455.200,439083.300,714650.700,204434.800,231941.300,373556.800,232929.200,0.000
195580.700,201066.600,435741.300,714332.600,204054.700,231580.700,373170.700,232541.400,0.000
194886.300,200537.000,432211.700,714044.100,203364.000,230868.400,372342.900,231776.100,0.000
194822.200,200490.700,429285.000,713835.900,203206.300,230647.300,372021.500,231549.500,0.000
195391.000,200899.500,427056.100,713670.100,203702.900,231097.600,372473.200,232055.200,0.000
195708.200,201097.200,424757.000,713466.200,204065.500,231465.400,372893.300,232462.300,0.000
195261.100,200733.300,421843.300,713214.900,203708.900,231133.000,372546.300,232100.600,0.000
194587.600,200226.700,418720.500,712987.300,203039.000,230447.500,371757.200,231358.900,0.000
194549.800,200204.700,416195.600,712841.100,202905.500,230257.400,371474.700,231159.300,0.000
195137.400,200628.200,414350.000,712734.300,203424.700,230732.700,371956.700,231686.400,0.000
195470.400,200841.300,412412.900,712583.100,203802.700,231118.700,372402.800,232110.200,0.000
195036.300,200493.200,409847.300,712381.900,203457.600,230801.000,372082.700,231762.800,0.000
194362.200,199988.500,407053.700,712201.600,202794.100,230124.000,371313.800,231031.000,0.000
194329.700,199974.700,404847.400,712101.100,202669.500,229943.400,371053.800,230846.000,0.000
194933.200,200416.500,403315.400,712036.400,203199.700,230437.200,371561.300,231389.800,0.000
195287.900,200653.700,401691.800,711927.900,203600.200,230854.600,372041.700,231839.400,0.000
194869.800,200320.300,399427.800,711767.400,203278.800,230564.300,371750.900,231516.900,0.000
194215.000,199834.300,396924.900,711623.800,202632.600,229910.800,371006.100,230804.200,0.000
194181.100,199821.200,394980.400,711551.400,202504.000,229735.500,370751.300,230622.500,0.000
194775.900,200254.700,393692.800,711511.300,203025.600,230224.000,371259.300,231163.500,0.000
195138.400,200494.800,392319.400,711427.100,203433.300,230644.600,371752.300,231622.900,0.000
194728.100,200165.900,390296.400,711284.300,203119.300,230360.100,371475.600,231309.500,0.000
194084.300,199689.100,388027.600,711157.300,202482.500,229714.800,370745.400,230606.800,0.000
194063.600,199689.300,386313.900,711103.200,202366.100,229551.400,370505.700,230436.600,0.000
194670.900,200138.500,385254.200,711083.300,202905.000,230054.700,371033.400,230993.500,0.000
195040.100,200390.500,384097.000,711017.100,203324.500,230487.200,371538.600,231463.800,0.000
194642.800,200078.500,382289.200,710892.300,203025.700,230219.700,371277.800,231168.300,0.000
194007.900,199612.600,380227.000,710779.200,202401.400,229585.000,370562.700,230482.100,0.000
193980.300,199604.800,378697.900,710736.800,202283.600,229417.100,370323.600,230311.000,0.000
194585.800,200052.100,377819.500,710727.200,202818.700,229918.800,370851.600,230868.800,0.000
194961.500,200307.000,376847.800,710672.500,203242.000,230361.600,371373.300,231352.500,0.000
194557.500,199983.500,375204.500,710222.600,202935.000,230090.000,371113.400,231053.800,0.000
193919.100,199512.000,373303.900,707218.400,202308.400,229457.400,370400.200,230365.500,0.000
193907.100,199522.200,371948.200,702793.100,202201.900,229304.700,370176.900,230206.300,0.000
194519.500,199979.200,371232.200,699301.700,202743.800,229813.300,370714.300,230768.100,0.000
194891.200,200233.500,370409.500,695874.800,203167.400,230255.000,371234.900,231249.600,0.000
194501.700,199925.300,368929.300,691712.300,202876.800,230000.400,370996.200,230968.300,0.000
193866.400,199456.000,367175.300,687194.900,202253.200,229371.600,370290.600,230284.500,0.000
193832.800,199446.800,365937.800,683479.800,202129.800,229202.800,370052.600,230108.800,0.000
194454.400,199909.500,365343.500,680878.000,202677.100,229717.200,370596.800,230677.600,0.000
194844.600,200178.900,364639.800,678075.900,203109.000,230169.200,371129.400,231171.200,0.000
194461.600,199877.100,363271.100,674475.600,202825.000,229921.000,370897.500,230895.400,0.000
193823.300,199406.900,361617.700,670483.300,202199.800,229291.600,370189.000,230208.300,0.000
193796.700,199404.000,360491.700,667088.800,202082.900,229127.500,369955.700,230036.300,0.000
194412.200,199862.600,360015.000,664524.000,202629.900,229645.000,370500.100,230601.600,0.000
194811.400,200139.900,359444.000,661932.800,203078.000,230112.800,371047.600,231106.700,0.000
194446.300,199855.900,358205.500,658569.100,202807.800,229880.700,370833.300,230848.000,0.000
193802.200,199380.400,356658.600,654793.300,202175.100,229248.800,370123.800,230159.000,0.000
193767.500,199370.400,355629.700,651603.400,202050.300,229078.900,369884.200,229979.300,0.000
194384.200,199829.700,355252.900,649245.900,202598.300,229592.800,370426.200,230543.400,0.000
194778.300,200098.000,354776.200,646854.500,203035.900,230050.800,370963.500,231041.100,0.000
194399.000,199797.400,353628.700,643687.600,202755.500,229810.800,370739.700,230772.800,0.000
193779.600,199350.500,352200.600,640136.900,202144.700,229199.800,370052.900,230104.800,0.000
193748.200,199345.300,351267.900,637153.600,202022.400,229035.300,369819.800,229931.900,0.000
194370.400,199806.800,350987.000,634999.100,202574.600,229556.900,370366.100,230501.000,0.000
194777.300,200087.700,350608.400,632814.100,203027.500,230028.800,370916.300,231008.800,0.000
194399.300,199784.600,349542.500,629834.100,202749.900,229787.000,370692.900,230738.000,0.000
193757.100,199311.000,348179.600,626453.300,202125.800,229162.600,369993.700,230055.200,0.000
193727.100,199311.200,347331.400,623652.400,202006.000,228999.800,369762.700,229883.100,0.000
194349.000,199780.900,347133.000,621678.100,202560.100,229520.100,370314.700,230456.200,0.000
194754.200,200064.500,346829.300,619668.400,203015.500,229991.600,370867.100,230965.100,0.000
194390.300,199777.100,345849.800,616874.500,202749.800,229764.000,370655.300,230708.700,0.000
193760.200,199315.300,344566.800,613669.300,202132.600,229145.500,369961.700,230035.000,0.000
193719.100,199304.800,343782.400,611033.500,202008.600,228976.800,369725.300,229859.300,0.000
194317.900,199752.500,343635.100,609208.600,202544.200,229481.400,370259.600,230416.400,0.000
194715.300,200029.000,343393.300,607354.100,202986.400,229943.900,370803.700,230920.100,0.000
194354.300,199747.600,342484.100,604727.900,202722.500,229720.700,370598.700,230669.900,0.000
193734.300,199297.700,341278.300,601693.300,202114.200,229113.100,369920.400,230006.100,0.000
193695.700,199288.400,340557.100,599211.300,201987.500,228943.900,369684.300,229828.500,0.000
194310.200,199748.800,340479.000,597548.100,202529.800,229458.200,370224.800,230393.100,0.000
194715.100,200031.900,340303.300,595855.200,202979.200,229931.800,370776.900,230904.800,0.000
194351.900,199747.400,339449.600,593376.300,202716.700,229709.600,370569.200,230652.700,0.000
193718.800,199286.500,338287.800,590479.100,202100.000,229093.400,369879.200,229981.000,0.000
193674.200,199272.000,337616.100,588134.000,201965.300,228916.800,369638.900,229797.000,0.000
194292.200,199735.500,337594.300,586614.900,202512.500,229433.300,370184.100,230363.000,0.000
194693.600,200011.400,337465.700,585055.600,202960.400,229905.000,370730.200,230869.000,0.000
194333.500,199725.300,336664.900,582716.100,202700.100,229686.000,370525.500,230620.000,0.000
193705.700,199268.100,335556.100,579957.900,202087.100,229076.500,369841.000,229953.100,0.000
193660.300,199257.000,334930.600,577746.900,201957.900,228905.500,369601.400,229773.800,0.000
194281.700,199725.700,334959.300,576365.300,202512.500,229429.800,370153.300,230347.200,0.000
194695.000,200014.300,334887.500,574945.800,202972.000,229909.500,370713.400,230864.600,0.000
194329.700,199721.000,334126.800,572725.400,202705.200,229681.000,370503.600,230607.600,0.000
193698.300,199256.300,333058.900,570089.400,202089.100,229068.400,369816.700,229938.300,0.000
193656.500,199245.300,332479.700,567999.700,201960.400,228896.500,369577.000,229757.500,0.000
194267.800,199703.700,332543.600,566728.100,202501.900,229405.300,370114.800,230318.900,0.000
194672.300,199982.900,332505.400,565422.600,202952.300,229877.100,370666.900,230830.200,0.000
194316.800,199700.600,331794.100,563333.800,202693.800,229660.400,370469.300,230587.600,0.000
193674.600,199227.100,330753.000,560800.900,202067.800,229035.400,369770.500,229910.400,0.000
193628.100,199214.800,330210.800,558826.300,201937.700,228863.200,369530.700,229732.000,0.000
194249.300,199685.200,330321.200,557674.700,202485.000,229384.600,370077.900,230304.900,0.000
194675.300,199985.400,330337.800,556493.900,202950.300,229873.000,370646.800,230832.700,0.000
194322.500,199707.100,329663.900,554512.000,202695.600,229659.600,370452.300,230591.500,0.000
193685.700,199242.400,328665.700,552090.300,202076.400,229042.500,369761.200,229916.800,0.000
193636.200,199225.000,328154.800,550213.600,201942.800,228868.500,369518.600,229735.200,0.000
194245.500,199680.500,328286.600,549150.900,202482.000,229377.500,370056.500,230297.100,0.000
194664.900,199972.200,328330.600,548067.800,202943.200,229859.500,370621.300,230819.700,0.000
194321.100,199699.800,327695.000,546195.600,202694.700,229651.100,370435.600,230586.900,0.000
193679.600,199230.400,326721.500,543864.100,202066.600,229022.900,369736.000,229904.800,0.000
193626.700,199211.400,326236.500,542081.300,201928.600,228842.500,369487.600,229717.700,0.000
194234.000,199668.200,326398.300,541117.900,202466.900,229352.000,370026.100,230281.900,0.000
194649.200,199954.600,326465.700,540122.800,202922.100,229828.000,370584.300,230800.700,0.000
194303.800,199684.100,325859.700,538341.500,202674.900,229620.200,370396.400,230569.000,0.000
193675.100,199225.500,324926.300,536118.600,202060.500,229009.300,369715.500,229904.300,0.000
193617.300,199199.900,324458.600,534417.000,201912.600,228821.600,369459.000,229709.300,0.000
194228.900,199660.400,324645.800,533538.500,202454.000,229332.000,369992.100,230268.900,0.000
194661.300,199965.200,324758.300,532652.200,202930.400,229830.300,370568.100,230805.500,0.000
194311.900,199688.200,324177.500,530961.100,202681.400,229623.900,370382.400,230573.700,0.000
193683.300,199229.300,323270.700,528826.500,202067.200,229014.000,369702.200,229909.500,0.000
193629.400,199208.500,322839.100,527218.300,201925.200,228836.200,369456.500,229722.200,0.000
194230.600,199657.200,323044.900,526412.300,202454.800,229338.100,369983.300,230274.300,0.000
194644.200,199942.600,323164.700,525586.000,202913.600,229817.700,370542.200,230793.700,0.000
194300.400,199669.600,322606.800,523971.200,202664.000,229608.400,370350.600,230557.700,0.000
193663.000,199201.400,321717.000,521904.900,202042.800,228989.900,369659.500,229883.100,0.000
193602.600,199174.300,321298.500,520361.300,201893.100,228800.300,369399.200,229682.900,0.000
194216.800,199636.200,321536.900,519642.500,202435.900,229310.400,369936.000,230243.200,0.000
194644.400,199935.700,321686.600,518900.200,202905.000,229799.600,370506.700,230772.000,0.000
194308.500,199669.300,321160.300,517369.600,202666.300,229602.900,370328.900,230549.000,0.000
193678.400,199208.900,320297.800,515384.000,202054.100,228993.100,369647.600,229883.300,0.000
193622.000,199189.600,319901.900,513917.500,201910.300,228811.100,369395.800,229691.400,0.000
194230.400,199649.900,320151.600,513264.700,202443.700,229318.900,369926.100,230247.200,0.000
194657.200,199952.500,320323.700,512597.800,202913.700,229809.600,370497.100,230778.500,0.000
194318.400,199687.000,319817.400,511142.500,202674.300,229614.200,370323.300,230557.200,0.000
193676.800,199217.800,318965.300,509219.700,202051.600,228996.800,369636.700,229882.700,0.000
193610.400,199187.500,318582.000,507816.600,201899.900,228807.900,369376.800,229683.300,0.000
194210.700,199635.100,318845.000,507225.500,202428.800,229305.500,369898.200,230232.000,0.000
194639.900,199936.500,319033.900,506626.400,202899.000,229794.400,370468.300,230761.500,0.000
194304.300,199670.900,318544.100,505236.500,202663.200,229597.800,370294.900,230541.500,0.000
193663.700,199200.900,317706.700,503376.800,202041.900,228980.800,369604.300,229868.700,0.000
193592.800,199166.700,317330.700,502026.400,201882.600,228784.700,369336.300,229661.200,0.000
194199.600,199624.700,317616.900,501504.700,202419.300,229293.000,369868.600,230217.900,0.000
194622.800,199918.500,317821.800,500962.000,202888.000,229782.600,370436.600,230748.200,0.000
194291.000,199654.900,317347.200,499629.300,202648.500,229587.200,370260.800,230526.200,0.000
193652.700,199188.300,316526.700,497828.300,202026.300,228974.600,369573.300,229853.600,0.000
193592.800,199165.300,316179.400,496548.800,201880.600,228789.500,369316.800,229658.700,0.000
194197.400,199621.300,316472.900,496079.400,202412.800,229290.100,369841.600,230210.500,0.000
194623.700,199919.500,316691.000,495592.700,202882.700,229776.700,370409.900,230736.900,0.000
194291.800,199655.000,316238.600,494321.400,202652.500,229584.700,370242.600,230518.800,0.000
193661.300,199197.700,315442.700,492586.500,202040.000,228979.000,369568.800,229855.700,0.000
193595.000,199170.000,315104.100,491353.400,201884.600,228788.700,369309.800,229654.600,0.000
194202.300,199626.000,315413.500,490933.500,202415.300,229290.500,369835.700,230205.500,0.000
194639.500,199933.800,315654.200,490508.800,202893.300,229788.300,370414.400,230744.800,0.000
194309.500,199673.700,315216.400,489289.700,202661.100,229599.400,370249.900,230531.700,0.000
193669.000,199204.900,314425.000,487593.600,202042.200,228983.400,369564.500,229863.600,0.000
193614.300,199190.600,314109.100,486423.100,201900.900,228803.000,369314.100,229675.900,0.000
194218.600,199647.200,314429.300,486056.000,202428.000,229303.100,369838.300,230229.600,0.000
194647.300,199948.100,314675.800,485678.500,202901.200,229797.800,370414.100,230770.200,0.000
194320.400,199691.700,314253.600,484520.200,202677.500,229615.700,370255.700,230571.900,0.000
193676.000,199220.500,313468.900,482876.300,202055.100,228999.600,369571.600,229908.100,0.000
193601.800,199185.300,313148.000,481741.000,201897.400,228806.200,369307.300,229712.200,0.000
194197.600,199632.100,313473.200,481418.600,202421.100,229302.600,369828.200,230270.000,0.000
194629.900,199932.200,313732.400,481094.000,202894.300,229796.700,370409.400,230818.300,0.000
194294.700,199666.100,313312.300,479975.200,202661.000,229606.800,370248.200,230613.300,0.000
193650.300,199193.900,312539.600,478378.800,202039.300,228992.300,369566.700,229952.300,0.000
193573.700,199158.300,312225.400,477285.100,201879.700,228794.200,369300.800,229752.100,0.000
194179.500,199616.900,312569.400,477011.000,202409.500,229295.700,369828.800,230310.200,0.000
194618.800,199922.200,312849.600,476742.000,202892.600,229799.900,370417.400,230864.300,0.000
194297.600,199665.800,312450.000,475680.800,202671.100,229619.500,370264.600,230667.600,0.000
193656.200,199199.600,311690.400,474129.800,202054.700,229007.000,369587.700,230006.700,0.000
193577.100,199163.700,311386.500,473074.100,201892.600,228806.200,369319.200,229797.800,0.000
194179.100,199615.600,311736.200,472837.000,202418.800,229301.000,369841.200,230349.300,0.000
194618.700,199914.700,312020.300,472607.700,202897.000,229797.900,370427.300,230903.900,0.000
194297.200,199651.800,311629.700,471596.000,202677.000,229616.700,370281.800,230720.900,0.000
193664.500,199193.200,310887.000,470088.900,202065.200,229011.300,369610.800,230061.900,0.000
193578.300,199156.000,310583.300,469047.500,201887.900,228800.500,369325.700,229822.500,0.000
194163.600,199599.500,310926.800,468823.800,202394.900,229278.800,369824.100,230339.600,0.000
194613.900,199913.300,311228.000,468641.500,202885.000,229782.100,370415.400,230900.100,0.000
194305.900,199661.400,310854.200,467676.600,202675.600,229607.300,370274.700,230724.700,0.000
193663.900,199195.900,310113.600,466198.100,202057.100,228994.500,369594.300,230052.900,0.000
193563.100,199149.300,309811.500,465181.800,201871.100,228776.200,369296.200,229799.500,0.000
194156.000,199600.500,310169.700,464998.500,202386.200,229263.100,369799.100,230322.600,0.000
194605.700,199910.100,310473.500,464845.600,202874.300,229763.300,370386.700,230877.500,0.000
194296.100,199658.900,310107.600,463914.400,202666.000,229590.800,370246.500,230700.800,0.000
193648.500,199187.000,309369.400,462464.400,202041.800,228973.900,369557.900,230023.500,0.000
193546.500,199141.500,309072.000,461476.500,201854.000,228754.100,369257.800,229765.100,0.000
194138.200,199593.400,309438.500,461320.700,202368.100,229241.300,369758.600,230284.500,0.000
194593.600,199906.900,309761.700,461213.600,202865.100,229752.500,370354.600,230852.300,0.000
194289.400,199655.100,309408.900,460328.100,202663.200,229585.100,370221.800,230687.600,0.000
193645.300,199180.500,308681.300,458917.700,202044.700,228971.400,369541.100,230021.500,0.000
193552.300,199139.800,308397.000,457972.300,201865.400,228756.300,369248.500,229775.300,0.000
194145.300,199589.400,308770.200,457855.800,202383.700,229241.700,369755.100,230299.300,0.000
194612.500,199914.300,309101.500,457787.500,202886.900,229757.400,370361.400,230871.600,0.000
194305.300,199658.800,308751.500,456932.300,202684.400,229588.500,370231.300,230704.300,0.000
193659.200,199184.300,308027.900,455555.900,202062.000,228973.200,369549.500,230033.400,0.000
193557.200,199138.800,307745.600,454638.600,201877.100,228753.200,369251.000,229779.700,0.000
194150.700,199591.300,308125.400,454554.600,202392.100,229238.500,369754.100,230301.300,0.000
194609.700,199906.000,308462.300,454515.900,202887.800,229749.400,370352.800,230868.900,0.000
194308.500,199656.700,308124.400,453693.700,202685.200,229583.600,370222.200,230704.300,0.000
193660.900,199180.900,307403.000,452339.700,202059.000,228965.700,369536.800,230027.900,0.000
193549.900,199127.200,307115.000,451443.000,201864.100,228737.800,369232.800,229765.700,0.000
194136.900,199578.700,307495.700,451380.300,202374.600,229216.500,369732.400,230279.400,0.000
194604.200,199903.400,307849.400,451378.000,202882.000,229736.900,370343.500,230856.300,0.000
194312.900,199659.900,307533.300,450598.100,202695.400,229589.200,370230.700,230705.100,0.000
193663.900,199182.100,306819.600,449267.700,202069.100,228972.100,369543.100,230025.100,0.000
193573.500,199147.300,306553.200,448404.100,201887.000,228757.700,369245.200,229770.700,0.000
194166.600,199598.900,306943.400,448369.200,202399.400,229243.300,369744.900,230289.400,0.000
194624.500,199916.400,307288.800,448380.100,202893.800,229752.800,370341.200,230852.700,0.000
194326.400,199672.100,306966.300,447617.100,202697.800,229592.700,370218.100,230689.800,0.000
193678.900,199200.200,306259.700,446316.400,202075.300,228977.900,369533.300,230014.500,0.000
193566.200,199142.100,305984.400,445466.500,201877.000,228749.600,369221.700,229749.700,0.000
194151.500,199585.600,306372.000,445450.300,202379.200,229224.700,369710.200,230259.300,0.000
194615.800,199905.700,306730.300,445497.700,202881.500,229740.000,370313.800,230833.400,0.000
194320.500,199659.900,306417.400,444764.500,202687.800,229581.300,370192.300,230676.600,0.000
193668.100,199180.900,305710.100,443485.900,202059.600,228960.300,369503.200,229999.000,0.000
193556.800,199127.600,305437.800,442661.200,201864.300,228731.900,369192.500,229734.000,0.000
194140.100,199576.900,305832.500,442670.900,202373.700,229213.000,369686.800,230250.600,0.000
194604.100,199901.200,306196.100,442738.600,202880.400,229731.100,370291.400,230828.400,0.000
194319.500,199670.000,305897.800,442038.100,202698.900,229584.500,370182.000,230686.200,0.000
193666.400,199191.700,305199.100,440789.000,202072.800,228968.200,369500.600,230015.400,0.000
193551.100,199133.800,304926.200,439981.500,201867.500,228731.500,369184.200,229743.200,0.000
194135.300,199575.000,305320.000,440007.900,202369.000,229203.400,369671.800,230251.700,0.000
194600.900,199895.800,305684.900,440096.600,202869.700,229716.800,370272.100,230823.300,0.000
194310.100,199655.200,305383.300,439409.600,202680.400,229564.000,370156.300,230671.700,0.000
193668.800,199184.500,304696.400,438187.000,202065.100,228957.700,369484.700,230006.400,0.000
193555.900,199128.000,304431.800,437402.800,201867.300,228726.500,369173.800,229740.300,0.000
194144.800,199576.000,304835.200,437457.100,202378.500,229208.600,369669.300,230256.800,0.000
194621.000,199908.700,305218.600,437584.700,202898.000,229742.200,370290.000,230848.200,0.000
194333.000,199669.100,304926.300,436928.200,202711.900,229596.400,370182.900,230705.200,0.000
193691.100,199198.200,304241.900,435727.500,202090.000,228987.600,369510.500,230040.000,0.000
193579.900,199144.600,303982.700,434967.500,201892.400,228759.000,369205.500,229774.900,0.000
194160.000,199587.600,304385.700,435032.600,202398.100,229235.400,369696.600,230285.000,0.000
194634.700,199918.500,304771.800,435174.800,202914.200,229762.400,370314.300,230872.200,0.000
194345.100,199676.500,304481.000,434537.500,202732.800,229617.300,370211.200,230728.800,0.000
193689.900,199197.100,303793.400,433350.800,202112.000,229004.300,369536.000,230059.400,0.000
193569.400,199139.100,303532.000,432604.200,201909.000,228768.800,369222.700,229788.000,0.000
194146.700,199581.200,303939.400,432692.500,202411.600,229242.500,369716.800,230297.500,0.000
194615.000,199903.500,304324.300,432849.300,202918.900,229763.000,370329.700,230875.700,0.000
194336.800,199670.400,304048.200,432240.800,202742.700,229624.200,370232.000,230738.000,0.000
193694.700,199200.900,303376.500,431081.500,202129.200,229019.400,369564.800,230077.400,0.000
193569.500,199133.100,303114.100,430344.900,201923.300,228780.800,369245.800,229799.000,0.000
194149.600,199575.500,303520.000,430443.100,202422.400,229251.700,369730.500,230299.500,0.000
194623.400,199905.600,303911.900,430624.200,202932.100,229776.900,370345.300,230883.800,0.000
194343.500,199672.300,303639.300,430035.300,202754.600,229637.600,370249.000,230746.900,0.000
193695.900,199197.200,302960.800,428886.600,202133.300,229026.100,369575.700,230076.400,0.000
193562.700,199125.000,302690.900,428159.600,201914.600,228776.700,369247.300,229788.500,0.000
194133.400,199557.800,303098.400,428274.800,202408.800,229243.600,369729.900,230289.500,0.000
194613.100,199892.800,303498.200,428474.800,202921.500,229770.800,370346.600,230875.700,0.000
194334.600,199659.000,303223.600,427894.700,202740.300,229626.400,370243.500,230732.700,0.000
193684.700,199179.000,302547.300,426758.900,202118.700,229012.100,369565.500,230061.100,0.000
193555.500,199110.100,302288.800,426052.500,201906.000,228767.300,369242.400,229779.400,0.000
194139.300,199560.200,302703.100,426186.900,202401.800,229235.600,369725.800,230282.300,0.000
194620.400,199900.300,303106.100,426405.700,202915.500,229766.300,370343.200,230871.100,0.000
194341.400,199670.500,302840.000,425849.100,202741.200,229631.400,370246.500,230737.000,0.000
193687.800,199191.800,302164.100,424722.900,202114.400,229013.600,369563.600,230059.600,0.000
193558.200,199124.200,301904.600,424023.200,201896.600,228764.800,369232.200,229770.900,0.000
194135.000,199566.000,302320.900,424168.300,202393.600,229234.600,369712.100,230270.800,0.000
194611.500,199898.000,302725.000,424397.600,202906.800,229762.100,370325.300,230854.500,0.000
194335.200,199666.400,302462.100,423857.600,202730.900,229625.600,370227.500,230718.200,0.000
193698.400,199202.300,301805.700,422769.200,202119.500,229025.800,369564.100,230059.600,0.000
193583.200,199150.800,301567.000,422106.300,201922.000,228796.000,369252.300,229788.300,0.000
194153.000,199584.500,301978.300,422261.600,202411.700,229258.500,369726.500,230280.900,0.000
194630.800,199915.300,302385.200,422505.900,202923.700,229783.400,370342.700,230865.000,0.000
194360.000,199690.200,302130.600,421986.500,202756.700,229650.600,370255.000,230736.800,0.000
193704.100,199208.000,301457.600,420892.700,202131.100,229032.300,369574.200,230061.900,0.000
193568.700,199137.400,301201.900,420225.000,201913.400,228785.800,369247.500,229773.700,0.000
194143.600,199576.000,301619.800,420396.900,202411.100,229256.500,369729.000,230271.900,0.000
194630.300,199914.000,302034.800,420660.300,202932.500,229792.700,370351.300,230863.400,0.000
194352.400,199681.600,301773.300,420144.000,202754.100,229652.700,370253.200,230724.700,0.000
193703.400,199208.400,301106.700,419070.500,202129.600,229041.400,369577.300,230053.400,0.000
193562.000,199130.200,300842.100,418405.600,201902.800,228783.000,369238.100,229755.900,0.000
194134.100,199567.700,301257.800,418586.800,202394.300,229246.000,369712.500,230249.100,0.000
194624.600,199913.900,301676.900,418866.600,202917.500,229784.500,370337.400,230843.700,0.000
194350.200,199681.200,301428.100,418374.700,202749.400,229654.900,370247.800,230718.100,0.000
193692.000,199198.100,300760.400,417307.900,202122.200,229039.400,369567.700,230044.300,0.000
193556.800,199127.500,300508.100,416662.700,201904.300,228793.200,369238.200,229755.200,0.000
194133.500,199566.400,300932.800,416858.400,202399.800,229260.500,369714.900,230251.900,0.000
194618.100,199902.900,301351.300,417148.000,202920.500,229793.000,370335.300,230844.600,0.000
194341.500,199668.500,301099.800,416666.200,202751.000,229660.400,370244.500,230713.400,0.000
193693.500,199193.100,300442.300,415618.700,202131.400,229048.300,369573.200,230043.800,0.000
193557.400,199121.700,300189.700,414982.600,201908.300,228795.900,369242.000,229753.000,0.000
194127.900,199555.900,300609.100,415186.200,202397.500,229255.700,369716.100,230245.900,0.000
194621.900,199902.200,301040.100,415497.900,202928.500,229797.800,370347.300,230847.100,0.000
194365.400,199689.800,300807.000,415044.300,202774.800,229682.900,370273.400,230732.700,0.000
193716.600,199214.200,300153.700,414014.400,202159.600,229080.500,369607.900,230072.200,0.000
193585.700,199151.800,299911.100,413399.800,201946.300,228837.500,369285.700,229788.200,0.000
194146.500,199579.500,300329.100,413611.000,202431.000,229293.700,369758.200,230276.900,0.000
194622.500,199909.500,300743.700,413916.400,202939.300,229817.400,370370.800,230859.400,0.000
194359.300,199686.500,300505.700,413467.600,202775.800,229693.300,370290.600,230737.200,0.000
193705.200,199203.300,299846.000,412439.000,202150.800,229078.400,369615.800,230065.500,0.000
193566.700,199131.500,299598.300,411828.300,201929.300,228828.900,369285.500,229776.800,0.000
194144.400,199577.500,300030.400,412062.700,202420.700,229297.000,369765.400,230276.400,0.000
194635.700,199918.700,300462.900,412394.400,202941.500,229834.000,370392.400,230873.000,0.000
194369.300,199692.200,300229.900,411957.700,202780.400,229710.600,370313.700,230753.600,0.000
193713.000,199208.400,299574.500,410942.300,202158.900,229097.700,369642.500,230087.600,0.000
193576.300,199141.400,299327.300,410339.900,201938.700,228844.300,369311.400,229798.100,0.000
194145.100,199577.600,299749.400,410569.700,202424.200,229299.100,369777.900,230284.100,0.000
194631.800,199917.600,300178.700,410904.800,202944.000,229833.300,370398.100,230875.700,0.000
194358.300,199686.700,299940.100,410471.000,202778.700,229705.000,370313.200,230751.100,0.000
193708.200,199212.700,299290.600,409468.700,202162.400,229097.600,369644.500,230086.600,0.000
193572.500,199145.400,299048.800,408881.500,201945.700,228850.800,369316.800,229801.500,0.000
194138.800,199578.600,299475.300,409124.900,202433.100,229310.000,369788.300,230293.100,0.000
194628.700,199920.200,299910.400,409476.900,202958.400,229850.000,370418.800,230892.500,0.000
194370.300,199704.200,299686.500,409068.700,202807.700,229738.000,370350.200,230782.200,0.000
193727.000,199235.100,299043.500,408085.000,202194.000,229137.800,369690.500,230126.100,0.000
193576.700,199154.100,298790.000,407496.000,201960.600,228878.100,369354.900,229830.800,0.000
194137.100,199586.000,299213.500,407743.900,202441.400,229330.500,369824.800,230317.000,0.000
194617.500,199915.000,299641.300,408093.000,202957.900,229856.100,370444.300,230902.700,0.000
194356.800,199688.300,299416.400,407690.400,202803.100,229736.700,370373.000,230789.200,0.000
193706.100,199207.300,298766.500,406703.800,202179.200,229124.400,369702.900,230121.600,0.000
193560.300,199127.800,298517.500,406120.800,201950.300,228863.500,369362.500,229824.800,0.000
194130.400,199566.300,298942.900,406375.800,202433.500,229316.500,369827.400,230312.200,0.000
194623.500,199912.300,299379.800,406744.300,202954.800,229848.700,370450.200,230907.500,0.000
194367.300,199694.900,299160.600,406356.400,202801.200,229734.500,370381.000,230798.700,0.000
193710.900,199212.200,298511.100,405380.900,202176.600,229124.900,369711.900,230132.000,0.000
193558.900,199126.000,298256.300,404803.300,201941.700,228860.900,369369.800,229828.500,0.000
194132.200,199566.600,298689.300,405076.500,202432.400,229321.800,369841.600,230320.100,0.000
194631.900,199920.800,299136.400,405461.700,202966.200,229868.600,370475.500,230924.600,0.000
194377.800,199706.600,298918.800,405082.100,202812.100,229755.100,370406.700,230812.600,0.000
193724.600,199225.800,298274.800,404117.700,202193.100,229149.500,369740.900,230148.300,0.000
193571.600,199139.800,298021.900,403546.600,201959.000,228885.100,369398.000,229845.000,0.000
194132.900,199570.300,298442.600,403809.000,202435.100,229328.400,369853.100,230320.300,0.000
194624.300,199911.000,298882.300,404189.000,202959.000,229862.100,370471.400,230912.000,0.000
194372.600,199695.300,298666.400,403817.600,202809.500,229749.400,370400.800,230803.300,0.000
193722.300,199216.500,298025.100,402864.000,202193.400,229145.600,369736.600,230145.100,0.000
193562.000,199126.300,297770.200,402300.000,201956.800,228880.800,369391.000,229840.900,0.000
194130.500,199563.400,298200.700,402583.600,202443.700,229337.700,369857.700,230329.400,0.000
194636.400,199924.200,298651.000,402985.200,202979.500,229884.000,370489.000,230932.900,0.000
194384.300,199712.800,298439.200,402624.500,202831.300,229775.300,370421.900,230825.300,0.000
193728.800,199232.800,297796.600,401673.800,202212.800,229168.300,369754.600,230162.200,0.000
193567.700,199140.100,297542.200,401114.500,201975.600,228898.300,369403.700,229853.800,0.000
194127.000,199568.500,297967.600,401399.600,202453.200,229346.200,369863.300,230331.800,0.000
194614.100,199905.200,298406.600,401798.900,202974.200,229880.100,370487.500,230922.900,0.000
194371.900,199702.500,298207.200,401454.400,202832.800,229774.300,370432.300,230821.500,0.000
193722.400,199229.900,297574.700,400520.600,202218.500,229172.500,369776.300,230162.000,0.000
193562.000,199137.600,297322.300,399969.400,201977.900,228902.500,369430.300,229854.200,0.000
194116.300,199557.500,297744.000,400250.100,202447.200,229340.600,369881.400,230325.300,0.000
194614.900,199903.800,298193.800,400659.200,202972.400,229876.800,370506.800,230918.200,0.000
194371.800,199694.200,297993.900,400321.200,202831.600,229772.700,370449.600,230817.500,0.000
193717.600,199214.400,297356.300,399386.700,202212.800,229167.600,369784.600,230157.400,0.000
193556.200,199122.000,297100.100,398835.200,201970.300,228895.500,369429.500,229847.100,0.000
194112.900,199547.800,297523.400,399124.800,202441.900,229336.900,369878.300,230321.600,0.000
194621.000,199908.100,297986.400,399557.000,202982.500,229889.400,370516.800,230933.400,0.000
194386.200,199710.400,297795.100,399238.000,202852.800,229797.900,370471.300,230849.500,0.000
193738.500,199232.800,297161.600,398320.500,202243.000,229199.100,369816.600,230202.200,0.000
193574.200,199141.800,296904.200,397781.600,202001.100,228927.700,369468.200,229900.100,0.000
194131.900,199573.200,297330.000,398082.300,202475.800,229374.400,369925.800,230385.300,0.000
194629.300,199922.400,297781.400,398504.100,203004.000,229914.900,370555.900,230991.200,0.000
194382.300,199712.500,297580.100,398181.100,202859.600,229811.500,370502.700,230899.500,0.000
193730.400,199233.700,296946.000,397269.000,202244.300,229212.200,369849.100,230253.400,0.000
193563.800,199137.700,296692.900,396732.700,202001.800,228941.000,369500.600,229951.500,0.000
194113.100,199560.000,297117.600,397034.400,202472.400,229381.200,369954.800,230428.300,0.000
194609.300,199909.000,297570.500,397465.300,203002.300,229923.400,370586.500,231031.900,0.000
194369.300,199703.300,297374.600,397149.800,202865.700,229822.100,370535.300,230943.700,0.000
193711.000,199219.900,296735.400,396231.000,202245.800,229212.300,369871.200,230285.200,0.000
193545.200,199127.800,296480.600,395697.100,202001.000,228937.700,369518.500,229975.900,0.000
194108.100,199565.200,296918.000,396014.700,202479.700,229387.600,369981.400,230461.400,0.000
194615.700,199922.800,297383.600,396462.100,203017.500,229935.900,370620.900,231071.600,0.000
194374.000,199718.300,297190.000,396153.900,202879.500,229835.700,370571.500,230978.600,0.000
193714.600,199230.600,296549.200,395238.400,202254.900,229224.400,369905.800,230313.800,0.000
193539.300,199127.000,296285.300,394698.600,201999.200,228938.300,369540.900,229991.900,0.000
194092.000,199552.900,296710.100,395007.000,202467.300,229375.300,369987.400,230459.900,0.000
194599.800,199908.000,297172.800,395452.600,203000.100,229917.800,370616.100,231059.900,0.000
194369.700,199707.800,296988.000,395156.300,202866.800,229822.400,370568.600,230971.200,0.000
193721.800,199229.800,296360.400,394259.400,202252.000,229219.800,369911.100,230316.700,0.000
193549.800,199132.100,296098.800,393730.100,201999.000,228935.400,369548.500,229995.500,0.000
194091.300,199546.000,296509.700,394031.200,202452.500,229357.700,369980.300,230446.400,0.000
194602.700,199903.800,296975.900,394483.600,202986.700,229901.000,370612.600,231046.700,0.000
194377.000,199709.200,296801.400,394200.900,202862.200,229813.900,370574.800,230963.600,0.000
193721.500,199224.100,296170.400,393306.200,202242.800,229205.000,369910.900,230300.200,0.000
193542.300,199119.100,295910.200,392781.300,201988.500,228918.000,369546.100,229975.000,0.000
194099.100,199551.600,296340.400,393105.200,202460.400,229356.300,369992.800,230442.400,0.000
194611.200,199914.100,296808.600,393568.100,202999.500,229904.500,370629.700,231045.900,0.000
194382.500,199716.300,296632.300,393289.300,202877.200,229816.400,370591.300,230961.800,0.000
193727.900,199234.300,296001.800,392402.000,202261.800,229212.100,369932.000,230300.400,0.000
193542.300,199120.800,295732.400,391873.800,201999.500,228920.700,369561.100,229967.500,0.000
194090.800,199542.600,296153.600,392190.500,202459.300,229350.500,369999.900,230425.400,0.000
194613.000,199912.600,296631.400,392667.300,203004.300,229906.900,370643.900,231037.200,0.000
194391.600,199720.600,296461.400,392403.500,202884.500,229826.600,370615.000,230961.800,0.000
193735.000,199235.700,295831.000,391518.400,202266.500,229222.300,369954.800,230301.700,0.000
193545.600,199119.500,295556.300,390985.100,201993.000,228921.300,369570.500,229959.300,0.000
194090.300,199535.200,295971.300,391299.300,202443.900,229341.300,369998.300,230407.400,0.000
194608.200,199902.900,296445.900,391775.100,202985.200,229893.200,370636.600,231014.200,0.000
194384.700,199711.400,296270.400,391512.800,202863.700,229810.400,370600.500,230934.600,0.000
193735.200,199235.500,295645.100,390641.300,202254.800,229211.000,369946.300,230281.900,0.000
193549.000,199125.200,295379.700,390123.200,201993.600,228919.200,369572.000,229949.600,0.000
194091.000,199541.400,295804.600,390448.200,202454.300,229348.800,370002.900,230403.400,0.000
194604.700,199905.400,296277.800,390928.800,202998.000,229900.100,370635.300,231006.400,0.000
194377.800,199709.200,296102.300,390667.900,202877.100,229811.600,370593.100,230921.800,0.000
193718.600,199220.000,295470.100,389789.100,202259.400,229202.200,369929.700,230258.200,0.000
193540.300,199117.700,295209.400,389275.100,202004.000,228912.200,369559.200,229928.300,0.000
194086.400,199542.500,295632.900,389605.300,202463.000,229338.000,369991.800,230381.300,0.000
194601.400,199903.500,296109.900,390090.600,203005.600,229888.800,370629.700,230986.500,0.000
194394.400,199722.500,295953.100,389854.000,202898.100,229821.300,370612.800,230923.000,0.000
193736.100,199236.200,295321.000,388983.900,202274.900,229214.500,369953.200,230262.600,0.000
193537.000,199117.300,295042.900,388458.900,201996.400,228908.300,369566.700,229915.500,0.000
194069.100,199521.900,295449.300,388774.300,202438.100,229319.200,369982.000,230351.500,0.000
194597.500,199894.200,295932.300,389268.300,202986.200,229877.400,370621.200,230961.800,0.000
194387.900,199717.100,295772.700,389030.700,202875.900,229804.900,370593.200,230892.000,0.000
193745.200,199251.200,295166.000,388187.100,202278.200,229222.300,369950.500,230252.800,0.000
193558.300,199144.100,294901.200,387676.600,202012.500,228927.700,369571.000,229915.700,0.000
194091.900,199551.300,295315.600,387999.100,202460.800,229343.100,369988.300,230356.300,0.000
194605.600,199910.100,295792.400,388488.400,203000.900,229893.300,370619.800,230958.400,0.000
194396.500,199729.400,295630.300,388255.000,202887.800,229820.400,370593.200,230889.800,0.000
193752.500,199255.200,295013.900,387409.800,202280.300,229227.300,369948.000,230245.200,0.000
193560.500,199138.900,294745.700,386901.400,202012.300,228930.400,369568.200,229908.100,0.000
194092.000,199547.500,295155.300,387227.400,202456.500,229344.400,369984.300,230346.700,0.000
194600.800,199904.700,295620.700,387716.300,202988.500,229887.700,370612.100,230946.900,0.000
194392.100,199724.600,295463.300,387494.400,202883.500,229821.700,370595.700,230888.400,0.000
193739.700,199241.000,294842.900,386649.200,202276.200,229226.800,369948.700,230242.100,0.000
193549.000,199128.900,294574.600,386142.300,202007.600,228925.100,369570.900,229903.100,0.000
194086.300,199539.700,294991.300,386475.100,202455.900,229338.200,369993.700,230345.600,0.000
194608.400,199906.700,295473.900,386980.300,202999.500,229892.000,370635.200,230955.500,0.000
194408.500,199734.900,295330.600,386771.400,202903.300,229832.700,370629.000,230904.300,0.000
193744.600,199245.700,294704.700,385916.900,202282.200,229223.900,369972.000,230246.500,0.000
193533.600,199115.300,294424.300,385400.200,201998.800,228912.600,369580.300,229895.000,0.000
194069.000,199527.000,294835.300,385728.100,202439.100,229322.700,369990.800,230330.600,0.000
194599.900,199907.000,295327.700,386244.300,202991.800,229884.000,370633.900,230946.700,0.000
194400.900,199735.800,295185.000,386038.900,202896.700,229826.700,370623.900,230894.500,0.000
193746.800,199251.000,294564.800,385195.000,202283.700,229227.300,369970.800,230240.700,0.000
193538.300,199121.000,294278.900,384675.200,201996.600,228910.900,369569.400,229881.500,0.000
194066.300,199526.900,294690.500,385003.800,202434.400,229322.700,369979.400,230313.800,0.000
194587.200,199895.300,295174.300,385512.200,202976.100,229874.600,370614.400,230919.200,0.000
194388.600,199722.500,295030.300,385308.700,202878.500,229812.500,370600.700,230861.700,0.000
193737.100,199241.300,294413.400,384472.800,202268.900,229216.300,369949.400,230213.500,0.000
193537.900,199118.600,294139.200,383968.100,201991.800,228909.400,369557.300,229864.300,0.000
194080.300,199538.000,294560.700,384313.100,202442.700,229330.600,369977.200,230307.900,0.000
194604.500,199909.800,295047.900,384833.200,202992.200,229890.700,370617.300,230920.400,0.000
194391.500,199725.900,294892.700,384626.800,202883.800,229822.300,370596.800,230855.400,0.000
193745.900,199250.400,294279.300,383803.800,202278.100,229230.200,369955.200,230211.700,0.000
193530.400,199116.500,293995.900,383294.500,201990.600,228912.700,369559.700,229854.500,0.000
194061.300,199529.700,294410.400,383636.800,202433.200,229325.300,369975.900,230290.000,0.000
194601.700,199917.000,294911.900,384173.800,202992.900,229896.100,370633.300,230915.100,0.000
194394.700,199733.500,294759.700,383970.600,202885.700,229827.700,370617.300,230852.900,0.000
193741.200,199249.800,294141.600,383142.500,202274.500,229231.500,369970.600,230204.300,0.000
193542.100,199131.500,293867.000,382646.300,201996.600,228925.400,369586.700,229858.800,0.000
194079.700,199545.100,294284.500,382989.900,202441.300,229332.800,370002.300,230295.800,0.000
194600.000,199909.600,294766.600,383503.000,202977.300,229875.500,370631.000,230896.700,0.000
194393.400,199732.900,294617.700,383304.900,202872.700,229813.000,370617.600,230838.200,0.000
193738.100,199249.800,293999.600,382476.000,202263.800,229220.100,369967.700,230189.900,0.000
193538.000,199128.200,293729.000,381978.300,201987.000,228915.500,369577.600,229841.600,0.000
194060.000,199530.500,294131.800,382307.500,202414.700,229312.000,369972.200,230258.700,0.000
194588.100,199902.800,294612.900,382822.700,202952.800,229855.600,370593.600,230855.200,0.000
194398.600,199735.300,294479.700,382639.900,202863.800,229804.500,370589.200,230809.600,0.000
193754.700,199259.800,293875.000,381823.200,202264.800,229221.100,369947.800,230169.900,0.000
193546.600,199135.400,293599.500,381325.500,201982.700,228913.800,369550.400,229815.300,0.000
194063.800,199529.700,293996.400,381648.500,202406.600,229305.800,369934.600,230226.000,0.000
194599.100,199906.400,294492.200,382177.800,202959.000,229865.000,370566.200,230834.100,0.000
194438.400,199761.700,294389.300,382027.900,202897.900,229841.600,370583.100,230814.100,0.000
193773.000,199265.000,293766.600,381196.900,202276.700,229238.300,369920.500,230156.300,0.000
193540.500,199114.500,293466.300,380676.000,201967.500,228907.200,369498.100,229774.900,0.000
194070.300,199526.200,293879.400,381019.600,202404.000,229310.800,369896.300,230198.000,0.000
194607.800,199913.500,294380.300,381562.300,202961.500,229875.900,370541.400,230813.600,0.000
194422.500,199751.700,294254.900,381394.400,202877.400,229830.100,370542.400,230773.000,0.000
193776.000,199279.600,293650.300,380589.800,202274.700,229246.000,369903.100,230133.700,0.000
193532.400,199123.100,293342.600,380072.900,201962.700,228910.100,369483.100,229753.200,0.000
194041.400,199521.300,293734.600,380405.200,202380.800,229299.300,369872.100,230165.000,0.000
194607.800,199933.400,294259.800,380984.100,202964.900,229890.700,370550.800,230815.300,0.000
194408.100,199754.200,294117.100,380807.800,202870.200,229827.400,370545.800,230765.900,0.000
193757.300,199277.800,293504.900,380001.000,202263.500,229234.000,369905.800,230124.900,0.000
193541.600,199144.500,293221.700,379508.800,201974.500,228916.500,369511.000,229769.800,0.000
194053.200,199529.800,293614.400,379839.500,202391.100,229301.100,369897.100,230180.200,0.000
194607.100,199921.900,294126.300,380393.000,202952.400,229873.400,370549.600,230805.300,0.000
194427.600,199762.600,294014.400,380243.700,202878.100,229841.300,370567.900,230780.500,0.000
193765.000,199269.000,293398.500,379431.700,202263.500,229242.100,369920.800,230133.400,0.000
193520.000,199102.200,293087.800,378900.900,201943.500,228886.600,369481.800,229739.600,0.000
194041.700,199504.300,293492.500,379236.100,202365.500,229273.400,369866.700,230150.400,0.000
194591.100,199900.100,294009.300,379794.100,202927.800,229848.000,370520.800,230778.600,0.000
194413.300,199742.700,293896.500,379640.900,202854.000,229811.400,370532.100,230751.500,0.000
193768.100,199265.300,293296.600,378846.100,202259.200,229230.800,369898.500,230120.000,0.000
193531.100,199109.500,292995.700,378329.500,201948.700,228890.300,369471.800,229737.100,0.000
194046.900,199508.600,293395.500,378660.800,202363.900,229270.300,369845.000,230139.700,0.000
194594.400,199897.600,293907.800,379218.700,202924.600,229836.600,370491.300,230761.500,0.000
194426.700,199750.100,293805.500,379085.900,202862.900,229814.300,370518.300,230748.200,0.000
193768.400,199263.000,293192.800,378286.400,202256.700,229227.300,369877.600,230110.400,0.000
193546.800,199128.000,292904.700,377794.300,201960.000,228905.600,369473.600,229749.400,0.000
194072.900,199539.500,293314.000,378150.400,202392.500,229305.000,369872.700,230173.800,0.000
194626.000,199933.400,293827.800,378718.700,202958.600,229879.700,370529.600,230802.400,0.000
194450.000,199774.700,293712.400,378576.800,202883.600,229844.300,370550.800,230776.500,0.000
193787.500,199281.900,293096.500,377776.000,202272.800,229249.200,369911.300,230131.200,0.000
193547.300,199126.900,292791.000,377269.400,201961.800,228909.200,369494.800,229752.600,0.000
194061.500,199524.500,293185.200,377611.600,202381.200,229297.700,369885.200,230165.100,0.000
194598.200,199903.400,293682.000,378165.700,202934.200,229858.600,370530.200,230780.900,0.000
194414.700,199741.500,293554.300,378017.500,202851.900,229816.100,370538.900,230746.100,0.000
193755.100,199252.200,292934.500,377218.400,202243.500,229223.500,369896.700,230102.500,0.000
193528.200,199114.600,292637.200,376727.300,201947.700,228902.700,369496.300,229739.500,0.000
194051.900,199522.800,293038.600,377079.000,202374.400,229298.300,369892.600,230159.800,0.000
194601.100,199912.300,293551.200,377652.100,202938.300,229872.700,370552.300,230791.000,0.000
194427.500,199754.500,293439.800,377517.400,202865.700,229840.900,370575.800,230769.500,0.000
193782.700,199280.900,292840.800,376734.300,202266.100,229261.000,369949.300,230140.200,0.000
193538.200,199121.500,292533.600,376224.600,201948.300,228919.100,369526.200,229756.500,0.000
194060.700,199527.000,292940.300,376575.800,202371.700,229316.000,369921.000,230174.600,0.000
194619.200,199924.400,293463.300,377150.800,202940.500,229895.800,370578.300,230809.600,0.000
194440.000,199761.800,293348.700,377010.900,202863.500,229856.200,370589.700,230780.300,0.000
193779.300,199275.600,292733.600,376212.800,202248.200,229261.000,369943.900,230130.100,0.000
193544.700,199128.200,292439.300,375715.800,201940.200,228930.100,369529.700,229755.700,0.000
194052.800,199521.800,292835.000,376055.900,202350.000,229309.700,369908.100,230159.100,0.000
194603.100,199912.900,293347.000,376622.300,202906.100,229871.000,370552.800,230778.100,0.000
194439.300,199761.100,293244.700,376497.400,202841.100,229843.100,370577.000,230760.000,0.000
193787.200,199278.300,292641.500,375711.800,202240.900,229259.800,369944.300,230124.300,0.000
193546.400,199127.500,292342.600,375208.300,201929.800,228924.600,369521.200,229742.800,0.000
194050.000,199514.300,292729.700,375540.100,202331.500,229297.700,369887.500,230135.300,0.000
194604.600,199908.100,293240.800,376111.200,202892.200,229865.600,370534.500,230758.400,0.000
194446.000,199766.500,293141.200,375998.000,202837.400,229846.900,370569.200,230751.500,0.000
193791.100,199283.800,292533.900,375215.000,202232.700,229259.000,369936.400,230115.100,0.000
193541.200,199124.100,292223.800,374709.700,201913.200,228912.800,369510.700,229727.000,0.000
194046.500,199517.700,292614.000,375053.300,202326.700,229290.500,369889.300,230125.300,0.000
194604.100,199913.200,293130.700,375633.300,202894.000,229861.900,370544.900,230750.200,0.000
194442.600,199767.500,293029.900,375518.400,202836.600,229838.700,370578.300,230738.000,0.000
193787.000,199280.700,292426.600,374741.000,202237.300,229253.300,369951.400,230105.900,0.000
193547.700,199132.400,292125.900,374244.100,201924.700,228912.600,369534.100,229727.800,0.000
194058.800,199530.000,292522.900,374592.800,202339.600,229296.500,369917.200,230135.100,0.000
194616.100,199925.900,293042.800,375176.700,202908.900,229871.100,370574.900,230769.500,0.000
194439.500,199759.000,292925.900,375040.800,202829.900,229822.500,370583.300,230738.000,0.000
193776.500,199261.000,292310.000,374247.000,202217.300,229222.300,369938.300,230092.000,0.000
193523.000,199096.700,291999.600,373740.800,201900.900,228877.800,369509.900,229707.200,0.000
194033.200,199497.600,292395.500,374088.800,202315.500,229261.300,369887.900,230114.600,0.000
194591.300,199899.100,292917.800,374676.300,202883.600,229837.700,370544.700,230752.100,0.000
194425.100,199744.800,292811.800,374555.300,202816.000,229804.000,370564.700,230736.300,0.000
193772.900,199264.600,292207.400,373780.300,202215.500,229221.700,369933.300,230107.900,0.000
193519.600,199105.700,291898.300,373283.000,201897.100,228881.600,369508.800,229731.800,0.000
194012.700,199485.600,292282.500,373622.100,202300.500,229252.700,369875.300,230131.800,0.000
194570.400,199881.900,292803.600,374209.900,202868.800,229827.400,370529.600,230766.800,0.000
194432.200,199758.300,292720.500,374120.700,202824.700,229820.600,370578.200,230777.600,0.000
193785.600,199280.000,292120.600,373358.600,202228.800,229245.400,369957.000,230159.000,0.000
193531.500,199116.100,291809.900,372860.600,201907.400,228899.700,369530.300,229778.800,0.000
194022.900,199490.800,292189.400,373196.700,202305.600,229260.700,369891.100,230172.400,0.000
194573.600,199880.300,292701.300,373779.100,202866.600,229824.100,370538.300,230801.200,0.000
194424.400,199742.900,292615.300,373691.400,202819.500,229816.900,370586.500,230811.200,0.000
193769.800,199257.300,292010.400,372920.800,202213.100,229228.800,369956.600,230181.400,0.000
193523.600,199103.800,291707.600,372429.200,201899.100,228887.100,369539.400,229802.900,0.000
194030.300,199497.400,292101.600,372782.700,202311.900,229264.400,369918.600,230206.900,0.000
194579.200,199883.800,292610.800,373370.100,202872.200,229828.200,370571.800,230833.100,0.000
194426.800,199741.600,292519.900,373277.800,202820.500,229809.500,370616.000,230832.600,0.000
193775.200,199260.200,291923.600,372516.500,202225.800,229229.000,369996.200,230210.300,0.000
193511.000,199083.300,291608.300,372008.800,201898.000,228872.600,369561.400,229814.600,0.000
194012.200,199473.800,291994.200,372348.200,202299.100,229237.200,369922.000,230200.700,0.000
194577.400,199878.400,292521.800,372943.900,202873.800,229815.100,370579.500,230833.500,0.000
194434.800,199746.300,292441.000,372857.200,202830.700,229808.800,370629.400,230839.400,0.000
193780.300,199259.100,291840.300,372089.500,202229.500,229226.100,370001.900,230208.500,0.000
193526.800,199097.000,291534.200,371590.500,201907.000,228878.800,369573.300,229817.900,0.000
194016.600,199472.400,291915.700,371922.900,202299.900,229236.900,369926.400,230199.200,0.000
194576.200,199866.100,292438.100,372512.600,202865.100,229806.200,370576.300,230825.000,0.000
194434.100,199733.700,292361.300,372428.300,202823.500,229798.300,370624.000,230828.700,0.000
193791.100,199259.500,291775.300,371674.200,202236.900,229226.700,370008.100,230208.100,0.000
193521.900,199087.700,291455.300,371163.100,201903.300,228868.400,369565.600,229804.000,0.000
194008.100,199464.800,291831.900,371495.800,202295.500,229227.500,369920.800,230183.500,0.000
194572.200,199864.800,292357.700,372094.200,202868.700,229805.500,370580.600,230816.400,0.000
194433.500,199737.300,292282.900,372018.700,202834.800,229805.400,370637.200,230826.800,0.000
193772.500,199245.100,291673.900,371245.900,202228.000,229210.000,370000.600,230185.500,0.000
193500.500,199065.900,291346.200,370726.300,201887.800,228837.700,369548.700,229774.300,0.000
193999.000,199455.300,291733.600,371066.100,202290.300,229204.600,369908.900,230162.300,0.000
194572.800,199865.400,292269.400,371672.600,202871.100,229787.400,370571.900,230800.900,0.000
194431.000,199734.100,292192.100,371594.900,202832.800,229781.900,370623.100,230806.600,0.000
193781.500,199257.900,291599.800,370845.100,202240.900,229206.100,370005.600,230182.900,0.000
193516.000,199088.900,291282.500,370344.200,201908.500,228848.300,369567.900,229783.000,0.000
193997.100,199460.400,291654.200,370674.900,202295.200,229199.800,369912.000,230152.000,0.000
194561.600,199862.700,292181.400,371275.500,202868.700,229772.800,370565.900,230777.900,0.000
194433.600,199744.000,292116.700,371217.400,202843.300,229780.800,370635.700,230798.800,0.000
193782.300,199260.800,291520.500,370466.900,202251.300,229205.800,370019.500,230176.000,0.000
193511.000,199083.700,291199.700,369963.200,201918.200,228846.400,369580.000,229772.600,0.000
194008.100,199472.300,291583.500,370307.000,202316.200,229210.300,369937.800,230154.000,0.000
194578.100,199879.700,292111.700,370915.900,202891.400,229789.300,370597.900,230784.900,0.000
194425.700,199737.500,292023.800,370838.400,202847.100,229778.300,370645.800,230785.000,0.000
193778.300,199257.900,291430.800,370089.600,202259.300,229205.400,370031.100,230161.400,0.000
193520.300,199098.500,291121.100,369595.000,201935.200,228856.900,369598.800,229764.900,0.000
193997.700,199470.500,291487.000,369917.700,202316.700,229205.600,369938.000,230129.600,0.000
194555.200,199862.900,292002.800,370509.800,202881.300,229772.600,370585.500,230751.300,0.000
194429.900,199744.600,291938.200,370452.300,202856.800,229782.500,370653.400,230773.800,0.000
193781.400,199262.800,291344.200,369703.400,202265.000,229204.800,370035.500,230149.500,0.000
193510.000,199085.600,291021.600,369197.600,201926.900,228843.300,369594.100,229744.500,0.000
193997.100,199463.000,291400.800,369535.400,202320.000,229201.100,369947.400,230122.600,0.000
194567.400,199867.400,291931.200,370142.000,202896.700,229777.800,370604.200,230755.700,0.000
194444.100,199751.800,291873.000,370094.300,202876.500,229792.900,370678.000,230785.400,0.000
193790.300,199264.300,291275.300,369345.300,202280.300,229212.000,370057.600,230159.100,0.000
193522.100,199093.100,290958.300,368846.300,201947.800,228855.700,369620.200,229760.200,0.000
194007.500,199469.000,291334.300,369182.500,202338.500,229212.300,369971.100,230137.400,0.000
194580.300,199879.200,291868.500,369795.900,202915.800,229792.800,370632.700,230774.900,0.000
194453.600,199756.600,291801.900,369740.800,202886.000,229800.000,370698.800,230796.200,0.000
193794.200,199261.900,291198.100,368988.100,202284.900,229216.700,370074.400,230167.700,0.000
193529.200,199091.800,290880.200,368488.100,201954.100,228860.300,369636.700,229767.600,0.000
194010.000,199468.000,291252.400,368821.500,202340.200,229214.300,369985.200,230139.700,0.000
194583.200,199879.300,291789.600,369438.200,202922.500,229800.600,370653.300,230781.100,0.000
194449.200,199747.700,291718.300,369376.500,202887.500,229802.600,370714.300,230797.300,0.000
193799.400,199262.800,291122.200,368626.300,202291.400,229222.600,370093.600,230170.900,0.000
193528.500,199090.500,290802.300,368126.700,201954.600,228862.100,369655.700,229769.300,0.000
194001.700,199458.300,291167.000,368453.200,202328.900,229204.600,369992.400,230133.000,0.000
194575.200,199867.000,291695.800,369064.100,202900.100,229781.300,370646.800,230763.800,0.000
194462.900,199758.800,291645.000,369031.200,202888.800,229809.700,370732.000,230803.000,0.000
193821.600,199285.000,291062.600,368305.700,202310.800,229249.800,370131.000,230194.500,0.000
193534.000,199097.700,290727.600,367795.800,201963.600,228876.200,369676.300,229777.000,0.000
194000.300,199457.000,291082.400,368117.100,202335.800,229211.600,370003.300,230130.800,0.000
194575.400,199865.200,291617.200,368736.800,202912.800,229792.600,370665.800,230766.800,0.000
194464.300,199754.500,291569.800,368703.100,202897.300,229812.500,370748.800,230802.400,0.000
193824.300,199279.900,290987.400,367976.700,202315.300,229249.400,370147.800,230191.800,0.000
193544.100,199099.200,290660.500,367472.100,201976.000,228885.000,369701.100,229781.600,0.000
194018.000,199469.500,291024.400,367794.300,202350.900,229223.800,370029.600,230139.500,0.000
194585.600,199875.500,291552.900,368404.900,202921.800,229796.700,370685.200,230770.200,0.000
194472.000,199763.500,291500.700,368365.100,202903.500,229815.200,370764.000,230803.100,0.000
193829.300,199287.400,290917.200,367635.300,202319.700,229250.600,370161.400,230191.100,0.000
193548.600,199103.500,290591.300,367131.200,201977.200,228884.500,369717.000,229781.200,0.000
194021.500,199470.000,290958.300,367462.500,202357.400,229230.100,370057.800,230149.100,0.000
194591.100,199875.300,291488.100,368075.200,202930.100,229805.100,370717.200,230782.700,0.000
194488.700,199778.200,291445.800,368052.100,202923.700,229836.800,370810.800,230827.900,0.000
193839.200,199292.900,290856.700,367317.200,202333.600,229264.900,370201.300,230210.300,0.000
193548.400,199099.300,290517.800,366795.800,201979.000,228881.800,369738.800,229785.000,0.000
194009.900,199458.400,290870.600,367108.000,202345.100,229208.900,370057.600,230131.700,0.000
194589.900,199874.700,291410.800,367731.300,202931.000,229795.100,370724.200,230773.100,0.000
194474.300,199760.300,291363.300,367701.400,202920.600,229820.300,370810.800,230811.900,0.000
193842.900,199297.400,290785.100,366978.900,202339.300,229257.900,370209.000,230201.200,0.000
193552.200,199107.700,290446.900,366466.200,201985.100,228881.200,369750.100,229777.700,0.000
194029.500,199483.300,290817.600,366804.500,202368.600,229236.000,370094.900,230145.400,0.000
194600.200,199887.500,291348.200,367417.900,202942.500,229812.400,370749.400,230774.600,0.000
194482.400,199767.700,291292.800,367382.100,202923.100,229829.000,370825.200,230803.300,0.000
193831.900,199283.300,290703.900,366652.000,202334.600,229260.000,370217.400,230187.100,0.000
193549.000,199102.000,290371.800,366144.900,201984.400,228888.200,369761.900,229769.200,0.000
194023.300,199474.800,290739.300,366474.300,202358.900,229229.200,370091.500,230128.000,0.000
194591.500,199880.600,291267.200,367087.500,202927.500,229800.200,370741.300,230755.600,0.000
194481.500,199773.700,291221.600,367065.600,202920.000,229829.300,370831.400,230797.500,0.000
193822.500,199282.500,290626.300,366328.600,202326.000,229251.700,370216.400,230170.900,0.000
193537.200,199100.700,290294.200,365821.600,201976.900,228881.700,369763.500,229751.800,0.000
194011.500,199471.600,290658.300,366150.500,202352.500,229224.200,370093.300,230108.400,0.000
194590.700,199890.500,291198.600,366778.700,202939.400,229813.200,370757.600,230746.000,0.000
194478.000,199777.900,291146.200,366750.500,202926.400,229837.400,370839.900,230779.300,0.000
193829.200,199294.800,290552.400,366022.100,202335.300,229269.800,370231.500,230161.200,0.000
193529.400,199100.500,290208.200,365507.300,201975.400,228889.700,369766.400,229733.800,0.000
193994.700,199465.000,290565.100,365830.600,202341.800,229225.300,370090.500,230081.500,0.000
194561.800,199869.900,291091.000,366444.900,202912.100,229800.400,370742.200,230706.600,0.000
194464.600,199773.000,291052.300,366430.300,202913.300,229837.300,370836.300,230753.500,0.000
193834.000,199311.400,290483.100,365725.800,202345.100,229292.400,370252.100,230155.800,0.000
193535.600,199116.700,290141.100,365214.800,201987.000,228917.500,369792.900,229729.900,0.000
193973.300,199451.000,290470.200,365509.300,202328.600,229225.900,370088.000,230051.800,0.000
194552.500,199863.800,291007.600,366134.300,202909.900,229807.400,370746.000,230688.300,0.000
194457.100,199768.500,290973.900,366122.800,202912.400,229845.500,370841.900,230738.700,0.000
193826.800,199304.100,290398.300,365409.200,202336.200,229289.400,370243.300,230133.800,0.000
193514.600,199093.400,290036.400,364874.000,201957.800,228887.500,369756.900,229684.500,0.000
193991.300,199463.700,290404.300,365209.600,202339.900,229234.900,370092.600,230048.900,0.000
194579.700,199883.300,290953.800,365849.700,202933.500,229832.600,370765.000,230700.500,0.000
194488.400,199790.900,290922.400,365843.800,202942.600,229879.500,370867.400,230757.100,0.000
193848.000,199315.300,290340.800,365123.500,202361.800,229319.000,370263.400,230145.300,0.000
193547.600,199119.500,289994.600,364599.300,201993.700,228927.100,369787.800,229706.600,0.000
194044.500,199515.600,290380.300,364949.900,202384.100,229285.600,370134.900,230080.800,0.000
194641.100,199950.000,290936.900,365597.000,202978.400,229884.900,370812.600,230734.700,0.000
194508.300,199817.500,290871.900,365556.400,202946.100,229886.900,370877.000,230753.400,0.000
193836.800,199322.500,290274.600,364817.900,202333.700,229301.700,370255.200,230122.300,0.000
193494.400,199103.700,289904.300,364260.200,201921.900,228874.400,369744.600,229650.600,0.000
193973.000,199490.400,290286.000,364596.800,202299.100,229217.200,370079.500,230008.900,0.000
194540.900,199893.100,290823.800,365218.500,202870.600,229786.000,370733.200,230636.200,0.000
194457.600,199804.100,290799.200,365225.400,202886.400,229829.600,370843.200,230701.000,0.000
193833.000,199335.000,290234.500,364530.500,202322.400,229283.100,370265.000,230115.000,0.000
193533.800,199115.000,289902.400,364010.100,201956.500,228885.200,369791.300,229684.800,0.000
193978.500,199455.400,290251.400,364313.200,202299.800,229189.300,370086.300,230014.800,0.000
194561.300,199886.300,290800.900,364953.800,202883.800,229780.500,370753.800,230661.900,0.000
194465.100,199791.400,290773.700,364954.300,202891.600,229824.600,370859.100,230723.500,0.000
193830.400,199321.800,290200.700,364251.700,202324.100,229277.200,370274.500,230131.400,0.000
193516.100,199106.800,289839.400,363720.800,201950.300,228878.700,369794.700,229689.800,0.000
193987.900,199479.600,290200.000,364046.400,202317.900,229211.300,370118.200,230040.500,0.000
194559.400,199885.500,290728.200,364664.300,202883.500,229778.300,370764.800,230664.100,0.000
194467.400,199785.400,290698.500,364663.700,202885.300,229819.200,370868.000,230717.300,0.000
193839.200,199322.400,290135.000,363972.300,202318.100,229275.200,370291.400,230126.700,0.000
193521.900,199106.100,289775.400,363447.800,201943.200,228875.900,369815.300,229683.200,0.000
193977.400,199463.000,290117.300,363755.800,202294.400,229193.800,370119.300,230015.500,0.000
194569.400,199894.000,290669.200,364399.900,202886.500,229792.800,370793.900,230668.100,0.000
194474.000,199792.200,290638.300,364399.800,202891.400,229832.800,370896.400,230725.100,0.000
193838.300,199316.000,290067.800,363699.100,202320.400,229282.300,370310.600,230127.800,0.000
193517.200,199100.500,289699.000,363162.200,201935.200,228876.100,369822.100,229676.300,0.000
193957.500,199443.600,290035.300,363465.700,202279.200,229186.000,370123.300,230003.400,0.000
194567.800,199888.900,290606.100,364128.200,202888.500,229798.600,370816.600,230671.800,0.000
194487.300,199799.700,290592.300,364147.400,202910.800,229854.400,370940.300,230747.200,0.000
193837.600,199309.100,290008.200,363432.600,202325.300,229289.000,370341.400,230137.500,0.000
193524.500,199098.100,289655.900,362908.600,201952.800,228894.000,369864.300,229696.700,0.000
193982.800,199459.400,290005.900,363221.900,202307.200,229214.400,370175.800,230032.400,0.000
194569.400,199875.600,290553.600,363861.000,202891.800,229800.300,370845.200,230676.200,0.000
194498.400,199793.800,290551.500,363892.500,202920.200,229864.800,370980.000,230762.100,0.000
193860.400,199319.800,289980.000,363190.500,202344.100,229310.500,370395.600,230165.000,0.000
193529.500,199091.400,289605.800,362644.200,201950.100,228894.000,369900.800,229705.200,0.000
193983.000,199443.900,289951.900,362953.400,202298.000,229206.600,370204.800,230039.800,0.000
194578.200,199870.700,290509.200,363602.900,202893.000,229802.600,370883.800,230697.800,0.000
194493.600,199778.800,290487.200,363610.500,202904.700,229844.700,370992.700,230764.300,0.000
193846.900,199292.900,289901.700,362892.100,202319.000,229275.400,370387.900,230157.400,0.000
193557.600,199108.300,289569.400,362384.500,201966.000,228898.000,369930.900,229742.100,0.000
194008.100,199462.900,289917.000,362695.000,202315.900,229215.700,370239.500,230084.700,0.000
194592.400,199880.800,290460.600,363330.100,202893.900,229800.600,370906.400,230734.900,0.000
194516.500,199798.500,290448.800,363352.300,202914.200,229860.300,371035.200,230824.300,0.000
193872.000,199316.600,289871.100,362646.200,202336.400,229302.800,370446.800,230236.700,0.000
193556.600,199106.800,289511.400,362120.400,201961.300,228905.400,369970.200,229806.600,0.000
193991.600,199444.000,289837.500,362415.000,202298.000,229207.200,370260.600,230135.000,0.000
194586.200,199870.900,290393.500,363066.700,202893.200,229806.300,370942.300,230801.300,0.000
194505.300,199780.000,290377.600,363091.400,202914.700,229862.000,371068.800,230887.100,0.000
193872.600,199306.800,289807.600,362396.200,202345.600,229310.800,370490.800,230305.400,0.000
193560.100,199101.800,289459.400,361880.600,201977.300,228920.000,370025.300,229880.600,0.000
193986.500,199430.900,289782.700,362174.400,202307.900,229213.800,370311.900,230200.500,0.000
194581.100,199856.300,290334.300,362823.800,202898.500,229805.300,370986.700,230856.300,0.000
194528.000,199794.000,290346.100,362875.100,202941.200,229886.300,371138.500,230964.300,0.000
193889.800,199320.000,289780.000,362182.300,202371.500,229334.400,370560.800,230377.800,0.000
193548.100,199083.100,289401.700,361629.700,201974.700,228907.600,370058.700,229914.400,0.000
193985.500,199423.300,289735.200,361922.700,202311.000,229205.000,370347.700,230235.800,0.000
194594.800,199869.000,290305.900,362587.400,202918.000,229812.300,371039.300,230906.200,0.000
194544.000,199812.500,290319.100,362641.600,202965.700,229896.700,371193.600,231014.000,0.000
193911.100,199342.500,289754.700,361953.300,202397.800,229350.200,370618.800,230430.200,0.000
193558.500,199096.800,289364.100,361393.500,201986.300,228913.200,370104.900,229956.700,0.000
193976.400,199420.800,289673.100,361668.200,202305.000,229190.700,370369.800,230255.700,0.000
194585.200,199861.800,290237.600,362330.800,202913.300,229797.200,371056.300,230920.700,0.000
194527.100,199790.700,290242.800,362377.900,202956.400,229872.900,371201.700,231019.200,0.000
193889.900,199313.300,289669.200,361681.100,202382.200,229316.500,370616.000,230422.600,0.000
193567.700,199100.000,289308.900,361159.000,202004.700,228913.800,370135.900,229979.800,0.000
193999.600,199441.000,289636.600,361461.300,202341.300,229212.500,370428.900,230300.000,0.000
194595.000,199871.500,290194.600,362119.100,202936.500,229810.000,371109.000,230957.500,0.000
194531.000,199793.400,290193.700,362160.200,202966.500,229876.200,371244.500,231047.000,0.000
193882.900,199298.000,289611.000,361453.900,202380.700,229309.200,370648.200,230440.500,0.000
193565.400,199088.000,289251.900,360926.600,202000.200,228907.500,370168.500,229995.100,0.000
194005.300,199438.500,289584.700,361231.100,202343.600,229215.900,370465.600,230319.800,0.000
194605.100,199873.300,290141.900,361891.500,202941.900,229816.800,371149.200,230979.500,0.000
194531.700,199787.800,290133.200,361926.500,202967.100,229875.700,371279.300,231061.400,0.000
193876.500,199293.200,289544.200,361212.900,202377.800,229301.300,370674.900,230446.600,0.000
193557.200,199084.200,289190.400,360695.300,202004.300,228904.700,370203.600,230008.300,0.000
193995.800,199425.100,289520.600,360992.200,202337.700,229200.700,370492.600,230325.300,0.000
194616.900,199879.400,290096.900,361663.800,202951.300,229811.600,371188.200,230998.600,0.000
194553.900,199805.400,290098.300,361709.300,202988.500,229882.600,371329.400,231092.500,0.000
193904.200,199319.200,289518.400,361015.000,202407.900,229326.800,370744.800,230495.200,0.000
193538.500,199064.000,289118.100,360451.900,201987.900,228883.700,370224.600,230010.000,0.000
193966.900,199401.900,289438.800,360740.900,202313.300,229171.400,370500.500,230313.500,0.000
194584.800,199854.700,290011.300,361412.100,202924.400,229782.200,371191.900,230980.500,0.000
194543.300,199798.900,290035.000,361481.400,202982.500,229877.400,371357.700,231094.500,0.000
193898.100,199313.700,289458.200,360789.300,202409.000,229324.500,370775.900,230498.100,0.000
193539.100,199069.100,289062.200,360232.700,201996.200,228890.200,370264.200,230016.800,0.000
193971.500,199412.300,289389.000,360529.100,202325.000,229185.700,370549.000,230328.500,0.000
194604.500,199878.200,289978.000,361217.700,202948.100,229813.000,371255.900,231009.200,0.000
194538.300,199798.400,289974.700,361258.800,202979.000,229880.500,371391.600,231091.300,0.000
193906.100,199323.800,289409.900,360570.400,202412.000,229334.000,370812.900,230497.400,0.000
193568.200,199096.000,289036.800,360028.000,202019.400,228918.400,370317.600,230035.300,0.000
193988.000,199426.500,289352.700,360306.600,202341.700,229200.700,370586.800,230332.800,0.000
194576.700,199850.200,289895.300,360949.100,202926.800,229784.600,371251.000,230970.400,0.000
194530.900,199787.200,289906.100,361006.900,202975.800,229864.500,371402.300,231069.100,0.000
193903.600,199320.400,289346.400,360333.800,202416.400,229325.000,370834.900,230485.900,0.000
193575.900,199106.700,288988.500,359810.900,202036.400,228922.800,370354.000,230038.300,0.000
194007.000,199450.300,289320.400,360111.300,202372.000,229224.600,370645.100,230355.000,0.000
194599.100,199872.600,289870.000,360757.300,202957.800,229809.800,371312.100,230998.700,0.000
194561.300,199815.400,289892.200,360823.300,203013.200,229896.100,371468.800,231106.800,0.000
193913.100,199329.300,289312.800,360130.700,202435.900,229337.000,370884.500,230506.400,0.000
193560.300,199090.800,288926.500,359584.500,202032.200,228912.600,370383.100,230034.500,0.000
193965.200,199400.000,289223.600,359844.500,202334.600,229173.100,370630.900,230310.900,0.000
194578.100,199843.700,289789.800,360503.700,202939.600,229771.300,371307.500,230965.200,0.000
194541.500,199796.700,289821.100,360581.600,203004.900,229871.000,371475.600,231086.500,0.000
193915.600,199332.200,289264.300,359912.600,202446.800,229334.500,370912.700,230510.900,0.000
193570.200,199099.000,288880.500,359370.300,202044.800,228907.900,370409.700,230038.400,0.000
193996.400,199437.400,289203.000,359666.500,202375.000,229203.100,370694.000,230348.600,0.000
194590.700,199869.400,289752.000,360320.800,202966.000,229795.700,371369.600,231001.600,0.000
194559.800,199823.600,289783.100,360406.500,203034.100,229898.500,371546.600,231129.000,0.000
193908.200,199322.300,289194.000,359700.000,202443.400,229322.700,370943.500,230516.300,0.000
193554.800,199083.500,288803.400,359145.500,202033.000,228893.000,370433.400,230041.600,0.000
193996.100,199437.100,289141.700,359452.300,202372.500,229203.700,370731.700,230366.300,0.000
194577.000,199850.100,289682.100,360085.400,202946.900,229776.800,371383.300,230995.700,0.000
194532.600,199789.600,289698.400,360140.900,202996.600,229857.000,371530.000,231097.100,0.000
193908.100,199326.300,289144.300,359473.400,202443.800,229324.700,370969.300,230524.500,0.000
193560.000,199089.500,288761.700,358928.500,202039.800,228897.800,370465.400,230057.500,0.000
193994.500,199435.900,289091.800,359229.800,202373.700,229198.500,370752.500,230376.400,0.000
194596.400,199871.800,289646.800,359887.800,202967.800,229794.500,371426.800,231030.400,0.000
194557.000,199816.600,289668.900,359960.800,203025.900,229890.100,371590.500,231144.900,0.000
193914.200,199330.500,289095.200,359276.100,202451.400,229338.800,371010.000,230551.600,0.000
193548.500,199075.500,288698.500,358715.400,202031.300,228896.000,370487.400,230065.100,0.000
193966.400,199406.700,289012.800,358997.300,202347.000,229176.100,370752.000,230360.900,0.000
194583.800,199860.900,289588.000,359676.200,202959.500,229791.000,371443.500,231032.200,0.000
194549.900,199812.200,289616.200,359757.400,203021.700,229888.500,371611.100,231150.600,0.000
193918.000,199333.700,289052.400,359082.900,202455.200,229345.000,371039.300,230562.800,0.000
193561.300,199089.100,288664.200,358534.000,202047.200,228917.700,370531.200,230086.000,0.000
193990.800,199433.900,288988.900,358827.300,202374.600,229211.100,370810.700,230390.400,0.000
194594.800,199869.100,289548.600,359490.500,202974.500,229810.800,371487.500,231042.700,0.000
194538.300,199797.900,289552.800,359545.100,203015.900,229885.700,371630.700,231136.800,0.000
193904.100,199324.200,288989.300,358874.800,202454.100,229347.500,371065.000,230553.900,0.000
193551.500,199085.500,288599.500,358324.100,202044.200,228915.800,370552.700,230073.800,0.000
193954.600,199403.300,288897.600,358588.200,202344.800,229178.800,370798.500,230349.200,0.000
194576.300,199855.500,289476.400,359269.800,202963.100,229795.000,371492.300,231018.500,0.000
194523.600,199784.900,289486.100,359331.400,203008.600,229873.300,371638.100,231115.500,0.000
193891.600,199312.900,288920.400,358654.500,202441.000,229329.500,371064.500,230525.100,0.000
193564.200,199096.200,288559.500,358133.900,202059.200,228927.800,370585.300,230075.300,0.000
193971.600,199415.200,288865.800,358406.800,202369.100,229198.600,370841.700,230357.800,0.000
194564.100,199844.100,289416.300,359055.800,202959.300,229783.000,371503.300,230997.800,0.000
194528.400,199795.400,289446.400,359137.800,203023.900,229885.200,371673.200,231119.900,0.000
193910.100,199333.200,288899.300,358478.500,202475.400,229360.000,371116.700,230551.000,0.000
193559.300,199095.600,288509.200,357923.300,202064.200,228924.700,370597.600,230067.000,0.000
193949.400,199400.700,288796.400,358173.100,202352.600,229175.200,370827.800,230329.500,0.000
194568.700,199851.800,289374.000,358850.700,202964.900,229786.400,371513.200,230995.100,0.000
194536.700,199801.200,289405.500,358937.800,203034.000,229890.500,371683.000,231117.900,0.000
193903.200,199323.600,288843.000,358263.900,202467.500,229348.300,371111.300,230532.700,0.000
193542.500,199078.300,288446.800,357706.100,202052.100,228912.900,370592.800,230049.600,0.000
193954.700,199409.100,288753.600,357976.600,202360.000,229185.700,370844.600,230331.800,0.000
194570.700,199860.000,289327.200,358650.700,202966.600,229792.400,371527.000,230990.400,0.000
194543.500,199814.600,289364.200,358741.100,203036.900,229899.400,371700.100,231112.300,0.000
193912.800,199342.100,288805.400,358070.800,202476.300,229362.800,371133.200,230528.600,0.000
193553.600,199099.100,288415.200,357516.100,202064.100,228929.500,370617.100,230046.500,0.000
193943.000,199404.200,288699.100,357768.700,202351.600,229182.800,370848.800,230310.500,0.000
194551.000,199840.900,289259.000,358428.500,202945.500,229776.700,371514.500,230957.800,0.000
194530.500,199801.500,289299.900,358522.300,203018.100,229884.900,371690.000,231084.600,0.000
193905.300,199332.800,288743.300,357856.200,202458.400,229350.400,371124.800,230505.600,0.000
193557.000,199099.800,288360.700,357316.100,202055.800,228931.000,370620.000,230034.200,0.000
193948.000,199410.600,288651.200,357574.700,202347.600,229190.400,370858.200,230301.300,0.000
194562.300,199855.700,289220.500,358244.800,202953.300,229794.500,371536.800,230959.200,0.000
194547.000,199821.400,289267.700,358349.300,203034.800,229910.800,371723.200,231096.900,0.000
193920.500,199357.400,288713.600,357693.100,202477.100,229380.500,371162.900,230522.300,0.000
193549.500,199104.700,288312.000,357132.300,202051.600,228937.400,370634.300,230029.700,0.000
193935.600,199406.500,288593.500,357379.300,202336.100,229183.400,370855.800,230285.500,0.000
194544.000,199843.500,289157.500,358039.400,202936.800,229779.300,371518.100,230934.800,0.000
194539.700,199818.600,289213.400,358150.200,203025.900,229907.900,371707.400,231081.500,0.000
193910.700,199346.800,288655.600,357488.700,202465.800,229373.300,371141.100,230504.400,0.000
193538.800,199091.000,288251.500,356923.000,202039.900,228924.600,370608.100,230008.000,0.000
193942.300,199412.400,288552.700,357189.900,202340.800,229189.300,370852.000,230283.000,0.000
194554.600,199856.500,289120.400,357858.700,202942.300,229791.400,371525.300,230936.800,0.000
194528.400,199810.100,289156.800,357949.900,203010.500,229896.100,371693.700,231058.900,0.000
193902.600,199341.800,288603.200,357290.200,202453.900,229364.400,371129.500,230482.500,0.000
193545.800,199099.800,288215.800,356739.200,202041.600,228932.300,370612.600,230002.700,0.000
193947.500,199417.200,288514.900,357004.000,202341.400,229196.300,370854.200,230276.400,0.000
194560.100,199858.500,289082.800,357674.100,202946.200,229798.600,371525.600,230931.400,0.000
194541.800,199819.200,289126.300,357774.500,203023.000,229909.100,371699.600,231061.900,0.000
193916.900,199351.200,288571.500,357112.900,202466.000,229375.300,371134.400,230484.300,0.000
193553.900,199105.900,288177.800,356558.900,202048.900,228938.000,370613.200,229998.400,0.000
193943.000,199414.800,288464.000,356814.300,202334.400,229190.000,370843.300,230260.600,0.000
194555.000,199855.800,289027.600,357483.600,202933.500,229787.400,371515.500,230913.200,0.000
194545.400,199821.800,289078.600,357597.500,203022.100,229908.400,371707.400,231057.100,0.000
193916.200,199348.600,288521.800,356939.500,202466.300,229375.300,371149.500,230485.900,0.000
193543.400,199093.100,288117.000,356374.700,202040.600,228927.800,370621.500,229992.800,0.000
193946.200,199417.600,288414.900,356646.200,202344.900,229195.900,370869.000,230270.500,0.000
194553.300,199855.500,288973.100,357312.400,202941.300,229790.900,371535.500,230919.500,0.000
194543.500,199819.200,289022.500,357422.100,203022.500,229910.600,371723.500,231059.900,0.000
193925.600,199360.700,288476.500,356773.000,202469.600,229386.000,371169.700,230492.300,0.000
193555.200,199109.100,288078.100,356214.700,202045.400,228942.400,370642.700,230000.100,0.000
193941.500,199412.700,288363.300,356469.500,202331.800,229193.300,370871.600,230261.000,0.000
194554.000,199854.000,288931.300,357142.500,202935.600,229792.700,371544.000,230916.400,0.000
194546.500,199822.800,288985.800,357262.800,203025.500,229915.800,371737.400,231062.900,0.000
193923.800,199356.300,288435.400,356616.500,202475.200,229388.900,371185.900,230496.800,0.000
193553.000,199102.600,288038.200,356060.700,202052.500,228945.900,370663.800,230007.900,0.000
193944.000,199409.700,288327.000,356311.800,202337.300,229193.800,370890.800,230264.200,0.000
194564.400,199860.500,288905.000,356989.800,202946.200,229800.800,371568.900,230924.800,0.000
194565.300,199836.700,288968.800,357114.700,203041.000,229932.700,371769.300,231078.600,0.000
193941.800,199364.000,288414.800,356458.000,202482.500,229398.000,371207.800,230505.400,0.000
193567.500,199107.100,288010.500,355895.900,202054.500,228951.400,370676.300,230013.100,0.000
193946.400,199407.300,288291.400,356145.900,202335.600,229198.600,370902.000,230275.600,0.000
194554.200,199841.300,288854.200,356812.200,202930.700,229794.300,371571.000,230929.800,0.000
194545.900,199807.500,288906.700,356926.200,203016.400,229915.800,371761.700,231076.400,0.000
193928.700,199349.700,288363.200,356280.800,202471.800,229394.400,371215.500,230518.100,0.000
193557.400,199100.900,287963.100,355721.600,202051.200,228953.400,370695.500,230035.800,0.000
193941.900,199403.800,288244.100,355973.400,202337.000,229200.600,370927.800,230303.200,0.000
194554.100,199846.300,288807.300,356644.500,202936.600,229796.400,371601.200,230962.600,0.000
194550.300,199822.100,288865.200,356769.100,203027.400,229923.800,371801.100,231120.000,0.000
193923.800,199353.500,288314.800,356120.400,202475.000,229395.300,371248.900,230559.400,0.000
193547.100,199097.900,287909.000,355559.800,202048.300,228949.300,370722.800,230071.300,0.000
193937.100,199411.400,288198.200,355821.600,202338.500,229206.300,370959.800,230344.300,0.000
194557.200,199862.500,288769.900,356499.900,202946.300,229813.600,371638.500,231008.900,0.000
194568.700,199845.700,288841.400,356631.300,203050.200,229955.600,371849.300,231175.900,0.000
193942.600,199370.200,288292.200,355978.500,202493.800,229427.000,371295.700,230608.900,0.000
193555.500,199103.800,287880.200,355407.700,202057.800,228972.700,370760.800,230108.900,0.000
193935.700,199409.100,288162.400,355660.300,202343.400,229219.200,370989.900,230370.900,0.000
194553.300,199854.200,288727.300,356335.200,202949.500,229815.500,371664.400,231030.100,0.000
194549.100,199815.800,288784.600,356458.800,203040.700,229938.600,371863.100,231184.900,0.000
193926.400,199346.300,288236.400,355812.000,202488.700,229409.900,371312.200,230621.600,0.000
193548.300,199090.800,287832.700,355248.300,202058.900,228961.600,370781.000,230126.900,0.000
193934.300,199399.100,288119.400,355498.100,202342.000,229211.000,371006.400,230386.100,0.000
194552.400,199847.700,288692.700,356174.700,202945.900,229817.700,371684.300,231044.700,0.000
194556.800,199827.200,288757.200,356303.900,203044.500,229952.800,371889.200,231201.500,0.000
193921.400,199342.800,288188.500,355635.400,202479.700,229405.400,371316.000,230613.300,0.000
193536.000,199075.700,287773.200,355059.500,202045.800,228944.600,370770.800,230104.300,0.000
193913.300,199378.400,288050.600,355300.800,202322.700,229183.400,370984.800,230352.800,0.000
194538.400,199834.300,288627.100,355979.100,202932.700,229791.000,371659.700,231011.900,0.000
194557.500,199827.600,288705.100,356119.800,203043.500,229937.200,371872.100,231177.200,0.000
193908.600,199331.700,288130.400,355447.200,202466.800,229385.100,371292.200,230585.600,0.000
193531.600,199077.800,287724.400,354883.800,202036.800,228934.200,370757.900,230087.900,0.000
193914.900,199384.200,288005.700,355133.100,202316.200,229176.100,370978.000,230340.400,0.000
194542.100,199843.200,288588.800,355821.600,202930.800,229787.700,371661.400,231005.600,0.000
194554.900,199828.300,288663.200,355961.200,203038.500,229928.700,371871.600,231168.700,0.000
193932.100,199359.200,288115.400,355316.200,202490.100,229403.700,371321.800,230600.100,0.000
193539.600,199086.200,287699.500,354740.900,202050.300,228944.400,370780.700,230091.000,0.000
193909.300,199376.700,287968.000,354973.900,202318.400,229175.000,370985.500,230330.700,0.000
194537.000,199836.000,288549.200,355658.900,202931.300,229785.300,371665.900,230995.300,0.000
194556.800,199826.000,288629.300,355807.700,203045.100,229932.900,371884.000,231164.300,0.000
193938.800,199363.200,288088.100,355172.100,202497.900,229413.000,371339.800,230601.300,0.000
193541.900,199089.600,287664.200,354588.300,202047.100,228944.000,370788.100,230082.600,0.000
193912.700,199384.800,287933.000,354819.600,202313.600,229174.100,370993.700,230322.100,0.000
194534.400,199836.300,288506.000,355494.200,202920.600,229777.200,371665.500,230978.100,0.000
194548.300,199823.600,288579.900,355632.300,203025.000,229919.100,371873.200,231139.300,0.000
193929.800,199356.000,288039.300,354995.100,202478.800,229401.600,371328.700,230579.900,0.000
193540.300,199084.600,287623.500,354419.700,202039.100,228942.700,370783.900,230071.100,0.000
193913.400,199386.300,287897.000,354661.800,202314.300,229181.400,370997.400,230317.600,0.000
194539.800,199844.600,288476.400,355349.400,202929.400,229793.300,371678.200,230981.200,0.000
194556.600,199831.800,288555.800,355496.500,203040.900,229941.600,371894.700,231148.800,0.000
193940.200,199369.300,288011.500,354853.000,202491.200,229418.400,371344.700,230581.600,0.000
193554.800,199102.600,287598.200,354279.300,202051.500,228961.500,370801.000,230070.900,0.000
193924.000,199392.900,287864.700,354508.800,202318.700,229188.700,371000.200,230303.900,0.000
194541.600,199838.400,288432.100,355181.100,202920.600,229784.400,371665.400,230950.800,0.000
194566.200,199835.700,288515.500,355334.600,203036.400,229935.100,371887.600,231123.400,0.000
193946.200,199367.700,287972.000,354694.600,202489.600,229412.500,371342.400,230562.000,0.000
193551.200,199097.600,287550.900,354113.400,202045.600,228948.600,370793.000,230046.400,0.000
193925.900,199399.800,287823.900,354349.000,202317.400,229185.600,370999.400,230284.600,0.000
194544.100,199846.800,288394.400,355021.800,202919.300,229784.500,371667.200,230933.400,0.000
194566.500,199839.900,288483.800,355181.100,203040.500,229942.500,371897.100,231114.100,0.000
193945.900,199367.200,287941.300,354545.400,202497.300,229424.000,371353.800,230556.300,0.000
193553.000,199096.800,287519.200,353966.200,202052.400,228959.600,370805.100,230043.100,0.000
193917.800,199386.900,287781.700,354191.100,202313.800,229180.800,371001.100,230274.900,0.000
194547.200,199846.300,288362.100,354877.400,202928.500,229789.200,371677.800,230936.200,0.000
194577.800,199847.100,288447.700,355036.900,203046.700,229944.200,371901.200,231112.700,0.000
193948.100,199367.800,287891.600,354392.800,202488.800,229413.000,371345.900,230542.700,0.000
193536.300,199080.200,287455.500,353799.900,202031.300,228935.400,370783.400,230015.800,0.000
193908.000,199379.200,287727.400,354037.200,202303.200,229169.900,370990.700,230258.200,0.000
194544.600,199843.600,288311.500,354728.700,202919.300,229783.000,371672.300,230925.100,0.000
194566.400,199832.100,288392.900,354880.700,203034.200,229932.900,371893.300,231097.700,0.000
193952.200,199367.800,287855.200,354250.900,202495.600,229418.900,371355.300,230545.100,0.000
193551.000,199092.600,287433.000,353667.800,202049.900,228951.300,370804.300,230028.300,0.000
193913.300,199384.400,287697.200,353892.300,202309.800,229175.500,371001.300,230259.800,0.000
194540.300,199839.900,288273.200,354571.300,202917.900,229779.000,371672.500,230917.200,0.000
194569.100,199835.300,288360.200,354731.000,203040.000,229935.000,371897.600,231098.000,0.000
193956.300,199374.000,287825.900,354104.800,202500.800,229423.400,371360.000,230546.300,0.000
193549.700,199092.000,287400.400,353521.800,202047.800,228951.900,370804.100,230024.000,0.000
193900.100,199368.700,287649.900,353735.000,202296.200,229160.600,370985.900,230241.600,0.000
194518.300,199818.300,288216.700,354409.000,202897.800,229755.300,371650.000,230892.900,0.000
194552.200,199817.300,288307.800,354574.500,203022.200,229913.500,371878.300,231075.400,0.000
193944.600,199358.400,287777.000,353956.300,202489.700,229407.900,371349.800,230530.000,0.000
193538.200,199079.500,287351.000,353370.200,202038.200,228934.700,370795.700,230008.700,0.000
193901.600,199372.000,287614.500,353597.300,202299.700,229157.600,370992.800,230238.500,0.000
194536.700,199834.600,288199.400,354290.200,202916.800,229772.200,371675.900,230904.500,0.000
194566.600,199827.200,288287.000,354449.500,203035.300,229926.700,371899.200,231080.200,0.000
193957.000,199369.200,287751.900,353824.600,202498.400,229417.000,371363.400,230528.000,0.000
193552.100,199095.800,287326.400,353244.800,202049.000,228953.200,370815.800,230012.700,0.000
193909.100,199385.000,287584.200,353468.300,202303.000,229174.500,371007.200,230237.600,0.000
194530.500,199837.600,288156.400,354146.300,202907.300,229775.200,371673.500,230890.800,0.000
194567.700,199842.800,288250.300,354315.200,203033.000,229937.100,371905.600,231076.000,0.000
193960.300,199387.100,287721.100,353698.300,202501.300,229433.500,371377.500,230529.600,0.000
193554.800,199105.000,287292.900,353112.300,202046.000,228961.500,370819.800,230004.500,0.000
193903.100,199381.700,287541.300,353321.100,202289.200,229169.200,370997.000,230218.100,0.000
194534.000,199841.700,288122.500,354005.000,202901.500,229773.800,371670.200,230876.600,0.000
194566.600,199836.900,288216.300,354172.000,203028.900,229932.000,371901.200,231059.900,0.000
193960.000,199381.100,287687.600,353555.500,202498.200,229429.000,371375.400,230514.700,0.000
193563.900,199109.900,287269.000,352977.200,202052.000,228965.000,370826.500,229998.000,0.000
193913.100,199387.900,287517.100,353183.900,202293.000,229169.700,371001.300,230206.700,0.000
194533.900,199835.100,288089.800,353864.000,202895.400,229768.400,371669.100,230858.100,0.000
194573.400,199838.200,288186.800,354035.600,203025.000,229930.700,371903.800,231045.300,0.000
193964.300,199380.100,287652.500,353413.800,202488.300,229418.300,371369.000,230493.300,0.000
193545.200,199088.400,287211.100,352813.200,202021.700,228932.700,370798.900,229957.200,0.000
193887.900,199359.700,287454.100,353017.200,202261.800,229135.300,370972.000,230164.300,0.000
194524.600,199824.100,288041.800,353709.200,202878.900,229748.200,371651.700,230830.600,0.000
194580.500,199845.500,288154.500,353896.800,203023.500,229928.000,371899.400,231033.500,0.000
193969.000,199383.600,287620.400,353275.300,202488.200,229417.800,371364.300,230480.900,0.000
193545.000,199088.300,287179.800,352677.700,202022.300,228935.600,370795.800,229945.800,0.000
193896.700,199373.900,287435.300,352896.500,202272.200,229149.500,370980.600,230165.900,0.000
194545.500,199850.600,288031.400,353600.400,202898.700,229769.500,371668.200,230838.800,0.000
194587.000,199852.800,288129.000,353775.900,203031.500,229934.700,371906.600,231029.500,0.000
193972.300,199386.700,287590.700,353154.200,202493.000,229423.000,371373.200,230477.200,0.000
193562.300,199105.300,287160.400,352568.900,202038.700,228952.800,370816.600,229952.900,0.000
193902.400,199377.500,287401.600,352775.700,202278.300,229155.500,370988.400,230161.400,0.000
194538.400,199846.800,287989.000,353471.700,202898.200,229771.100,371669.700,230830.600,0.000
194584.400,199856.300,288094.000,353652.100,203036.500,229943.500,371913.500,231026.700,0.000
193981.300,199402.200,287570.300,353041.400,202509.200,229444.400,371392.200,230485.500,0.000
193568.000,199116.300,287140.200,352455.600,202052.000,228972.700,370835.000,229961.400,0.000
193910.600,199392.700,287385.400,352661.100,202292.100,229176.300,371007.300,230169.800,0.000
194554.200,199863.000,287977.800,353360.800,202914.100,229793.600,371694.100,230839.900,0.000
194593.300,199860.500,288073.400,353532.000,203042.800,229955.000,371928.100,231026.800,0.000
193977.000,199392.000,287535.000,352904.800,202500.300,229439.100,371389.300,230473.700,0.000
193558.200,199103.200,287096.900,352306.500,202036.100,228958.100,370821.300,229942.100,0.000
193894.300,199374.600,287338.300,352506.600,202271.000,229158.900,370989.200,230147.700,0.000
194535.100,199845.500,287924.500,353197.300,202886.300,229771.700,371665.100,230809.500,0.000
194595.300,199865.400,288038.800,353386.400,203030.700,229952.200,371913.800,231012.500,0.000
193984.400,199399.400,287505.000,352768.100,202495.500,229443.900,371380.600,230465.800,0.000
193566.700,199110.200,287068.600,352174.900,202034.100,228966.500,370815.200,229936.300,0.000
193911.600,199388.400,287314.900,352382.600,202277.900,229172.700,370989.600,230144.700,0.000
194555.900,199861.500,287908.400,353082.800,202903.300,229791.000,371675.000,230815.600,0.000
194592.400,199855.800,288002.600,353254.800,203031.700,229951.500,371908.100,231000.900,0.000
193982.000,199392.900,287468.800,352634.200,202495.100,229441.100,371374.800,230450.000,0.000
193569.200,199110.300,287035.700,352048.800,202036.400,228967.100,370816.300,229923.100,0.000
193920.300,199394.900,287287.300,352263.600,202283.000,229177.500,370995.900,230138.100,0.000
194544.900,199847.300,287861.900,352944.600,202886.500,229776.800,371662.000,230789.700,0.000
194588.800,199851.300,287963.300,353127.300,203021.200,229946.000,371905.100,230985.400,0.000
193990.400,199400.500,287443.700,352529.100,202502.700,229456.200,371394.400,230456.000,0.000
193559.700,199100.400,286992.800,351924.900,202030.300,228968.700,370821.300,229913.800,0.000
193891.400,199368.300,287223.500,352114.800,202259.300,229157.400,370979.600,230108.700,0.000
194529.500,199836.600,287808.500,352804.100,202876.000,229767.100,371653.800,230771.900,0.000
194588.400,199854.000,287922.000,352996.600,203024.600,229945.400,371902.200,230977.500,0.000
193993.000,199410.300,287411.100,352404.500,202513.600,229458.500,371394.000,230453.000,0.000
193560.600,199108.900,286965.400,351801.800,202043.700,228970.900,370820.000,229910.900,0.000
193894.800,199376.400,287199.500,351996.000,202274.900,229166.400,370980.100,230107.500,0.000
194532.900,199842.800,287779.900,352683.800,202890.200,229772.600,371650.900,230767.000,0.000
194599.000,199866.000,287900.600,352885.000,203044.500,229960.600,371911.800,230980.800,0.000
193999.700,199409.700,287380.400,352282.200,202520.600,229465.500,371395.500,230446.900,0.000
193578.600,199118.600,286942.800,351688.000,202054.600,228984.100,370830.500,229916.900,0.000
193918.000,199391.100,287184.500,351886.500,202288.800,229181.000,370995.000,230120.100,0.000
194544.900,199844.700,287760.800,352568.500,202894.100,229782.100,371661.000,230775.000,0.000
194601.100,199859.400,287872.600,352756.000,203036.500,229960.000,371911.200,230979.100,0.000
193989.300,199391.800,287340.900,352139.000,202502.800,229454.700,371383.600,230436.300,0.000
193561.600,199092.000,286894.100,351536.500,202031.100,228967.900,370813.400,229901.400,0.000
193898.500,199365.000,287133.000,351734.900,202265.100,229168.100,370980.800,230108.900,0.000
194531.500,199825.100,287716.800,352422.800,202879.500,229777.900,371654.900,230777.100,0.000
194595.000,199845.800,287837.700,352622.600,203033.600,229964.400,371914.400,230998.500,0.000
193992.900,199390.400,287316.300,352022.200,202513.600,229470.400,371401.000,230474.700,0.000
193568.300,199101.800,286873.500,351426.300,202048.300,228988.200,370836.600,229950.500,0.000
193901.200,199372.700,287108.100,351621.900,202278.000,229184.200,371003.900,230158.400,0.000
194537.500,199836.900,287688.600,352309.900,202891.900,229792.800,371680.500,230826.300,0.000
194597.000,199857.400,287805.300,352507.800,203043.700,229977.400,371939.800,231044.300,0.000
193996.300,199403.800,287288.500,351910.900,202526.800,229486.300,371431.500,230524.000,0.000
193558.800,199097.100,286835.800,351307.300,202050.200,228993.500,370855.400,229989.400,0.000
193882.600,199361.200,287060.300,351495.200,202271.700,229177.500,371010.300,230187.500,0.000
194525.100,199833.500,287649.000,352190.600,202889.200,229790.100,371693.300,230862.500,0.000
194591.300,199859.500,287775.300,352401.100,203048.700,229985.300,371963.300,231089.600,0.000
193991.200,199404.200,287257.400,351803.300,202529.300,229493.900,371451.900,230564.000,0.000
193564.100,199106.000,286813.400,351208.200,202061.400,229010.400,370885.200,230032.800,0.000
193890.200,199370.500,287042.000,351397.200,202284.700,229198.200,371043.100,230227.300,0.000
194529.200,199837.800,287629.300,352089.100,202901.900,229806.700,371717.800,230892.500,0.000
194589.700,199853.900,287746.000,352287.700,203053.500,229987.700,371972.800,231103.400,0.000
193994.700,199405.200,287232.500,351699.600,202538.200,229500.800,371470.200,230584.000,0.000
193564.700,199108.100,286785.300,351099.600,202064.500,229011.600,370901.600,230049.100,0.000
193879.800,199360.300,287004.400,351276.400,202276.900,229186.800,371047.900,230231.900,0.000
194515.600,199824.000,287588.600,351966.600,202890.000,229792.500,371721.300,230891.700,0.000
194582.600,199847.300,287709.300,352170.600,203048.400,229981.800,371985.400,231106.600,0.000
193984.500,199396.500,287193.000,351575.800,202533.500,229492.900,371478.200,230579.100,0.000
193549.000,199094.400,286743.600,350975.200,202058.300,229002.200,370905.600,230038.400,0.000
193871.400,199354.100,286967.600,351160.800,202276.900,229183.500,371055.100,230225.100,0.000
194514.400,199823.800,287553.100,351854.100,202891.400,229791.000,371730.400,230888.500,0.000
194584.000,199845.200,287675.600,352060.900,203048.000,229978.800,371993.200,231107.500,0.000
193977.600,199382.100,287152.200,351461.300,202527.400,229480.500,371479.100,230575.800,0.000
193541.600,199081.300,286699.800,350856.200,202051.500,228985.200,370903.100,230031.600,0.000
193872.800,199353.300,286933.900,351052.400,202282.000,229177.900,371065.000,230229.800,0.000
194509.500,199817.500,287518.200,351743.100,202895.100,229783.200,371738.100,230889.800,0.000
194581.300,199844.300,287644.000,351951.800,203053.200,229972.000,372001.500,231107.800,0.000
193988.100,199397.300,287132.700,351361.500,202542.000,229485.300,371497.300,230586.300,0.000
193541.600,199084.700,286671.900,350747.000,202057.000,228982.400,370910.200,230031.900,0.000
193856.200,199339.500,286885.600,350919.200,202267.000,229150.500,371045.900,230206.300,0.000
194502.800,199813.500,287473.300,351616.800,202889.100,229761.900,371723.300,230872.600,0.000
194580.700,199845.900,287609.100,351838.700,203058.700,229963.100,372000.400,231102.600,0.000
193988.800,199400.200,287102.900,351258.700,202549.900,229485.600,371505.000,230588.800,0.000
193545.900,199093.600,286648.400,350653.800,202067.700,228992.100,370927.800,230044.900,0.000
193859.000,199347.800,286861.800,350826.200,202274.600,229161.500,371063.600,230218.300,0.000
194499.800,199816.700,287445.200,351515.300,202890.200,229766.200,371732.500,230877.400,0.000
194588.700,199860.900,287590.300,351742.900,203069.300,229977.000,372016.900,231115.300,0.000
193990.600,199406.000,287075.400,351151.600,202553.000,229487.000,371512.600,230590.400,0.000
193547.300,199098.000,286618.100,350543.600,202070.400,228987.600,370935.100,230041.700,0.000
193859.200,199352.400,286837.400,350719.300,202283.700,229162.300,371080.600,230217.600,0.000
194507.100,199827.300,287427.200,351412.200,202902.500,229773.500,371758.000,230878.000,0.000
194586.900,199858.000,287556.900,351626.600,203066.100,229969.300,372028.100,231097.200,0.000
193991.400,199404.800,287046.400,351036.800,202553.000,229481.900,371523.200,230572.900,0.000
193546.000,199091.100,286587.200,350421.500,202064.600,228979.000,370935.400,230018.100,0.000
193872.600,199358.700,286815.200,350604.900,202284.500,229161.900,371084.400,230202.500,0.000
194519.300,199832.700,287405.400,351299.100,202903.100,229773.400,371759.500,230863.400,0.000
194593.500,199862.400,287532.200,351513.100,203064.900,229966.700,372028.600,231082.500,0.000
194006.300,199419.300,287025.000,350933.300,202557.400,229485.700,371535.300,230565.500,0.000
193564.700,199112.500,286569.300,350324.100,202078.600,228987.700,370955.700,230015.400,0.000
193876.500,199367.000,286788.000,350499.200,202287.300,229161.400,371093.600,230189.500,0.000
194512.500,199831.300,287371.100,351187.000,202898.700,229767.500,371760.900,230845.600,0.000
194600.800,199870.000,287514.300,351417.400,203075.700,229978.500,372045.800,231083.400,0.000
193995.100,199408.400,286994.200,350824.200,202553.700,229491.100,371540.900,230557.700,0.000
193546.500,199095.800,286534.300,350207.400,202066.000,228988.800,370953.900,230004.700,0.000
193862.800,199355.800,286749.000,350380.300,202274.200,229159.800,371089.800,230179.200,0.000
194505.900,199823.300,287331.800,351069.400,202886.300,229762.800,371757.700,230836.800,0.000
194590.400,199859.100,287470.800,351293.300,203057.400,229966.300,372035.100,231067.800,0.000
194005.000,199420.800,286966.600,350716.000,202551.300,229488.900,371543.700,230555.700,0.000
193552.800,199106.800,286502.700,350101.500,202062.200,228983.700,370958.300,230003.300,0.000
193867.800,199363.800,286722.300,350277.100,202273.800,229157.600,371099.000,230183.000,0.000
194518.700,199841.700,287316.300,350978.900,202896.500,229773.300,371780.900,230853.900,0.000
194593.300,199864.900,287444.400,351193.400,203057.600,229966.000,372051.000,231076.400,0.000
194009.000,199420.600,286944.700,350619.700,202556.300,229493.300,371561.900,230567.500,0.000
193559.200,199105.100,286484.900,350010.500,202071.800,228994.400,370979.300,230017.200,0.000
193860.500,199345.700,286682.400,350163.200,202260.000,229142.800,371094.100,230170.100,0.000
194505.900,199816.800,287270.400,350858.400,202875.700,229751.200,371766.400,230832.900,0.000
194594.600,199854.900,287413.300,351090.400,203051.200,229960.700,372053.200,231073.800,0.000
194008.800,199410.000,286910.400,350513.800,202544.500,229484.400,371562.700,230564.300,0.000
193554.800,199093.000,286446.700,349893.300,202053.300,228979.100,370972.900,230007.500,0.000
193861.400,199345.700,286660.800,350063.900,202260.900,229150.800,371106.400,230180.300,0.000
194513.300,199823.500,287254.200,350761.000,202881.800,229761.500,371782.700,230846.100,0.000
194596.000,199857.700,287394.100,350985.100,203052.900,229963.900,372063.700,231077.800,0.000
194009.900,199414.200,286892.700,350409.100,202548.600,229490.800,371576.900,230567.100,0.000
193559.500,199102.900,286431.300,349795.900,202062.500,228991.900,370995.900,230014.600,0.000
193862.200,199351.400,286636.500,349956.200,202261.900,229153.300,371123.100,230177.400,0.000
194505.700,199824.900,287224.400,350652.500,202882.000,229763.400,371797.500,230841.300,0.000
194611.100,199880.800,287383.400,350902.100,203074.500,229990.600,372099.900,231095.500,0.000
194029.600,199440.300,286885.600,350332.400,202574.200,229522.300,371616.100,230589.900,0.000
193567.400,199117.100,286412.000,349704.900,202076.000,229010.300,371021.800,230026.200,0.000
193856.200,199352.600,286604.700,349854.200,202260.000,229158.000,371135.000,230175.700,0.000
194499.200,199818.400,287187.100,350539.700,202869.200,229758.200,371797.100,230825.700,0.000
194605.900,199873.300,287345.900,350786.200,203062.600,229983.000,372097.200,231078.500,0.000
194030.000,199439.300,286852.100,350223.600,202569.800,229519.900,371619.300,230579.400,0.000
193564.600,199111.900,286378.400,349595.100,202070.000,229005.100,371022.800,230013.200,0.000
193854.500,199348.400,286574.300,349743.000,202257.900,229153.400,371139.500,230162.500,0.000
194498.000,199819.200,287160.100,350429.500,202871.700,229754.800,371805.300,230815.400,0.000
194603.600,199874.400,287319.100,350676.400,203066.100,229977.700,372103.700,231066.300,0.000
194017.400,199428.200,286817.700,350105.800,202567.200,229503.800,371617.600,230559.500,0.000
193559.300,199105.700,286350.700,349488.500,202076.000,228996.000,371031.000,230000.300,0.000
193854.500,199346.700,286548.800,349640.800,202267.100,229146.900,371148.300,230152.900,0.000
194509.700,199829.100,287143.900,350340.900,202892.100,229761.300,371826.000,230819.700,0.000
194618.300,199886.100,287305.000,350591.200,203086.200,229987.300,372128.800,231074.700,0.000
194031.600,199444.200,286803.600,350017.800,202583.300,229514.800,371641.200,230563.300,0.000
193563.200,199115.900,286326.900,349388.000,202078.800,228999.400,371040.700,229992.400,0.000
193853.700,199354.000,286518.500,349532.000,202261.200,229145.900,371151.000,230136.800,0.000
194496.700,199824.700,287104.300,350223.300,202876.500,229750.100,371818.100,230791.800,0.000
194600.600,199872.400,287261.000,350470.700,203070.200,229972.700,372117.100,231043.400,0.000
194019.100,199427.600,286761.900,349903.000,202571.100,229501.700,371634.300,230538.900,0.000
193559.900,199106.500,286293.500,349279.700,202074.200,228993.200,371041.300,229977.400,0.000
193859.700,199356.100,286497.900,349436.100,202270.200,229152.600,371162.400,230136.300,0.000
194508.700,199833.600,287091.600,350132.600,202890.400,229762.400,371835.900,230800.000,0.000
194604.900,199875.400,287242.100,350372.200,203072.000,229975.300,372127.400,231043.200,0.000
194021.300,199429.500,286742.600,349801.900,202572.000,229503.000,371642.800,230536.400,0.000
193556.600,199100.700,286265.200,349171.900,202070.200,228987.100,371042.500,229966.800,0.000
193846.800,199339.500,286459.000,349319.200,202255.400,229135.200,371153.400,230116.400,0.000
194506.100,199826.000,287059.600,350022.800,202881.000,229752.800,371833.200,230788.400,0.000
194618.300,199883.500,287223.900,350277.200,203078.000,229980.800,372138.300,231049.100,0.000
194038.500,199445.700,286730.100,349715.700,202587.500,229516.100,371661.200,230551.000,0.000
193572.500,199122.300,286260.200,349091.500,202094.000,229006.100,371068.800,229990.800,0.000
193857.500,199358.700,286446.400,349230.300,202274.300,229148.600,371171.600,230132.000,0.000
194501.800,199829.200,287029.900,349919.300,202887.100,229752.300,371833.700,230786.500,0.000
194606.200,199877.400,287186.900,350168.500,203079.300,229974.800,372131.800,231038.700,0.000
194030.700,199438.300,286693.300,349607.400,202582.900,229510.400,371650.900,230536.200,0.000
193555.800,199102.300,286212.200,348973.000,202073.100,228989.500,371045.400,229959.800,0.000
193837.400,199334.200,286400.300,349113.100,202252.300,229129.500,371149.200,230100.600,0.000
194489.000,199812.700,286992.400,349811.600,202873.500,229737.800,371821.200,230762.800,0.000
194612.100,199881.700,287164.800,350075.900,203080.600,229975.900,372135.100,231029.300,0.000
194033.200,199444.500,286671.300,349514.900,202587.300,229513.400,371658.800,230529.700,0.000
193563.300,199115.200,286194.100,348883.800,202081.800,228995.800,371061.700,229958.100,0.000
193845.200,199348.000,286378.900,349018.300,202256.800,229133.400,371163.100,230094.500,0.000
194498.000,199832.000,286972.600,349716.400,202880.000,229747.400,371837.000,230758.300,0.000
194618.900,199899.600,287147.500,349985.500,203088.800,229991.800,372156.200,231028.400,0.000
194041.500,199458.400,286653.800,349427.700,202594.900,229530.700,371680.600,230531.300,0.000
193574.500,199128.500,286178.400,348801.800,202097.200,229018.300,371083.400,229963.600,0.000
193854.700,199356.900,286360.100,348932.000,202268.600,229149.900,371179.300,230095.000,0.000
194498.600,199825.900,286945.500,349622.400,202881.300,229753.500,371844.100,230749.800,0.000
194613.300,199883.400,287110.300,349882.600,203080.200,229985.300,372151.300,231010.200,0.000
194043.700,199452.900,286624.300,349332.700,202591.400,229530.500,371684.600,230521.000,0.000
193570.400,199123.400,286146.000,348703.700,202086.000,229014.400,371084.800,229952.800,0.000
193847.800,199351.900,286332.200,348840.800,202263.100,229155.400,371186.800,230093.800,0.000
194506.200,199836.500,286927.400,349540.900,202887.400,229770.900,371860.100,230758.900,0.000
194630.000,199902.900,287100.600,349807.500,203096.100,230012.200,372173.200,231029.300,0.000
194051.500,199460.500,286603.800,349243.700,202601.200,229546.600,371692.800,230527.000,0.000
193572.200,199119.300,286119.000,348605.400,202092.300,229023.400,371088.500,229950.400,0.000
193844.700,199340.800,286299.300,348740.300,202266.100,229158.900,371187.800,230087.800,0.000
194489.600,199809.200,286884.700,349432.800,202877.400,229762.700,371853.800,230745.700,0.000
194620.800,199881.900,287057.600,349703.200,203084.700,230001.600,372171.700,231016.100,0.000
194048.100,199443.500,286569.400,349151.600,202599.400,229545.500,371705.900,230526.800,0.000
193568.300,199102.100,286083.700,348511.000,202087.300,229018.800,371098.300,229949.300,0.000
193837.800,199326.100,286258.900,348633.500,202253.500,229145.800,371186.400,230076.300,0.000
194495.800,199811.000,286856.800,349333.700,202874.900,229758.000,371859.100,230742.900,0.000
194634.600,199890.800,287047.200,349617.700,203096.400,230010.000,372191.100,231030.600,0.000
194054.900,199450.700,286554.200,349061.900,202604.100,229548.600,371720.900,230540.700,0.000
193581.600,199120.900,286070.300,348425.800,202094.000,229026.400,371116.800,229970.800,0.000
193847.300,199342.000,286241.400,348545.600,202254.900,229150.800,371202.000,230098.900,0.000
194493.400,199817.700,286831.900,349239.700,202871.700,229758.700,371871.200,230765.800,0.000
194628.600,199895.300,287017.300,349522.800,203094.600,230014.800,372204.200,231058.600,0.000
194051.800,199456.200,286525.300,348967.200,202607.900,229557.200,371735.700,230575.300,0.000
193566.600,199115.300,286035.000,348324.900,202092.100,229027.400,371128.100,230001.500,0.000
193831.300,199338.500,286208.800,348451.200,202257.200,229156.800,371219.900,230135.400,0.000
194484.800,199822.700,286801.600,349150.200,202877.600,229769.800,371893.300,230805.500,0.000
194619.600,199897.100,286984.900,349430.900,203095.900,230021.200,372223.700,231094.100,0.000
194047.200,199462.800,286499.000,348886.100,202614.400,229569.400,371763.400,230614.800,0.000
193566.700,199123.000,286013.400,348251.700,202104.500,229045.000,371161.700,230045.600,0.000
193836.300,199343.400,286190.400,348381.900,202273.600,229178.400,371259.300,230185.200,0.000
194484.900,199815.000,286779.300,349075.100,202888.900,229785.300,371931.300,230849.800,0.000
194627.300,199894.700,286971.400,349363.300,203110.000,230039.500,372269.200,231142.300,0.000
194049.900,199452.400,286480.100,348814.100,202619.300,229579.100,371800.800,230654.600,0.000
193565.900,199109.400,285989.500,348173.400,202102.700,229050.900,371190.100,230077.300,0.000
193836.600,199332.100,286165.700,348300.500,202268.900,229177.700,371279.200,230208.000,0.000
194484.200,199806.100,286751.600,348995.400,202885.100,229780.000,371945.400,230870.000,0.000
194607.800,199870.100,286926.000,349272.000,203092.300,230018.300,372266.600,231147.700,0.000
194043.200,199442.500,286446.100,348734.900,202608.100,229567.300,371811.500,230671.000,0.000
193565.000,199110.300,285966.600,348106.400,202101.300,229049.000,371213.200,230102.500,0.000
193825.600,199326.700,286134.600,348222.800,202258.200,229166.500,371294.300,230222.100,0.000
194476.100,199802.900,286724.400,348913.500,202873.200,229768.900,371957.500,230879.400,0.000
194612.700,199878.100,286910.700,349194.900,203092.800,230017.600,372285.300,231164.500,0.000
194038.700,199438.500,286423.200,348647.900,202609.500,229562.400,371823.300,230679.000,0.000
193561.600,199105.100,285940.400,348013.000,202099.300,229039.500,371220.300,230107.700,0.000
193826.000,199324.500,286106.700,348128.700,202256.300,229156.600,371299.400,230227.800,0.000
194477.400,199801.900,286696.400,348821.700,202875.600,229760.100,371965.200,230886.500,0.000
194615.000,199880.000,286886.500,349109.600,203100.100,230012.200,372300.200,231174.100,0.000
194042.800,199441.900,286403.100,348563.700,202617.500,229555.600,371837.200,230690.000,0.000
193557.700,199103.000,285911.800,347924.000,202100.100,229025.100,371228.300,230109.100,0.000
193818.100,199322.000,286078.000,348037.800,202255.100,229141.400,371306.800,230225.300,0.000
194482.700,199813.400,286682.500,348743.900,202882.100,229757.700,371985.800,230895.400,0.000
194628.100,199894.100,286878.000,349036.700,203109.300,230014.800,372325.200,231184.900,0.000
194059.800,199458.800,286394.300,348494.300,202628.800,229562.400,371867.100,230702.100,0.000
193562.600,199105.100,285891.300,347839.000,202102.300,229019.800,371244.400,230107.500,0.000
193827.100,199327.700,286061.100,347955.400,202263.700,229140.300,371325.300,230226.700,0.000
194480.800,199808.900,286653.800,348647.100,202881.700,229747.100,371991.300,230883.700,0.000
194622.800,199889.000,286844.800,348933.400,203105.700,230004.600,372324.300,231170.600,0.000
194056.000,199456.800,286363.900,348395.100,202625.900,229557.200,371868.200,230689.300,0.000
193563.000,199106.400,285870.900,347750.100,202103.600,229024.300,371254.300,230101.300,0.000
193822.900,199323.800,286038.400,347865.900,202260.600,229142.800,371331.600,230215.600,0.000
194481.100,199808.800,286636.700,348568.200,202885.600,229754.000,372002.900,230878.200,0.000
194617.900,199882.800,286821.600,348852.300,203102.300,230000.000,372331.000,231158.000,0.000
194054.100,199455.400,286348.300,348321.700,202631.900,229559.000,371881.100,230683.500,0.000
193565.900,199114.800,285856.400,347680.400,202118.400,229031.300,371269.800,230099.900,0.000
193818.800,199328.300,286016.300,347789.200,202267.600,229144.900,371340.600,230207.300,0.000
194472.600,199809.700,286607.600,348485.100,202882.200,229753.700,372005.100,230861.400,0.000
194625.600,199898.700,286810.100,348784.500,203116.800,230020.300,372348.900,231157.000,0.000
194064.500,199468.600,286335.000,348248.500,202642.400,229576.000,371898.500,230679.800,0.000
193568.300,199113.500,285837.600,347597.500,202118.800,229037.300,371280.800,230089.400,0.000
193820.300,199322.200,285996.900,347702.100,202269.800,229145.700,371349.000,230195.400,0.000
194481.600,199811.500,286597.300,348404.300,202897.200,229757.000,372020.600,230859.500,0.000
194628.800,199895.200,286795.000,348699.400,203126.000,230015.400,372360.200,231151.700,0.000
194063.500,199462.000,286314.900,348161.600,202646.600,229565.600,371905.600,230670.900,0.000
193575.900,199121.600,285824.700,347521.200,202129.300,229036.200,371298.200,230091.000,0.000
193809.500,199317.000,285968.400,347611.900,202261.500,229130.700,371353.400,230187.500,0.000
194460.000,199794.200,286553.800,348298.900,202872.600,229730.200,372012.200,230838.100,0.000
194623.900,199891.800,286761.400,348605.700,203115.100,230002.300,372364.300,231141.500,0.000
194068.000,199464.700,286292.700,348077.300,202647.000,229563.900,371920.900,230674.000,0.000
193572.000,199112.300,285792.300,347425.300,202122.400,229024.900,371302.600,230084.200,0.000
