EEG 1, EEG 2, EEG 3, EEG 4, EEG 5, EEG 6, EEG 7, EEG 8, TRIG
487231.200,515748.900,750000.100,750000.100,506261.000,479742.800,468707.000,498492.600,0.000
413249.700,438022.800,750000.100,750000.100,431368.200,407104.100,398307.600,423731.100,0.000
362585.500,384452.000,750000.100,750000.100,379202.400,357142.300,349673.300,372039.300,0.000
341727.200,361660.100,750000.100,750000.100,356164.900,336194.200,328793.400,350132.900,0.000
329633.900,348158.900,750000.100,706070.000,342118.200,323922.500,316350.300,337337.400,0.000
320176.300,338218.700,750000.100,663123.000,332492.100,314675.600,307374.500,327935.100,0.000
311608.700,329676.000,750000.100,626961.400,324910.500,306547.400,299797.700,319697.400,0.000
302748.800,320406.300,750000.100,594991.500,316128.600,297889.600,291437.800,310655.900,0.000
294265.900,310882.300,750000.100,566780.000,306160.900,289261.400,282658.500,301441.300,0.000
287398.000,303079.000,750000.100,542807.400,297754.000,282239.800,275429.000,293998.700,0.000
282131.000,297615.000,750000.100,522643.800,292473.000,277146.500,270510.600,288820.200,0.000
277124.600,292834.100,750000.100,504656.900,288484.900,272520.300,266335.100,284174.400,0.000
271484.600,287030.200,750000.100,487619.500,283074.100,267054.700,261114.500,278439.100,0.000
265853.500,280636.500,750000.100,471803.300,276235.600,261275.900,255179.000,272205.000,0.000
261400.400,275473.700,750000.100,458143.700,270496.900,256671.200,250360.400,267288.400,0.000
258171.100,272191.000,750000.100,446611.300,267351.800,253582.900,247412.700,264182.100,0.000
254988.300,269325.400,750000.100,436011.200,265193.700,250729.400,244955.500,261368.700,0.000
251051.800,265325.500,750000.100,425414.200,261555.400,246942.800,241374.500,257391.900,0.000
246958.600,260618.100,750000.100,415208.800,256431.900,242704.700,236978.100,252780.700,0.000
243823.800,256907.700,750000.100,406400.600,252191.100,239420.600,233485.800,249251.300,0.000
241756.600,254855.400,750000.100,399108.700,250274.900,237472.500,231652.000,247334.000,0.000
239643.500,253091.400,750000.100,392254.200,249167.500,235641.800,230179.200,245591.900,0.000
236722.200,250146.000,750000.100,385025.300,246550.600,232830.600,227550.000,242648.800,0.000
233596.200,246452.700,745636.400,377886.800,242455.600,229545.600,224091.500,239055.200,0.000
231334.200,243683.900,717335.300,371824.500,239163.800,227134.500,221466.300,236445.300,0.000
230002.500,242414.700,692631.600,366942.600,238011.300,225916.800,220351.500,235283.500,0.000
228598.400,241396.300,670007.900,362297.600,237618.500,224789.300,219556.500,234261.300,0.000
226400.700,239238.800,647554.300,357147.700,235782.300,222706.500,217643.800,232077.500,0.000
223922.100,236274.500,625332.800,351865.900,232445.000,220077.200,214848.900,229174.500,0.000
222212.500,234102.200,605123.900,347451.900,229775.100,218207.100,212766.100,227143.300,0.000
221396.100,233361.800,587785.900,344082.900,229150.400,217480.600,212127.500,226493.300,0.000
220483.700,232843.300,571898.600,340846.800,229232.400,216818.900,211779.000,225951.700,0.000
218765.800,231187.100,555659.900,336997.100,227887.500,215204.300,210315.600,224253.100,0.000
216752.400,228717.600,539188.200,332934.900,225054.000,213033.500,207975.000,221831.900,0.000
215450.800,226970.200,524233.500,329630.800,222811.500,211554.400,206282.700,220211.500,0.000
214981.100,226565.300,511660.300,327246.800,222490.100,211146.100,205945.800,219894.500,0.000
214401.300,226383.500,500206.700,324937.100,222882.900,210812.500,205912.600,219693.100,0.000
213034.600,225104.600,488139.700,321981.300,221903.300,209553.300,204803.700,218365.800,0.000
211368.700,223019.500,475557.800,318776.600,219458.500,207731.200,202815.500,216318.200,0.000
210361.000,221606.600,464187.500,316231.800,217561.900,206554.400,201424.300,215014.500,0.000
210147.200,221492.700,454928.600,314544.600,217541.600,206416.000,201349.500,214972.800,0.000
209823.900,221567.000,446534.500,312891.900,218186.700,206329.000,201542.700,215020.800,0.000
208713.300,220549.100,437323.200,310572.700,217453.100,205306.500,200656.600,213943.000,0.000
207263.600,218703.400,427410.300,307935.300,215251.700,203701.600,198883.900,212127.700,0.000
206474.500,217522.200,418538.800,305922.500,213596.500,202743.100,197709.300,211050.400,0.000
206468.500,217624.200,411597.900,304745.300,213781.800,202807.300,197827.200,211210.200,0.000
206341.300,217900.400,405366.300,303567.200,214602.800,202902.300,198191.400,211443.700,0.000
205414.300,217073.800,398196.900,301692.500,214061.900,202067.900,197486.400,210559.200,0.000
204167.800,215445.400,390232.700,299505.400,212087.500,200669.400,195913.000,208953.300,0.000
203542.900,214450.800,383161.800,297901.100,210618.900,199875.800,194899.100,208046.600,0.000
203674.200,214700.500,377886.100,297080.900,210956.400,200074.000,195150.200,208349.300,0.000
203661.800,215090.900,373193.500,296227.200,211892.400,200280.300,195621.500,208700.200,0.000
202867.200,214395.000,367483.300,294672.300,211467.500,199562.500,195029.300,207940.100,0.000
201751.500,212895.900,360900.800,292799.200,209615.400,198282.600,193575.900,206465.700,0.000
201264.000,212039.200,355153.900,291512.000,208286.700,197625.900,192701.600,205705.700,0.000
201506.300,212408.200,351109.100,290972.800,208733.000,197936.600,193067.500,206122.800,0.000
201604.800,212919.200,347584.200,290380.600,209776.200,198255.500,193649.600,206586.900,0.000
200919.000,212339.300,342986.700,289086.200,209469.900,197652.700,193169.000,205944.300,0.000
199897.700,210947.500,337457.300,287446.600,207737.400,196472.700,191816.900,204577.400,0.000
199487.200,210181.800,332687.800,286366.400,206499.400,195891.500,191016.300,203901.300,0.000
199818.000,210636.300,329564.700,286041.900,207019.300,196285.300,191457.200,204408.400,0.000
200015.500,211238.800,326923.000,285673.200,208142.200,196693.900,192120.800,204963.200,0.000
199415.800,210747.100,323166.500,284580.500,207918.700,196168.200,191717.400,204403.500,0.000
198495.400,209469.400,318464.300,283147.100,206297.500,195093.900,190473.300,203146.700,0.000
198164.200,208780.400,314453.700,282254.700,205142.500,194589.700,189754.500,202557.900,0.000
198549.000,209292.000,312026.300,282064.800,205710.800,195032.000,190238.400,203108.300,0.000
198798.800,209956.500,310053.400,281833.600,206887.000,195493.000,190951.800,203714.300,0.000
198278.000,209549.500,306961.900,280905.000,206743.900,195050.500,190627.000,203238.800,0.000
197437.200,208357.300,302893.600,279641.300,205210.100,194053.700,189458.100,202064.800,0.000
197159.900,207731.100,299469.300,278876.800,204117.300,193601.500,188788.200,201523.300,0.000
197594.200,208290.200,297594.500,278813.100,204742.400,194094.800,189319.600,202122.400,0.000
197888.300,209000.500,296143.600,278696.200,205965.400,194601.200,190072.400,202772.300,0.000
197412.400,208646.600,293556.100,277883.300,205876.300,194202.700,189793.700,202343.600,0.000
196600.900,207478.800,289948.500,276701.900,204368.800,193225.800,188648.700,201193.300,0.000
196370.300,206897.900,286980.700,276042.600,203319.300,192819.700,188025.500,200701.100,0.000
196852.500,207511.700,285560.200,276098.900,203994.500,193359.000,188609.600,201355.400,0.000
197197.200,208273.100,284545.600,276086.300,205270.300,193915.300,189414.800,202057.500,0.000
196756.500,207954.600,282360.000,275361.900,205221.900,193551.200,189169.300,201669.700,0.000
195981.600,206828.400,279140.700,274277.500,203758.600,192611.300,188061.500,200563.000,0.000
195782.400,206283.900,276533.900,273700.500,202745.200,192235.700,187473.300,200103.000,0.000
196295.400,206921.300,275442.200,273833.100,203442.400,192801.000,188079.100,200783.500,0.000
196678.600,207717.700,274752.400,273918.800,204748.500,193389.600,188912.400,201524.500,0.000
196264.600,207430.300,272876.700,273270.800,204726.500,193053.200,188692.500,201163.400,0.000
195515.900,206338.900,269961.900,272257.400,203299.300,192148.800,187619.800,200088.700,0.000
195343.200,205823.400,267647.000,271748.500,202318.000,191806.400,187058.900,199659.000,0.000
195875.600,206481.200,266824.800,271942.400,203028.600,192392.300,187679.900,200355.500,0.000
196268.400,207285.100,266387.100,272074.300,204340.000,192991.700,188521.300,201105.000,0.000
195894.700,207039.400,264785.300,271495.800,204361.200,192696.000,188342.000,200786.200,0.000
195167.400,205971.300,262111.900,270527.300,202957.100,191811.300,187287.200,199732.300,0.000
195008.500,205472.500,260028.300,270071.300,201993.300,191485.400,186741.500,199320.600,0.000
195565.800,206162.500,259446.600,270329.400,202739.800,192103.700,187397.800,200048.900,0.000
195969.300,206980.200,259222.500,270501.300,204064.100,192714.100,188255.400,200809.200,0.000
195607.100,206754.200,257835.100,269966.500,204105.000,192433.700,188097.400,200505.300,0.000
194894.700,205703.800,255367.900,269051.400,202719.300,191566.400,187061.800,199471.000,0.000
194746.600,205208.300,253465.100,268631.400,201755.100,191244.000,186516.200,199065.800,0.000
195305.400,205887.600,253040.100,268913.700,202482.300,191852.300,187158.000,199787.500,0.000
195728.200,206733.200,252999.300,269138.100,203826.600,192483.900,188034.200,200569.400,0.000
195381.000,206526.900,251783.100,268638.700,203883.900,192217.000,187882.800,200278.700,0.000
194685.000,205495.900,249488.300,267759.700,202520.700,191361.700,186858.900,199260.500,0.000
194550.800,205016.100,247753.500,267375.800,201578.500,191051.800,186329.600,198870.700,0.000
195115.600,205703.400,247485.300,267684.000,202319.300,191668.500,186980.000,199602.700,0.000
195548.400,206555.600,247598.500,267939.000,203675.000,192315.800,187866.100,200400.700,0.000
195206.300,206348.500,246521.800,267480.400,203733.300,192057.500,187717.700,200117.600,0.000
194518.400,205325.500,244362.900,266640.200,202377.100,191214.100,186700.800,199107.000,0.000
194384.000,204850.600,242747.200,266281.600,201434.300,190908.300,186172.200,198716.200,0.000
194959.700,205551.100,242601.200,266622.300,202184.400,191535.100,186830.200,199454.700,0.000
195412.700,206424.800,242840.300,266919.000,203554.100,192193.300,187729.500,200264.400,0.000
195099.900,206247.400,241904.100,266508.600,203646.100,191962.700,187616.200,200014.900,0.000
194428.500,205236.000,239864.500,265699.300,202305.300,191131.500,186616.400,199020.100,0.000
194307.700,204772.700,238366.100,265362.100,201376.100,190839.000,186100.600,198642.700,0.000
194888.400,205479.300,238331.600,265721.900,202129.800,191471.900,186765.600,199390.400,0.000
195336.400,206342.200,238666.000,266027.600,203494.000,192126.200,187659.500,200194.200,0.000
195020.000,206158.100,237812.200,265616.800,203576.500,191886.400,187537.400,199931.900,0.000
194351.600,205154.200,235869.800,264825.400,202242.900,191058.500,186545.900,198941.800,0.000
194227.600,204685.500,234456.400,264501.100,201312.700,190760.000,186031.400,198562.300,0.000
194813.200,205391.100,234500.600,264874.300,202062.500,191389.500,186695.800,199306.300,0.000
195273.900,206269.200,234928.800,265200.200,203437.500,192054.900,187600.800,200124.500,0.000
194952.100,206085.800,234164.200,264801.300,203531.100,191813.700,187478.000,199865.800,0.000
194278.100,205077.700,232297.400,264014.300,202194.900,190974.100,186473.500,198868.700,0.000
194149.300,204598.300,230948.300,263711.400,201247.500,190663.900,185943.000,198481.300,0.000
194730.500,205297.000,231063.200,264103.700,201990.000,191293.900,186605.400,199226.100,0.000
195194.000,206184.400,231567.700,264436.600,203368.700,191963.100,187513.700,200046.200,0.000
194880.500,206007.600,230874.900,264054.900,203462.000,191728.100,187395.900,199794.400,0.000
194215.600,205006.000,229080.600,263292.800,202128.700,190903.000,186403.100,198805.000,0.000
194102.000,204549.900,227815.200,263002.000,201202.400,190612.600,185892.300,198430.000,0.000
194690.500,205257.200,228001.700,263405.900,201956.300,191251.500,186558.800,199177.800,0.000
195160.300,206141.800,228576.100,263771.300,203345.100,191929.400,187479.600,200009.000,0.000
194858.000,205983.700,227960.100,263412.600,203456.600,191707.500,187380.100,199771.300,0.000
194187.600,204980.300,226221.500,262636.200,202125.000,190880.200,186385.200,198777.800,0.000
194069.800,204519.000,225006.400,262353.300,201190.600,190586.300,185867.200,198396.800,0.000
194656.500,205225.600,225246.700,262772.600,201942.600,191222.800,186533.100,199147.000,0.000
195118.100,206105.100,225862.100,263130.700,203320.100,191891.300,187438.600,199968.600,0.000
194823.300,205951.800,225302.700,262788.500,203436.700,191680.100,187344.300,199738.400,0.000
194147.800,204945.900,223611.500,262028.100,202103.400,190853.400,186353.900,198749.700,0.000
194025.800,204480.400,222439.600,261750.300,201162.300,190553.400,185832.500,198366.700,0.000
194614.400,205184.000,222723.400,262174.800,201905.200,191187.400,186494.600,199113.200,0.000
195084.500,206072.300,223394.200,262547.800,203289.000,191863.000,187410.300,199939.800,0.000
194793.900,205920.600,222888.800,262223.600,203414.200,191655.100,187323.500,199715.900,0.000
194127.700,204923.100,221251.800,261480.800,202090.500,190833.400,186337.000,198733.700,0.000
194023.700,204478.200,220141.000,261228.800,201166.400,190546.100,185832.200,198365.000,0.000
194616.900,205188.000,220473.100,261662.100,201915.700,191183.400,186500.700,199113.200,0.000
195082.700,206062.500,221173.500,262026.300,203287.100,191846.000,187403.800,199928.500,0.000
194783.300,205902.500,220696.100,261690.500,203394.700,191623.800,187300.300,199691.300,0.000
194122.100,204907.900,219101.300,260962.300,202068.600,190805.100,186312.900,198709.800,0.000
194002.400,204436.500,218006.600,260700.800,201121.900,190507.300,185788.300,198324.300,0.000
194603.900,205155.000,218380.600,261144.700,201872.700,191155.300,186461.600,199077.400,0.000
195077.400,206051.500,219135.500,261533.700,203261.100,191837.000,187382.300,199909.400,0.000
194795.700,205914.800,218714.200,261225.600,203394.700,191637.700,187304.000,199693.300,0.000
194140.100,204930.800,217162.800,260508.500,202085.800,190827.200,186330.700,198720.900,0.000
194013.200,204459.100,216104.400,260251.400,201145.200,190526.000,185810.400,198334.000,0.000
194595.100,205157.200,216492.200,260680.400,201878.400,191154.500,186466.100,199070.100,0.000
195064.900,206041.600,217270.400,261068.700,203256.900,191831.500,187378.600,199899.200,0.000
194769.400,205891.000,216870.400,260752.200,203381.500,191621.200,187288.700,199673.200,0.000
194111.600,204900.200,215339.400,260037.000,202061.200,190804.900,186306.200,198694.100,0.000
193992.200,204436.600,214309.000,259789.700,201122.100,190511.600,185788.700,198315.900,0.000
194575.000,205135.000,214723.500,260231.900,201852.500,191141.100,186444.700,199056.700,0.000
195044.500,206023.200,215531.600,260629.900,203236.400,191815.200,187359.100,199885.400,0.000
194758.400,205879.200,215167.300,260327.000,203369.900,191607.400,187276.000,199662.100,0.000
194100.600,204892.900,213674.000,259618.800,202059.400,190794.400,186302.200,198686.900,0.000
193984.500,204431.800,212672.500,259375.800,201118.000,190496.000,185783.000,198302.500,0.000
194570.300,205132.800,213116.000,259827.300,201853.500,191128.500,186441.000,199042.800,0.000
195046.900,206033.800,213963.200,260227.400,203249.600,191817.600,187366.200,199879.400,0.000
194751.200,205882.400,213615.500,259916.400,203375.800,191601.300,187271.200,199650.800,0.000
194084.600,204888.300,212137.300,259204.800,202059.500,190779.400,186286.700,198668.800,0.000
193973.900,204429.300,211167.900,258977.500,201129.800,190493.700,185779.000,198295.400,0.000
194573.200,205134.800,211637.200,259443.300,201867.400,191131.900,186441.300,199043.300,0.000
195053.000,206023.100,212496.600,259855.500,203249.000,191810.500,187356.800,199874.900,0.000
194766.600,205879.500,212180.700,259552.200,203381.100,191606.000,187272.600,199653.700,0.000
194113.600,204893.700,210733.400,258854.900,202072.800,190793.300,186298.100,198682.500,0.000
193992.400,204422.900,209770.300,258619.300,201124.800,190490.400,185774.200,198296.000,0.000
194591.700,205130.000,210261.200,259084.800,201859.700,191131.500,186441.400,199045.400,0.000
195081.600,206032.800,211148.400,259515.600,203248.400,191820.800,187366.500,199888.400,0.000
194794.600,205889.800,210851.400,259214.000,203383.400,191615.200,187283.400,199666.100,0.000
194133.100,204901.500,209422.100,258512.800,202077.100,190804.700,186312.100,198690.700,0.000
194008.300,204424.700,208474.200,258277.100,201127.600,190498.000,185786.300,198301.000,0.000
194597.800,205123.800,208979.200,258735.600,201855.800,191124.700,186438.800,199039.200,0.000
195090.600,206024.700,209893.300,259167.200,203249.000,191811.900,187364.300,199880.100,0.000
194827.500,205901.300,209637.400,258905.400,203402.800,191623.100,187297.300,199677.800,0.000
194155.700,204905.000,208219.100,258197.300,202087.800,190801.800,186314.600,198692.900,0.000
194013.300,204415.100,207274.000,257947.100,201124.500,190483.500,185774.400,198289.100,0.000
194597.100,205112.200,207791.000,258415.700,201854.400,191109.800,186426.600,199027.200,0.000
195097.800,206030.800,208732.600,258858.200,203265.800,191815.300,187369.400,199883.700,0.000
194809.600,205896.800,208479.500,258570.900,203410.800,191613.700,187291.800,199668.400,0.000
194138.400,204902.300,207076.700,257872.000,202096.300,190789.000,186303.700,198684.800,0.000
194009.500,204428.100,206158.800,257641.300,201147.600,190481.400,185774.400,198294.800,0.000
194581.900,205113.400,206673.900,258098.600,201860.900,191097.900,186414.300,199020.200,0.000
195060.500,206011.800,207607.100,258530.900,203251.700,191785.300,187340.200,199860.700,0.000
194780.400,205885.400,207378.700,258253.000,203411.600,191596.800,187279.500,199657.300,0.000
194115.500,204899.000,205997.500,257563.700,202108.200,190784.300,186307.600,198683.600,0.000
193976.600,204409.000,205080.900,257327.100,201143.100,190468.800,185768.100,198278.600,0.000
194560.300,205097.500,205622.100,257794.600,201863.800,191096.600,186419.300,199013.600,0.000
195043.800,205993.100,206573.600,258232.800,203253.600,191785.600,187343.800,199854.400,0.000
194748.100,205847.500,206334.200,257953.300,203383.300,191575.900,187256.000,199630.700,0.000
194086.100,204870.200,204972.200,257262.000,202086.300,190768.700,186293.000,198660.200,0.000
193950.000,204384.800,204071.100,257028.400,201124.800,190455.900,185757.200,198257.600,0.000
194530.500,205071.100,204610.400,257499.900,201831.300,191076.000,186396.300,198985.900,0.000
195036.500,205994.800,205596.700,257963.000,203244.000,191784.100,187342.900,199848.400,0.000
194757.700,205870.200,205396.100,257693.100,203402.000,191591.000,187275.600,199643.100,0.000
194087.200,204873.800,204032.000,257006.500,202089.100,190765.300,186290.300,198654.800,0.000
193959.400,204393.700,203147.500,256779.600,201130.700,190455.700,185758.100,198256.000,0.000
194547.200,205082.700,203702.900,257261.300,201840.500,191079.900,186400.300,198988.300,0.000
195026.100,205982.000,204674.400,257696.200,203229.600,191767.200,187322.700,199829.300,0.000
194739.700,205855.200,204481.300,257416.700,203389.200,191572.300,187254.100,199621.500,0.000
194078.800,204874.000,203137.000,256730.700,202089.600,190760.600,186279.000,198645.100,0.000
193944.000,204382.700,202250.500,256503.000,201119.800,190445.800,185736.500,198240.200,0.000
194523.100,205065.700,202812.900,256985.300,201824.100,191070.700,186379.200,198970.300,0.000
195017.500,205977.200,203810.200,257439.800,203230.200,191777.000,187320.200,199827.700,0.000
194754.600,205872.900,203652.600,257187.500,203414.400,191603.500,187275.500,199645.300,0.000
194098.200,204896.300,202329.400,256512.200,202124.400,190791.300,186308.300,198676.500,0.000
193937.100,204383.600,201432.000,256257.700,201130.900,190446.100,185739.900,198244.900,0.000
194517.600,205064.700,201998.500,256728.700,201828.800,191061.000,186373.100,198967.500,0.000
195014.600,205973.900,203002.000,257181.200,203228.700,191760.100,187306.500,199819.500,0.000
194761.100,205871.700,202859.400,256949.500,203415.500,191591.800,187265.300,199640.700,0.000
194088.400,204874.700,201528.200,256254.800,202110.500,190768.500,186284.600,198655.200,0.000
193951.100,204381.300,200653.700,256023.900,201132.300,190444.600,185736.200,198243.100,0.000
194539.100,205059.100,201225.600,256505.100,201824.500,191060.500,186368.800,198968.000,0.000
195034.400,205964.600,202235.400,256958.100,203218.500,191757.400,187301.200,199817.000,0.000
194766.000,205850.100,202082.400,256704.300,203389.000,191572.500,187244.900,199625.000,0.000
194108.000,204867.100,200764.300,256029.500,202086.500,190756.000,186269.400,198650.600,0.000
193976.800,204379.300,199907.400,255810.900,201119.100,190443.800,185731.400,198248.000,0.000
194560.000,205060.600,200490.800,256289.900,201816.400,191063.500,186370.900,198973.600,0.000
195054.400,205968.800,201510.000,256746.800,203214.800,191764.800,187306.800,199828.000,0.000
194793.300,205865.400,201379.800,256505.100,203402.900,191590.900,187264.400,199646.100,0.000
194132.000,204889.400,200079.600,255836.300,202109.400,190776.500,186293.800,198670.600,0.000
193971.300,204374.600,199205.500,255594.800,201116.300,190435.900,185727.300,198241.100,0.000
194551.500,205054.400,199799.100,256075.600,201815.000,191053.900,186364.000,198963.700,0.000
195047.000,205970.100,200835.700,256527.400,203224.400,191758.800,187309.100,199821.100,0.000
194772.500,205858.400,200700.100,256270.500,203397.700,191574.000,187253.400,199627.300,0.000
194103.500,204870.600,199397.200,255597.000,202102.500,190756.400,186277.900,198650.300,0.000
193948.700,204361.500,198531.300,255366.500,201118.400,190426.500,185721.800,198230.500,0.000
194524.300,205038.300,199122.400,255845.500,201808.100,191042.300,186352.200,198950.100,0.000
195022.000,205955.300,200167.900,256310.300,203216.500,191750.500,187296.500,199813.000,0.000
194758.000,205856.000,200056.300,256078.000,203408.800,191580.300,187257.800,199637.400,0.000
194095.500,204880.500,198772.500,255416.800,202121.700,190770.900,186293.800,198666.600,0.000
193947.300,204375.100,197920.700,255184.600,201137.600,190441.500,185735.000,198240.800,0.000
194512.600,205040.600,198508.800,255648.600,201817.600,191044.000,186355.300,198948.200,0.000
195010.000,205953.400,199554.200,256112.500,203220.400,191745.100,187292.100,199806.400,0.000
194752.200,205855.200,199449.300,255882.200,203414.700,191575.400,187254.200,199631.300,0.000
194086.900,204871.100,198163.300,255216.800,202119.200,190760.200,186284.700,198659.000,0.000
193931.500,204359.600,197306.300,254983.200,201123.300,190425.100,185721.700,198231.600,0.000
194500.700,205028.500,197899.900,255455.900,201801.900,191035.700,186346.800,198944.700,0.000
195007.000,205950.600,198958.300,255935.300,203213.700,191752.500,187295.600,199813.700,0.000
194755.900,205864.500,198871.800,255711.000,203424.900,191597.400,187270.900,199649.000,0.000
194084.000,204881.700,197593.800,255041.800,202138.500,190779.800,186302.200,198674.000,0.000
193927.500,204366.600,196740.400,254808.800,201142.500,190438.100,185737.500,198241.500,0.000
194503.600,205040.300,197344.700,255287.000,201822.700,191050.400,186366.000,198956.900,0.000
195006.500,205958.900,198406.900,255754.100,203230.000,191759.200,187309.900,199820.400,0.000
194747.000,205855.000,198309.300,255521.500,203418.900,191584.900,187265.100,199641.400,0.000
194074.700,204868.900,197034.600,254848.000,202127.100,190767.200,186292.200,198665.400,0.000
193915.600,204351.600,196181.800,254616.100,201125.800,190423.700,185723.600,198232.900,0.000
194489.600,205013.200,196779.400,255101.400,201796.200,191031.300,186344.000,198947.900,0.000
194987.900,205932.400,197841.800,255569.100,203199.100,191738.400,187282.400,199810.000,0.000
194730.500,205843.000,197762.300,255337.200,203404.000,191575.000,187249.600,199638.500,0.000
194065.800,204862.600,196497.900,254673.400,202119.700,190759.100,186282.100,198665.200,0.000
193903.700,204348.700,195653.700,254437.000,201122.700,190418.400,185717.400,198232.800,0.000
194479.700,205016.300,196261.400,254923.100,201798.500,191030.800,186342.600,198947.200,0.000
194979.500,205929.600,197329.800,255401.400,203204.900,191737.600,187283.800,199809.700,0.000
194713.000,205830.300,197247.700,255157.600,203404.300,191560.500,187239.100,199629.300,0.000
194057.300,204858.800,195998.400,254500.800,202128.400,190750.800,186277.400,198660.800,0.000
193906.700,204348.300,195163.600,254274.700,201133.900,190416.400,185716.400,198229.200,0.000
194480.200,205015.500,195772.800,254759.700,201807.100,191026.000,186336.400,198939.500,0.000
194993.900,205940.500,196855.000,255257.700,203219.500,191738.900,187285.000,199809.900,0.000
194732.300,205851.000,196786.600,255025.200,203430.700,191574.300,187255.100,199641.900,0.000
194052.100,204867.000,195529.800,254343.800,202147.200,190756.900,186286.400,198659.900,0.000
193889.900,204344.300,194685.200,254107.700,201138.100,190409.900,185711.400,198216.700,0.000
194456.400,204995.700,195283.500,254590.400,201791.600,191010.600,186321.200,198919.300,0.000
194973.100,205925.100,196375.500,255075.300,203208.100,191729.100,187275.900,199794.100,0.000
194724.500,205840.800,196320.700,254854.500,203425.600,191572.300,187252.900,199632.500,0.000
194055.300,204854.500,195063.500,254193.700,202139.500,190755.200,186283.300,198655.900,0.000
193902.100,204340.300,194228.600,253969.200,201137.900,190416.500,185717.800,198222.700,0.000
194473.400,205001.000,194839.700,254448.500,201802.700,191023.400,186336.600,198930.300,0.000
194981.500,205926.100,195929.700,254933.500,203216.100,191738.900,187287.300,199801.300,0.000
194728.700,205841.800,195879.000,254713.200,203436.100,191581.600,187263.000,199636.900,0.000
194062.100,204864.600,194635.200,254049.300,202157.400,190770.700,186299.200,198665.400,0.000
193905.300,204346.600,193802.200,253822.300,201151.900,190429.200,185732.300,198229.500,0.000
194472.700,205003.100,194408.200,254303.300,201804.100,191029.500,186344.800,198931.300,0.000
194973.900,205925.200,195493.500,254779.900,203208.800,191737.600,187288.900,199795.200,0.000
194727.300,205852.300,195456.900,254570.800,203440.400,191587.600,187275.300,199639.800,0.000
194062.400,204874.200,194220.800,253914.400,202166.900,190774.700,186311.100,198668.500,0.000
193896.400,204343.700,193381.200,253672.900,201152.800,190423.800,185733.700,198221.400,0.000
194464.600,204998.100,193989.000,254149.500,201803.300,191021.400,186343.000,198919.500,0.000
194977.000,205927.300,195085.400,254640.100,203214.900,191736.300,187292.800,199789.700,0.000
194733.600,205855.600,195051.400,254436.300,203444.700,191588.200,187278.400,199638.900,0.000
194062.900,204877.300,193815.700,253774.300,202170.500,190775.800,186314.400,198668.900,0.000
193893.300,204342.600,192974.300,253532.700,201155.100,190423.500,185733.300,198219.800,0.000
194462.100,204996.300,193588.300,254020.500,201809.500,191025.300,186341.400,198921.100,0.000
194969.800,205922.300,194682.300,254510.800,203215.900,191736.000,187286.900,199788.800,0.000
194720.100,205848.200,194646.200,254286.100,203440.800,191583.600,187268.800,199632.300,0.000
194061.600,204879.400,193423.600,253634.500,202175.000,190780.500,186314.500,198671.500,0.000
193902.400,204357.800,192591.800,253406.100,201162.900,190436.100,185740.200,198231.600,0.000
194460.500,204997.500,193194.700,253879.300,201801.300,191026.100,186336.800,198923.900,0.000
194973.500,205921.700,194298.700,254370.700,203214.600,191743.400,187284.800,199795.800,0.000
194732.400,205862.100,194279.900,254157.900,203456.700,191600.700,187277.600,199648.100,0.000
194057.800,204881.300,193046.200,253490.800,202179.900,190784.000,186309.800,198671.600,0.000
193882.500,204337.900,192205.700,253254.900,201158.500,190425.100,185722.500,198217.300,0.000
194444.900,204978.700,192810.500,253734.900,201794.200,191011.300,186319.700,198905.600,0.000
194967.700,205922.000,193929.900,254239.200,203214.600,191735.500,187279.200,199787.700,0.000
194725.900,205854.100,193912.700,254035.100,203451.600,191589.400,187270.300,199640.900,0.000
194055.800,204872.800,192684.700,253376.500,202174.800,190774.700,186306.700,198670.800,0.000
193884.800,204335.500,191845.600,253144.100,201148.200,190416.700,185719.000,198220.100,0.000
194456.500,204992.900,192462.700,253630.400,201793.600,191016.600,186322.200,198923.700,0.000
194973.700,205920.800,193576.300,254121.000,203205.100,191735.300,187272.000,199799.700,0.000
194729.800,205855.200,193565.900,253916.200,203446.800,191592.400,187264.500,199652.700,0.000
194061.000,204888.100,192350.400,253261.600,202180.100,190782.000,186306.900,198685.800,0.000
193887.400,204352.700,191516.400,253026.300,201155.300,190422.200,185720.600,198230.700,0.000
194447.000,204986.900,192120.700,253501.300,201787.500,191009.400,186313.600,198914.700,0.000
194956.900,205904.500,193224.800,253991.100,203190.400,191720.900,187256.500,199782.600,0.000
194728.700,205858.700,193231.600,253803.100,203447.100,191591.900,187262.300,199648.300,0.000
194055.900,204879.600,192012.300,253147.800,202177.300,190778.900,186299.200,198675.600,0.000
193875.900,204334.200,191174.300,252904.000,201146.500,190415.800,185707.700,198215.200,0.000
194441.300,204979.000,191783.900,253382.200,201777.400,191003.900,186301.300,198903.400,0.000
194967.100,205910.300,192902.400,253895.400,203192.400,191727.700,187254.700,199784.900,0.000
194729.900,205849.800,192905.000,253700.500,203443.300,191594.500,187255.600,199648.100,0.000
194057.200,204872.800,191689.200,253033.700,202176.800,190784.300,186295.300,198679.100,0.000
193884.400,204339.600,190858.000,252802.500,201147.900,190424.600,185707.300,198224.400,0.000
194449.400,204986.900,191479.700,253291.500,201785.200,191020.300,186313.300,198922.600,0.000
194959.900,205911.300,192596.600,253786.000,203192.900,191733.300,187264.200,199794.500,0.000
194724.400,205852.100,192603.000,253591.400,203447.200,191595.100,187266.000,199653.200,0.000
194060.600,204878.400,191397.200,252942.300,202184.100,190781.000,186306.500,198685.700,0.000
193886.500,204342.700,190568.200,252703.100,201156.100,190418.000,185714.800,198227.400,0.000
194447.900,204983.000,191184.800,253184.300,201785.800,191006.500,186310.600,198915.300,0.000
194977.100,205925.600,192322.100,253700.900,203207.200,191739.400,187278.900,199806.100,0.000
194741.100,205870.100,192335.000,253502.200,203464.200,191606.900,187287.300,199671.400,0.000
194058.600,204881.300,191111.100,252834.300,202184.300,190785.000,186313.300,198685.600,0.000
193884.000,204341.700,190280.200,252599.400,201157.800,190427.100,185725.200,198225.700,0.000
194445.600,204983.800,190893.300,253079.100,201787.800,191014.300,186320.000,198910.500,0.000
194958.800,205906.800,192010.100,253570.600,203196.400,191731.800,187266.300,199783.800,0.000
194722.400,205848.200,192023.700,253378.300,203455.300,191600.100,187270.600,199652.900,0.000
194050.600,204872.200,190819.900,252723.300,202193.400,190789.900,186310.200,198685.100,0.000
193875.800,204331.100,189987.300,252483.800,201158.500,190421.800,185712.700,198220.700,0.000
194435.900,204975.000,190599.700,252963.100,201783.300,191004.000,186300.500,198903.800,0.000
194950.900,205902.200,191718.400,253459.900,203190.400,191720.100,187248.200,199779.100,0.000
194718.800,205845.600,191732.600,253275.600,203446.000,191585.200,187255.800,199647.900,0.000
194053.800,204880.800,190537.500,252635.300,202192.400,190779.900,186306.800,198687.300,0.000
193876.800,204335.300,189702.700,252391.300,201155.100,190413.100,185709.100,198222.500,0.000
194441.200,204975.100,190316.900,252872.500,201779.800,191004.700,186303.800,198912.200,0.000
194967.400,205918.000,191452.300,253383.400,203200.100,191735.700,187267.300,199800.100,0.000
194727.900,205863.500,191469.900,253190.800,203461.100,191598.800,187273.500,199663.000,0.000
194058.400,204889.600,190271.700,252537.700,202205.000,190787.300,186318.600,198693.300,0.000
193873.900,204338.500,189436.000,252295.200,201166.900,190416.000,185718.200,198223.700,0.000
194423.900,204960.000,190037.400,252764.000,201774.400,190992.700,186296.100,198900.600,0.000
194952.300,205901.900,191175.400,253274.300,203193.200,191725.000,187259.400,199788.800,0.000
194740.800,205877.300,191219.800,253104.500,203482.700,191617.000,187289.300,199676.500,0.000
194075.600,204906.200,190023.500,252457.300,202224.600,190807.800,186331.900,198711.100,0.000
193881.800,204346.500,189177.000,252209.900,201173.400,190426.900,185721.500,198233.300,0.000
194431.800,204972.800,189780.000,252681.600,201781.900,191002.000,186299.500,198905.300,0.000
194950.200,205906.300,190915.000,253168.100,203197.300,191724.700,187254.700,199782.100,0.000
194733.600,205874.100,190956.000,252992.300,203476.700,191607.800,187277.600,199663.600,0.000
194065.400,204904.400,189762.600,252345.300,202218.400,190797.200,186321.900,198694.400,0.000
193875.000,204344.700,188920.300,252096.300,201168.800,190418.500,185712.800,198216.100,0.000
194431.700,204970.700,189526.300,252570.800,201777.800,190997.500,186295.900,198894.400,0.000
194962.100,205916.400,190669.300,253084.900,203198.100,191730.400,187262.300,199783.600,0.000
194750.000,205886.000,190717.400,252920.000,203483.900,191621.600,187291.600,199673.300,0.000
194077.000,204910.600,189517.200,252259.800,202221.700,190804.700,186328.400,198698.900,0.000
193890.200,204355.300,188678.100,252007.500,201175.000,190428.700,185720.000,198222.300,0.000
194438.000,204973.800,189275.800,252481.600,201772.400,190996.900,186288.000,198891.300,0.000
194956.500,205902.300,190409.400,252988.800,203179.100,191717.500,187240.900,199773.700,0.000
194727.600,205862.100,190445.600,252797.400,203452.800,191589.400,187257.300,199650.100,0.000
194059.700,204896.300,189256.600,252152.600,202200.900,190780.200,186303.800,198684.900,0.000
193871.500,204337.700,188414.800,251906.700,201150.700,190404.700,185695.900,198207.800,0.000
194430.100,204968.500,189023.300,252390.900,201758.600,190989.400,186282.600,198889.000,0.000
194953.600,205903.200,190164.500,252899.100,203172.500,191715.300,187240.900,199773.500,0.000
194727.500,205861.600,190211.100,252715.400,203454.800,191592.700,187264.600,199652.900,0.000
194068.300,204902.600,189034.000,252075.400,202211.500,190792.200,186321.100,198693.500,0.000
193885.400,204352.400,188205.700,251839.400,201163.100,190421.500,185721.600,198222.800,0.000
194430.600,204969.300,188807.300,252306.800,201754.800,190992.000,186295.500,198890.400,0.000
194950.000,205901.000,189945.600,252812.700,203162.100,191715.700,187248.500,199770.900,0.000
194734.600,205867.700,189997.500,252646.200,203447.900,191600.600,187276.400,199657.500,0.000
194067.700,204898.100,188814.900,252001.900,202201.100,190793.800,186325.300,198695.800,0.000
193876.200,204336.900,187975.400,251749.000,201148.400,190415.600,185712.600,198217.800,0.000
194428.400,204959.900,188576.000,252217.100,201746.700,190990.700,186283.500,198883.700,0.000
194960.000,205907.000,189725.500,252737.100,203171.500,191726.900,187249.900,199777.100,0.000
194735.900,205870.100,189776.000,252560.100,203455.600,191606.100,187276.000,199661.100,0.000
194064.700,204902.500,188594.100,251903.500,202206.500,190796.700,186326.400,198694.000,0.000
193873.400,204340.100,187750.500,251661.600,201149.800,190418.100,185714.300,198214.200,0.000
194423.100,204954.500,188343.900,252139.700,201736.500,190991.700,186282.400,198881.500,0.000
194950.200,205900.500,189496.400,252656.200,203161.500,191725.900,187248.800,199773.100,0.000
194731.800,205869.800,189555.000,252471.800,203454.300,191607.500,187276.300,199659.700,0.000
194070.900,204908.800,188382.500,251835.700,202213.500,190803.900,186331.600,198700.100,0.000
193867.800,204331.700,187529.600,251579.600,201141.700,190410.000,185706.800,198207.000,0.000
194417.500,204949.600,188132.200,252049.800,201734.400,190982.300,186281.000,198874.800,0.000
194942.800,205886.400,189279.200,252562.500,203153.300,191711.700,187241.000,199759.900,0.000
194730.100,205860.900,189342.400,252394.800,203453.500,191602.200,187273.700,199651.900,0.000
194066.400,204904.800,188173.200,251754.100,202218.000,190801.200,186328.700,198693.000,0.000
193868.700,204338.900,187330.500,251506.500,201157.900,190415.100,185710.700,198205.100,0.000
194425.400,204957.900,187930.000,251988.300,201746.200,190989.500,186283.200,198873.200,0.000
194951.000,205893.300,189075.000,252500.400,203156.900,191719.800,187242.300,199762.600,0.000
194729.700,205861.900,189139.000,252321.600,203457.500,191609.700,187277.100,199656.400,0.000
194068.100,204903.600,187972.400,251688.500,202223.400,190807.500,186336.000,198699.500,0.000
193868.200,204330.900,187124.200,251429.500,201155.000,190417.800,185714.700,198206.900,0.000
194416.400,204945.900,187721.000,251897.700,201739.300,190987.400,186281.500,198871.700,0.000
194949.900,205895.300,188880.600,252420.600,203166.000,191724.900,187250.900,199770.200,0.000
194737.900,205876.600,188954.400,252255.800,203471.600,191615.300,187290.100,199668.000,0.000
194076.100,204916.500,187789.700,251617.900,202233.900,190811.800,186345.600,198707.800,0.000
193878.400,204345.500,186944.900,251364.200,201169.100,190421.100,185722.400,198216.700,0.000
194428.500,204961.700,187539.400,251834.200,201752.900,190989.500,186283.600,198877.300,0.000
194958.200,205901.200,188693.200,252350.000,203173.000,191723.500,187245.200,199768.500,0.000
194744.800,205876.500,188764.000,252183.600,203475.200,191614.500,187278.800,199662.300,0.000
194090.300,204923.700,187603.700,251553.200,202243.000,190815.900,186337.200,198708.400,0.000
193876.400,204337.500,186748.000,251284.600,201164.700,190413.800,185704.900,198207.600,0.000
194421.900,204944.500,187339.600,251755.200,201742.800,190977.600,186267.200,198867.100,0.000
194961.400,205901.200,188504.300,252282.500,203169.700,191721.700,187244.900,199770.500,0.000
194752.400,205890.300,188585.100,252113.700,203481.400,191624.500,187290.300,199672.900,0.000
194080.600,204924.600,187415.000,251467.800,202241.900,190817.500,186341.200,198708.000,0.000
193875.700,204344.700,186561.800,251211.500,201165.700,190417.300,185710.000,198209.700,0.000
194418.700,204954.700,187154.600,251677.300,201743.200,190978.200,186267.700,198864.500,0.000
194948.300,205891.200,188304.900,252193.800,203156.500,191706.800,187223.900,199751.100,0.000
194745.800,205882.000,188393.100,252041.000,203475.500,191612.000,187275.000,199662.000,0.000
194083.600,204928.700,187238.300,251402.700,202250.300,190814.400,186336.000,198708.000,0.000
193874.400,204349.900,186386.800,251138.900,201174.300,190414.700,185704.800,198208.700,0.000
194416.100,204948.900,186975.800,251611.000,201743.400,190976.000,186262.900,198866.400,0.000
194947.000,205885.900,188127.100,252134.000,203155.000,191709.300,187226.500,199759.700,0.000
194746.200,205883.100,188213.900,251980.000,203473.800,191612.600,187277.400,199665.500,0.000
194082.500,204928.000,187057.000,251332.900,202249.300,190812.600,186339.000,198706.300,0.000
193875.100,204346.600,186208.100,251073.200,201179.500,190417.100,185712.700,198209.400,0.000
194408.700,204938.600,186785.100,251533.000,201739.400,190967.100,186257.600,198854.900,0.000
194948.400,205892.000,187946.500,252053.600,203160.100,191704.000,187224.600,199749.300,0.000
194742.700,205883.400,188038.600,251896.800,203481.300,191606.000,187274.800,199655.500,0.000
194070.800,204917.900,186876.400,251252.700,202248.700,190800.200,186331.100,198694.800,0.000
193867.600,204339.600,186028.300,251001.100,201173.000,190405.600,185705.500,198200.300,0.000
194407.700,204940.800,186615.700,251466.700,201738.000,190961.200,186260.400,198852.500,0.000
194941.900,205884.800,187773.500,251987.300,203155.500,191697.600,187226.000,199746.000,0.000
194740.400,205881.500,187870.300,251832.800,203479.700,191606.600,187278.500,199656.200,0.000
194071.800,204921.500,186712.400,251190.000,202249.100,190800.300,186333.500,198695.800,0.000
193865.700,204339.600,185858.300,250934.500,201167.100,190400.000,185701.600,198192.700,0.000
194419.300,204947.300,186452.300,251415.600,201734.700,190969.900,186262.100,198851.900,0.000
194952.600,205890.200,187612.500,251942.100,203151.200,191709.400,187227.300,199748.300,0.000
194747.700,205884.000,187710.500,251775.900,203476.100,191617.000,187284.700,199661.900,0.000
194087.500,204930.900,186556.900,251136.900,202248.500,190818.300,186348.400,198707.900,0.000
193872.600,204341.600,185694.500,250867.900,201165.100,190414.200,185709.600,198198.200,0.000
194413.500,204941.000,186273.200,251332.500,201724.400,190972.100,186257.500,198845.700,0.000
194956.900,205897.200,187442.700,251863.100,203150.900,191717.700,187231.900,199750.900,0.000
194752.800,205892.700,187545.500,251714.000,203479.200,191621.300,187290.500,199668.300,0.000
194081.500,204933.000,186392.400,251069.900,202258.200,190814.700,186354.200,198710.300,0.000
193864.800,204338.000,185530.500,250806.500,201168.300,190405.200,185714.700,198197.200,0.000
194397.200,204927.800,186103.700,251263.700,201716.000,190956.700,186251.800,198839.800,0.000
194942.000,205883.500,187274.800,251798.000,203142.900,191702.100,187224.800,199744.600,0.000
194745.200,205884.700,187380.800,251650.300,203478.900,191612.500,187286.400,199663.700,0.000
194075.400,204922.700,186224.200,250994.600,202249.500,190804.900,186342.900,198701.400,0.000
193857.000,204329.300,185365.200,250729.100,201157.500,190398.700,185703.900,198193.200,0.000
194399.700,204929.900,185953.400,251201.400,201712.300,190958.800,186256.700,198844.800,0.000
194943.300,205887.200,187130.900,251738.000,203140.100,191706.600,187237.500,199752.500,0.000
194745.000,205891.000,187239.500,251591.200,203476.800,191616.700,187299.300,199673.400,0.000
194074.700,204931.200,186085.700,250943.100,202250.100,190810.100,186356.600,198712.500,0.000
193858.100,204336.200,185225.200,250682.500,201158.400,190400.900,185714.500,198200.900,0.000
194389.500,204922.800,185799.200,251137.200,201705.600,190951.700,186255.800,198839.700,0.000
194936.400,205878.300,186973.500,251674.800,203135.600,191700.400,187230.600,199749.800,0.000
194742.400,205887.600,187088.200,251535.600,203480.300,191618.500,187297.700,199677.700,0.000
194070.800,204929.900,185933.500,250882.800,202256.800,190811.800,186356.700,198716.200,0.000
193859.900,204340.000,185072.700,250619.000,201167.800,190406.700,185718.200,198207.200,0.000
194391.200,204921.700,185641.100,251074.600,201705.200,190952.400,186254.500,198841.500,0.000
194933.500,205873.600,186816.900,251603.400,203130.900,191696.900,187228.600,199746.000,0.000
194747.200,205892.400,186945.700,251463.500,203486.600,191621.300,187303.100,199678.100,0.000
194075.300,204929.400,185794.500,250820.300,202264.800,190814.700,186361.200,198718.100,0.000
193857.000,204330.000,184927.700,250553.100,201167.400,190402.400,185713.000,198199.900,0.000
194396.800,204919.500,185506.300,251023.200,201715.800,190960.000,186262.300,198843.800,0.000
194938.600,205873.800,186678.300,251553.600,203144.400,191706.300,187239.100,199749.000,0.000
194749.300,205891.900,186802.700,251413.700,203497.100,191625.500,187312.000,199679.700,0.000
194087.900,204947.200,185665.300,250780.500,202286.400,190827.700,186378.600,198727.200,0.000
193875.300,204360.000,184810.000,250522.200,201198.300,190422.200,185736.800,198212.200,0.000
194403.100,204938.100,185376.600,250984.100,201729.200,190966.600,186267.300,198843.900,0.000
194944.600,205883.000,186539.900,251510.400,203141.000,191706.700,187234.700,199748.300,0.000
194753.100,205894.000,186664.100,251366.400,203488.500,191623.700,187308.300,199679.900,0.000
194081.500,204938.100,185523.600,250724.100,202271.100,190820.300,186373.900,198721.400,0.000
193861.300,204333.400,184655.900,250460.200,201168.400,190404.700,185723.300,198201.500,0.000
194393.000,204910.200,185220.300,250924.800,201699.100,190948.200,186255.900,198840.900,0.000
194930.400,205860.700,186391.200,251450.700,203120.700,191692.600,187227.100,199744.900,0.000
194741.300,205879.700,186523.800,251309.500,203479.300,191619.700,187304.300,199682.300,0.000
194084.200,204936.800,185394.000,250678.700,202275.600,190829.000,186378.700,198738.200,0.000
193860.400,204330.400,184522.600,250409.700,201167.000,190407.000,185723.700,198210.800,0.000
194398.300,204918.800,185098.700,250874.600,201706.500,190958.200,186264.400,198850.300,0.000
194943.900,205871.300,186271.200,251406.400,203129.000,191700.500,187236.200,199752.700,0.000
194759.200,205890.500,186404.600,251277.500,203489.700,191625.400,187315.300,199690.900,0.000
194082.900,204938.600,185264.000,250625.700,202275.900,190819.000,186375.000,198731.400,0.000
193849.500,204327.000,184387.000,250341.200,201164.900,190393.300,185710.700,198197.800,0.000
194386.300,204910.800,184953.900,250805.300,201695.100,190941.000,186242.900,198831.700,0.000
194930.500,205862.900,186125.900,251341.700,203115.000,191688.700,187213.500,199736.400,0.000
194748.000,205887.600,186266.400,251211.800,203484.100,191621.800,187300.400,199678.700,0.000
194090.800,204948.400,185138.500,250577.500,202285.600,190829.600,186378.600,198731.000,0.000
193866.500,204345.900,184267.900,250305.400,201183.200,190408.000,185721.900,198200.500,0.000
194389.300,204907.900,184822.800,250757.000,201698.700,190941.500,186239.100,198822.200,0.000
194928.000,205853.300,185992.300,251290.200,203108.000,191680.800,187205.100,199725.500,0.000
194745.200,205880.300,186136.900,251152.800,203473.500,191608.600,187290.500,199669.200,0.000
194081.000,204934.600,185012.400,250512.300,202272.200,190816.300,186368.400,198724.000,0.000
193850.900,204322.100,184140.400,250241.100,201162.600,190395.000,185713.800,198197.700,0.000
194382.700,204900.600,184704.600,250698.800,201682.500,190935.900,186241.500,198826.200,0.000
194935.000,205861.300,185888.700,251241.100,203108.900,191691.300,187225.300,199742.600,0.000
194754.900,205889.600,186037.300,251113.000,203480.500,191625.700,187316.300,199688.800,0.000
194089.100,204939.000,184906.300,250476.900,202278.000,190831.700,186389.100,198739.100,0.000
193849.500,204318.600,184022.300,250190.300,201157.800,190403.300,185722.700,198199.100,0.000
194386.500,204907.900,184594.300,250652.800,201684.100,190953.700,186257.000,198834.000,0.000
194929.800,205857.100,185764.600,251183.500,203099.000,191694.200,187223.200,199735.600,0.000
194752.600,205891.100,185915.700,251062.000,203481.100,191634.300,187314.300,199690.700,0.000
194085.900,204943.000,184785.400,250430.300,202285.600,190841.200,186383.900,198741.300,0.000
193849.200,204325.000,183903.400,250145.600,201166.900,190411.000,185715.600,198199.700,0.000
194375.500,204898.400,184457.800,250589.600,201678.500,190943.600,186235.600,198819.800,0.000
194925.600,205861.500,185639.400,251131.500,203104.100,191697.000,187217.900,199736.000,0.000
194749.200,205897.100,185793.500,251008.200,203485.000,191640.400,187316.900,199691.600,0.000
194087.800,204952.900,184670.200,250376.600,202288.300,190850.300,186393.500,198746.600,0.000
193861.000,204338.400,183796.300,250103.500,201174.300,190422.900,185732.200,198212.400,0.000
194386.900,204907.300,184350.800,250561.500,201690.200,190959.100,186254.100,198834.000,0.000
194938.100,205870.600,185534.600,251101.100,203117.800,191713.300,187233.900,199748.400,0.000
194751.300,205897.400,185683.400,250962.600,203490.700,191643.100,187321.300,199691.500,0.000
194082.500,204949.600,184557.100,250324.200,202292.100,190848.200,186393.900,198743.600,0.000
193849.800,204335.000,183678.100,250045.400,201177.300,190420.300,185727.400,198211.100,0.000
194376.700,204899.900,184228.100,250494.800,201681.300,190952.400,186239.800,198829.600,0.000
194928.100,205863.700,185415.100,251026.200,203110.000,191710.500,187219.900,199743.400,0.000
194757.800,205905.000,185580.900,250904.900,203502.700,191656.700,187322.600,199704.300,0.000
194094.900,204964.000,184459.300,250274.700,202307.500,190856.400,186394.800,198757.500,0.000
193852.100,204332.300,183563.200,249984.600,201171.400,190415.800,185713.900,198209.400,0.000
194366.800,204884.100,184100.200,250437.200,201664.300,190944.300,186222.300,198822.700,0.000
194924.700,205854.700,185289.400,250984.400,203092.000,191705.700,187211.300,199743.900,0.000
194755.000,205898.400,185455.400,250866.300,203484.000,191653.000,187317.600,199707.400,0.000
194088.300,204954.900,184334.000,250227.400,202291.900,190858.000,186394.900,198760.800,0.000
193846.200,204330.500,183441.900,249937.600,201160.200,190416.400,185717.600,198210.700,0.000
194372.000,204895.100,183988.500,250394.500,201660.900,190948.500,186228.200,198825.300,0.000
194934.400,205866.200,185182.400,250948.700,203095.500,191712.500,187215.600,199748.900,0.000
194764.900,205911.100,185353.400,250829.500,203488.100,191658.300,187320.700,199712.000,0.000
194087.100,204961.400,184227.000,250182.100,202287.900,190851.800,186392.700,198758.500,0.000
193851.300,204339.700,183343.600,249900.900,201164.700,190416.600,185722.300,198215.500,0.000
194380.900,204901.000,183887.900,250359.000,201664.000,190949.800,186232.900,198830.500,0.000
194933.100,205859.400,185063.900,250898.700,203085.200,191701.400,187208.300,199739.800,0.000
194757.000,205899.500,185228.800,250773.500,203480.100,191644.000,187312.000,199700.100,0.000
194091.400,204961.000,184113.200,250142.000,202292.000,190849.300,186392.400,198754.300,0.000
193853.100,204340.500,183229.200,249863.300,201167.200,190415.200,185721.300,198212.200,0.000
194367.400,204892.300,183763.200,250308.600,201654.800,190940.800,186222.500,198820.000,0.000
194916.800,205848.800,184942.500,250847.600,203076.400,191692.400,187197.800,199732.500,0.000
194762.300,205915.400,185132.300,250748.500,203492.200,191655.400,187321.000,199714.400,0.000
194096.800,204979.300,184021.100,250122.400,202310.900,190862.400,186403.300,198773.900,0.000
193849.200,204343.800,183126.100,249823.500,201177.500,190420.700,185722.100,198218.500,0.000
194367.700,204890.300,183660.400,250269.500,201661.800,190941.900,186222.800,198823.300,0.000
194928.300,205853.000,184847.600,250818.900,203088.900,191698.200,187202.700,199740.200,0.000
194755.200,205895.600,185013.700,250696.800,203484.300,191640.200,187304.900,199699.700,0.000
194095.400,204961.800,183902.800,250066.900,202303.400,190848.900,186388.500,198756.900,0.000
193863.000,204349.200,183025.200,249793.400,201184.800,190420.200,185724.900,198218.800,0.000
194379.200,204900.200,183560.500,250240.800,201668.800,190943.900,186228.800,198825.400,0.000
194940.700,205867.800,184758.500,250803.100,203100.800,191706.700,187221.100,199748.800,0.000
194775.000,205916.400,184942.800,250698.800,203508.700,191660.900,187340.200,199723.400,0.000
194091.900,204960.200,183812.800,250027.800,202312.600,190854.200,186408.300,198762.800,0.000
193851.700,204334.700,182923.500,249740.300,201181.700,190418.200,185731.700,198212.100,0.000
194375.000,204890.200,183461.600,250197.000,201666.700,190947.000,186235.000,198820.400,0.000
194935.600,205853.200,184648.300,250749.300,203089.600,191705.700,187215.500,199738.000,0.000
194769.400,205905.300,184829.500,250628.000,203495.300,191657.300,187329.400,199707.500,0.000
194113.300,204979.500,183724.700,250001.100,202324.600,190871.000,186420.200,198770.200,0.000
193863.500,204348.800,182825.100,249711.800,201185.700,190421.000,185734.800,198214.200,0.000
194376.600,204898.900,183355.500,250162.200,201666.800,190941.600,186236.100,198820.700,0.000
194933.700,205864.100,184544.700,250704.600,203095.400,191704.100,187223.200,199741.500,0.000
194766.100,205911.100,184719.100,250584.200,203496.500,191654.500,187332.300,199707.200,0.000
194099.500,204970.500,183605.200,249953.100,202310.600,190857.800,186412.900,198761.900,0.000
193855.700,204339.200,182709.600,249668.200,201173.100,190411.500,185734.200,198210.900,0.000
194368.400,204882.800,183233.800,250106.100,201646.200,190927.200,186226.900,198809.200,0.000
194929.900,205847.000,184426.300,250654.200,203070.900,191689.500,187212.600,199729.300,0.000
194773.400,205910.500,184617.900,250551.200,203488.600,191648.600,187331.000,199706.000,0.000
194110.300,204983.400,183511.000,249923.200,202316.300,190861.400,186415.700,198764.400,0.000
193854.400,204346.000,182612.100,249626.400,201178.100,190414.900,185730.800,198204.100,0.000
194363.500,204887.300,183134.700,250067.000,201646.200,190930.000,186224.700,198799.900,0.000
194922.700,205850.700,184325.400,250620.100,203067.200,191690.200,187210.500,199724.300,0.000
194772.100,205915.800,184524.600,250521.000,203489.000,191659.000,187337.900,199711.300,0.000
194114.800,204990.900,183425.100,249894.800,202320.800,190875.700,186427.800,198775.300,0.000
193862.000,204351.600,182523.900,249600.000,201175.700,190424.000,185739.300,198212.900,0.000
194367.700,204883.800,183039.700,250034.400,201638.700,190933.000,186223.200,198801.600,0.000
194935.700,205861.500,184236.900,250586.000,203073.700,191701.600,187211.700,199729.200,0.000
194790.300,205940.500,184445.600,250486.900,203510.200,191677.200,187347.700,199723.400,0.000
194129.000,205011.600,183347.200,249860.200,202340.800,190890.400,186439.000,198784.400,0.000
193861.500,204360.000,182433.300,249548.100,201182.700,190425.100,185739.400,198209.600,0.000
194374.200,204897.900,182955.800,249989.900,201649.300,190937.000,186230.900,198807.000,0.000
194939.300,205864.800,184148.500,250542.300,203077.600,191697.600,187213.200,199730.100,0.000
194785.300,205938.300,184353.600,250438.000,203510.500,191665.300,187343.300,199715.300,0.000
194114.700,204995.400,183248.500,249801.800,202337.300,190871.700,186425.100,198769.800,0.000
193858.800,204347.500,182338.900,249504.100,201188.700,190417.200,185731.200,198202.000,0.000
194370.300,204889.200,182856.700,249953.100,201653.800,190932.700,186221.200,198798.100,0.000
194932.300,205857.700,184047.700,250491.500,203081.300,191693.500,187206.200,199719.900,0.000
194788.000,205936.500,184261.200,250399.100,203522.400,191669.000,187345.500,199715.900,0.000
194117.100,204998.900,183159.400,249767.200,202353.900,190875.400,186431.300,198773.900,0.000
193854.200,204351.600,182251.100,249462.800,201202.800,190417.100,185735.800,198205.100,0.000
194362.800,204886.900,182769.200,249905.300,201661.900,190930.900,186223.500,198801.300,0.000
194927.100,205852.500,183961.000,250457.900,203083.400,191692.100,187206.500,199725.400,0.000
194770.400,205915.600,184160.400,250356.400,203506.500,191658.000,187332.900,199710.000,0.000
194107.800,204984.000,183053.900,249724.100,202334.100,190867.300,186417.000,198765.300,0.000
193853.900,204347.500,182149.200,249427.200,201186.200,190414.200,185725.900,198198.600,0.000
194360.400,204876.500,182661.800,249865.300,201637.400,190921.800,186205.200,198786.600,0.000
194924.300,205842.000,183853.200,250415.500,203056.500,191680.000,187184.300,199708.000,0.000
194782.500,205926.300,184074.300,250334.400,203504.700,191661.900,187330.000,199713.800,0.000
194119.400,204998.100,182977.100,249702.600,202340.900,190875.900,186421.700,198778.200,0.000
193859.500,204344.700,182063.500,249399.100,201182.300,190417.500,185722.600,198205.300,0.000
194370.100,204881.300,182578.900,249840.600,201638.400,190933.000,186208.900,198794.500,0.000
194935.300,205849.600,183775.700,250395.800,203067.700,191697.200,187196.500,199721.000,0.000
194786.000,205924.300,183989.400,250298.300,203503.800,191661.800,187329.400,199713.100,0.000
194121.800,204990.200,182896.200,249672.800,202341.400,190874.400,186422.400,198776.400,0.000
193858.400,204337.700,181980.700,249373.000,201184.800,190414.500,185725.700,198204.500,0.000
194363.200,204866.700,182487.000,249805.200,201632.000,190920.700,186203.300,198792.600,0.000
194927.300,205835.500,183678.100,250353.800,203056.300,191682.300,187183.400,199715.800,0.000
194782.000,205918.900,183895.800,250260.400,203504.000,191658.300,187325.600,199712.300,0.000
194122.800,204996.700,182811.200,249644.700,202352.200,190877.100,186429.700,198782.700,0.000
193852.700,204331.000,181891.900,249337.800,201188.000,190411.600,185727.100,198203.200,0.000
194358.600,204859.600,182395.300,249766.500,201627.800,190914.800,186201.500,198782.800,0.000
194928.000,205837.000,183597.100,250327.000,203059.000,191687.300,187192.200,199716.000,0.000
194777.000,205922.300,183820.700,250227.400,203512.800,191666.100,187335.500,199715.900,0.000
194106.300,204985.300,182724.800,249590.100,202349.800,190871.800,186422.500,198774.300,0.000
193839.100,204325.900,181800.200,249280.900,201180.500,190403.100,185714.200,198194.200,0.000
194343.400,204849.200,182302.300,249713.600,201619.300,190906.400,186187.400,198776.200,0.000
194917.300,205832.400,183508.100,250273.500,203052.700,191676.600,187180.600,199710.500,0.000
194778.700,205920.900,183734.900,250185.000,203507.000,191657.500,187325.300,199713.200,0.000
194114.500,204995.500,182646.700,249562.100,202353.800,190873.300,186420.300,198778.500,0.000
193847.700,204337.700,181732.600,249262.000,201197.500,190409.500,185719.900,198201.300,0.000
194353.700,204862.200,182233.900,249697.000,201637.600,190912.000,186190.000,198781.600,0.000
194927.700,205838.400,183434.400,250252.500,203061.500,191681.500,187175.800,199712.800,0.000
194783.600,205928.300,183666.100,250164.800,203518.800,191667.500,187328.200,199721.300,0.000
194113.600,205001.700,182577.800,249536.500,202364.900,190882.500,186426.300,198787.000,0.000
193848.500,204348.200,181658.500,249230.500,201202.300,190420.800,185720.900,198207.600,0.000
194339.000,204858.900,182146.100,249648.800,201628.000,190912.600,186182.100,198774.500,0.000
194908.700,205828.400,183344.800,250207.000,203053.900,191681.500,187171.900,199707.000,0.000
194778.400,205922.100,183578.800,250126.100,203514.700,191669.000,187325.200,199721.400,0.000
194114.100,204994.800,182487.400,249496.800,202358.300,190880.800,186418.800,198786.200,0.000
193846.500,204336.400,181561.700,249188.300,201188.200,190410.900,185712.300,198203.300,0.000
194348.700,204859.200,182062.200,249626.400,201620.600,190911.900,186184.500,198781.000,0.000
194917.700,205834.800,183264.500,250179.900,203046.500,191682.200,187175.600,199712.900,0.000
194782.600,205935.300,183506.300,250093.500,203517.000,191674.900,187335.600,199729.400,0.000
194117.800,205009.700,182421.600,249466.800,202366.500,190887.800,186435.500,198796.300,0.000
193844.400,204346.700,181495.100,249155.000,201191.500,190411.900,185724.000,198206.100,0.000
194337.100,204859.200,181982.200,249579.800,201614.000,190905.900,186182.800,198775.100,0.000
194914.400,205836.000,183185.400,250145.300,203042.600,191679.300,187171.500,199710.000,0.000
194780.700,205934.600,183428.100,250062.000,203510.200,191669.400,187329.900,199725.600,0.000
194116.400,205009.800,182345.700,249436.900,202364.100,190885.200,186431.500,198792.800,0.000
193848.200,204344.800,181422.800,249129.800,201194.200,190418.700,185725.200,198208.200,0.000
194338.900,204848.700,181904.200,249547.700,201606.000,190906.100,186177.400,198769.500,0.000
194921.200,205829.000,183112.700,250125.700,203038.200,191683.600,187174.200,199714.600,0.000
194783.900,205931.400,183355.700,250035.700,203511.800,191674.700,187336.800,199730.900,0.000
194116.200,205009.000,182272.200,249401.300,202366.300,190890.100,186437.600,198795.800,0.000
193840.700,204338.400,181342.200,249089.600,201190.600,190410.700,185720.100,198206.100,0.000
194326.200,204833.700,181815.400,249506.200,201595.100,190889.900,186166.600,198764.800,0.000
194912.400,205820.500,183026.300,250081.400,203028.000,191671.800,187166.900,199710.700,0.000
194780.400,205927.000,183277.400,249999.200,203506.900,191671.800,187334.100,199732.000,0.000
194112.900,205004.100,182195.300,249368.900,202363.500,190890.000,186433.900,198798.200,0.000
193842.200,204341.100,181268.700,249057.100,201194.300,190421.000,185726.100,198210.100,0.000
194344.800,204854.900,181757.200,249487.200,201614.000,190915.900,186188.600,198779.200,0.000
194924.900,205827.800,182959.700,250055.600,203040.000,191689.800,187181.200,199717.300,0.000
194795.500,205928.200,183207.100,249982.800,203516.900,191684.300,187344.100,199737.300,0.000
194143.100,205021.800,182140.200,249366.600,202388.700,190912.700,186456.900,198816.500,0.000
193859.200,204339.300,181194.600,249036.900,201194.000,190420.700,185724.400,198209.700,0.000
194360.800,204853.800,181679.300,249464.500,201607.300,190916.500,186182.800,198777.300,0.000
194938.300,205830.700,182880.300,250023.600,203031.700,191688.400,187171.300,199708.800,0.000
194815.900,205940.600,183134.600,249947.000,203514.300,191684.600,187337.700,199732.300,0.000
194155.800,205022.500,182062.400,249324.800,202378.800,190904.000,186444.000,198806.800,0.000
193875.000,204347.400,181127.000,249004.600,201196.200,190425.800,185725.000,198211.200,0.000
194369.900,204849.200,181601.800,249429.200,201598.200,190911.000,186175.100,198770.800,0.000
194955.600,205831.600,182812.200,250003.000,203030.500,191686.900,187169.700,199712.300,0.000
194828.700,205943.100,183072.100,249928.500,203516.300,191686.100,187339.200,199741.400,0.000
194168.500,205029.000,182001.900,249302.800,202383.300,190906.200,186444.400,198817.300,0.000
193885.100,204352.300,181066.800,248984.700,201200.500,190422.900,185722.600,198218.700,0.000
194371.500,204847.600,181534.100,249398.000,201595.900,190900.400,186164.700,198768.600,0.000
194950.800,205829.700,182740.500,249959.200,203023.000,191676.800,187158.700,199705.500,0.000
194822.200,205944.900,183006.100,249891.400,203517.900,191681.300,187336.100,199740.700,0.000
194160.500,205030.300,181936.100,249269.000,202389.300,190905.700,186448.100,198816.800,0.000
193882.600,204361.300,181000.500,248953.800,201206.900,190425.300,185727.400,198218.700,0.000
194368.600,204852.200,181467.100,249372.700,201601.800,190904.700,186170.500,198770.000,0.000
194949.700,205831.800,182674.600,249938.700,203032.600,191683.200,187164.300,199711.600,0.000
194828.800,205952.700,182942.200,249870.600,203532.000,191691.600,187343.300,199750.700,0.000
194169.900,205045.000,181876.400,249247.100,202407.000,190913.800,186456.400,198826.400,0.000
193877.500,204360.100,180932.200,248921.600,201217.400,190423.100,185728.800,198218.500,0.000
194355.900,204841.800,181392.800,249336.200,201603.700,190898.500,186168.000,198767.300,0.000
194936.600,205826.900,182599.100,249905.700,203027.700,191671.800,187161.900,199704.400,0.000
194809.500,205941.200,182863.000,249824.400,203519.300,191672.700,187335.900,199734.700,0.000
194148.500,205027.600,181798.200,249204.400,202396.200,190901.200,186452.300,198814.800,0.000
193859.300,204349.400,180857.100,248883.800,201212.400,190418.700,185733.800,198211.100,0.000
194338.900,204833.000,181312.900,249295.200,201593.300,190888.600,186168.500,198753.000,0.000
194923.100,205815.600,182519.300,249868.400,203018.800,191667.400,187161.600,199695.200,0.000
194807.900,205939.500,182794.700,249809.500,203520.400,191679.600,187346.300,199738.700,0.000
194140.600,205017.900,181721.800,249182.200,202387.500,190899.000,186452.100,198810.600,0.000
193851.000,204332.300,180779.200,248856.900,201199.800,190416.600,185728.300,198209.300,0.000
194327.100,204813.900,181229.800,249262.700,201574.600,190881.000,186152.800,198747.100,0.000
194911.100,205795.300,182434.400,249828.900,202996.300,191654.300,187144.600,199685.400,0.000
194813.200,205935.700,182725.900,249778.000,203514.400,191678.800,187345.300,199742.200,0.000
194149.500,205015.800,181656.600,249147.100,202384.100,190892.800,186453.000,198812.500,0.000
193865.100,204331.400,180712.400,248824.800,201189.500,190403.100,185725.200,198205.400,0.000
194357.700,204825.800,181175.900,249245.100,201574.800,190882.700,186163.200,198756.400,0.000
194938.900,205808.800,182379.500,249811.100,202995.700,191654.900,187147.000,199690.800,0.000
194831.600,205946.200,182670.400,249761.500,203513.900,191678.000,187344.200,199744.900,0.000
194169.500,205034.900,181609.600,249137.100,202393.800,190900.700,186459.300,198821.500,0.000
193890.800,204362.800,180673.500,248819.700,201209.200,190419.300,185736.800,198218.900,0.000
194371.000,204843.600,181125.200,249229.200,201585.000,190893.100,186165.600,198758.300,0.000
194951.600,205819.900,182335.000,249798.600,203009.800,191670.200,187160.200,199698.900,0.000
194840.400,205953.900,182621.200,249737.000,203526.400,191684.500,187351.300,199751.200,0.000
194181.000,205043.600,181560.700,249114.500,202412.000,190909.200,186467.900,198829.600,0.000
193890.000,204353.300,180603.700,248786.700,201208.100,190413.000,185727.200,198202.300,0.000
194362.500,204821.400,181039.600,249186.200,201563.300,190874.100,186142.100,198726.600,0.000
194950.000,205807.300,182252.600,249763.900,202993.000,191661.400,187143.000,199679.400,0.000
194843.700,205945.600,182546.000,249712.500,203516.600,191681.200,187342.100,199742.200,0.000
194183.500,205045.200,181495.700,249096.500,202410.300,190913.400,186466.000,198833.000,0.000
193879.300,204354.400,180540.100,248752.500,201206.200,190414.800,185725.500,198205.300,0.000
194348.400,204823.200,180980.600,249150.800,201566.400,190876.200,186143.600,198728.300,0.000
194936.100,205812.000,182192.400,249732.300,202995.300,191659.400,187143.800,199682.400,0.000
194829.000,205954.900,182486.000,249683.400,203524.300,191684.500,187347.300,199750.400,0.000
194170.200,205048.500,181432.800,249065.800,202420.600,190914.800,186471.800,198837.700,0.000
193869.900,204354.200,180474.500,248726.600,201217.900,190418.500,185733.400,198212.000,0.000
194332.200,204817.400,180897.700,249115.800,201559.900,190866.900,186134.300,198723.600,0.000
194923.000,205807.500,182110.600,249701.500,202985.200,191651.300,187129.600,199676.600,0.000
194816.500,205946.600,182413.800,249643.000,203517.300,191682.300,187337.800,199749.700,0.000
194158.100,205047.400,181370.500,249018.400,202421.100,190918.000,186467.500,198842.700,0.000
193860.400,204358.000,180415.000,248679.800,201220.600,190424.900,185731.700,198214.300,0.000
194328.700,204823.800,180844.700,249076.200,201570.800,190882.400,186141.900,198727.700,0.000
194916.700,205805.300,182052.800,249651.400,202993.500,191664.700,187136.300,199674.300,0.000
194813.300,205943.500,182350.200,249599.500,203523.400,191689.600,187344.100,199742.600,0.000
194150.800,205038.900,181301.400,248979.100,202422.700,190918.700,186473.400,198831.400,0.000
193844.300,204341.800,180343.600,248636.500,201218.500,190417.700,185732.300,198200.400,0.000
194316.900,204818.100,180778.800,249041.000,201571.000,190878.600,186142.200,198720.100,0.000
194907.500,205803.500,181988.700,249612.500,202992.200,191661.800,187138.900,199672.300,0.000
194801.800,205941.700,182290.500,249559.700,203524.200,191689.600,187348.500,199744.600,0.000
194142.900,205040.000,181246.600,248941.900,202427.200,190924.200,186479.500,198833.500,0.000
193852.900,204355.000,180297.800,248612.900,201230.900,190435.000,185746.900,198213.100,0.000
194328.400,204822.200,180734.500,249019.300,201580.600,190895.800,186160.500,198736.200,0.000
194918.800,205805.600,181945.400,249592.400,202999.500,191675.200,187150.300,199681.700,0.000
194824.700,205957.300,182261.500,249554.200,203541.300,191711.500,187367.200,199763.200,0.000
194166.200,205062.600,181231.100,248939.800,202454.800,190945.400,186502.900,198859.100,0.000
193842.100,204342.900,180255.300,248584.100,201225.800,190422.900,185736.900,198208.900,0.000
194316.200,204807.600,180683.700,248989.400,201563.600,190878.200,186142.700,198726.000,0.000
194914.000,205790.400,181892.500,249572.200,202977.800,191662.100,187137.400,199678.700,0.000
194832.500,205952.200,182211.700,249537.700,203525.500,191705.500,187358.000,199766.400,0.000
194170.400,205046.600,181161.400,248916.500,202423.100,190931.200,186480.100,198852.700,0.000
193863.700,204348.500,180194.800,248562.600,201211.800,190426.500,185733.100,198215.900,0.000
194348.700,204822.500,180630.200,248972.000,201560.900,190887.500,186147.000,198738.400,0.000
194949.400,205810.600,181841.200,249565.500,202981.400,191670.700,187144.500,199691.700,0.000
194852.500,205960.700,182153.700,249533.900,203527.000,191707.900,187362.400,199774.400,0.000
194196.500,205068.700,181120.000,248914.900,202441.900,190945.000,186500.500,198871.400,0.000
193894.300,204368.400,180157.000,248569.700,201229.700,190438.600,185755.200,198232.500,0.000
194363.800,204827.400,180583.200,248965.500,201564.400,190890.100,186159.300,198742.200,0.000
194956.800,205810.500,181793.300,249549.500,202982.700,191676.900,187156.200,199694.600,0.000
194863.300,205965.800,182109.000,249511.300,203530.600,191717.900,187374.400,199778.900,0.000
194208.400,205075.300,181073.000,248899.300,202445.100,190951.800,186506.700,198872.900,0.000
193884.300,204360.000,180091.800,248537.800,201219.100,190431.300,185743.800,198219.300,0.000
194345.800,204817.600,180509.700,248925.800,201550.100,190881.000,186141.200,198723.900,0.000
194943.700,205807.800,181726.300,249519.200,202976.300,191670.500,187142.200,199682.800,0.000
194858.900,205976.600,182054.800,249494.400,203539.500,191724.000,187374.400,199781.300,0.000
194203.600,205087.200,181022.100,248881.900,202460.000,190962.700,186512.900,198878.200,0.000
193891.300,204383.700,180055.000,248536.700,201245.800,190449.800,185761.900,198234.700,0.000
194349.700,204834.500,180467.600,248938.300,201569.500,190894.600,186156.900,198739.100,0.000
194932.100,205808.000,181662.100,249497.800,202971.400,191665.900,187137.900,199677.700,0.000
194839.400,205966.500,181983.100,249462.600,203521.000,191704.600,187357.800,199765.800,0.000
194190.100,205089.400,180968.600,248864.800,202455.800,190949.700,186509.500,198874.800,0.000
193872.200,204375.300,179996.700,248513.300,201238.200,190436.800,185752.300,198227.200,0.000
194338.100,204831.200,180410.900,248907.100,201566.200,190886.800,186147.000,198733.200,0.000
194922.600,205805.100,181613.000,249480.600,202977.100,191659.300,187132.800,199679.800,0.000
194826.200,205956.700,181931.900,249441.200,203529.800,191700.000,187355.300,199768.000,0.000
194172.100,205066.800,180901.300,248834.200,202449.200,190940.800,186495.400,198869.400,0.000
193859.400,204360.200,179927.200,248486.500,201229.100,190429.600,185738.900,198225.500,0.000
194321.300,204815.200,180341.100,248879.400,201554.600,190873.800,186132.700,198727.800,0.000
194914.700,205799.000,181551.900,249466.000,202974.300,191657.200,187126.200,199680.500,0.000
194824.900,205961.000,181879.300,249429.600,203537.700,191703.800,187351.600,199771.800,0.000
194164.100,205064.000,180846.700,248808.400,202456.000,190937.500,186488.700,198865.800,0.000
193853.700,204359.400,179875.400,248466.500,201237.800,190427.600,185737.900,198224.000,0.000
194313.500,204811.200,180284.700,248857.500,201557.100,190873.300,186128.900,198727.900,0.000
194898.800,205789.300,181490.500,249432.400,202970.900,191656.000,187124.200,199680.600,0.000
194812.800,205954.300,181822.500,249406.900,203536.500,191706.800,187360.300,199780.000,0.000
194154.200,205064.600,180792.800,248794.200,202458.300,190946.800,186501.400,198875.000,0.000
193837.600,204359.400,179825.100,248447.500,201244.100,190435.800,185752.000,198231.300,0.000
194296.200,204804.800,180229.700,248834.500,201561.200,190876.100,186140.300,198730.500,0.000
194882.100,205780.100,181430.500,249405.900,202969.100,191652.600,187129.300,199676.100,0.000
194802.600,205954.300,181772.400,249387.400,203544.200,191709.000,187372.100,199782.300,0.000
194152.900,205076.700,180752.400,248765.200,202478.100,190954.200,186519.100,198881.900,0.000
193832.700,204359.900,179769.200,248412.600,201249.800,190432.700,185756.400,198225.200,0.000
194289.100,204795.700,180165.300,248799.800,201553.400,190868.200,186136.300,198717.800,0.000
194901.200,205794.000,181383.800,249388.500,202976.000,191663.800,187135.800,199677.600,0.000
194824.200,205976.100,181728.500,249366.200,203551.500,191716.600,187372.800,199779.600,0.000
194167.500,205083.800,180703.300,248753.800,202479.200,190953.300,186513.300,198878.300,0.000
193842.500,204359.700,179721.100,248400.000,201248.800,190429.500,185748.900,198223.200,0.000
194291.300,204796.400,180114.400,248776.600,201550.000,190860.300,186126.900,198710.400,0.000
194885.600,205777.800,181329.800,249358.100,202968.700,191646.600,187124.000,199666.000,0.000
194807.400,205952.800,181673.700,249336.400,203545.600,191701.200,187364.000,199770.100,0.000
194153.800,205066.400,180645.800,248733.400,202470.800,190942.100,186506.800,198870.900,0.000
193820.600,204340.900,179654.700,248363.500,201233.300,190421.600,185741.300,198214.200,0.000
194270.400,204775.100,180043.400,248737.100,201529.900,190848.400,186116.300,198700.800,0.000
194875.100,205768.900,181260.400,249329.900,202951.100,191638.000,187116.600,199662.000,0.000
194793.000,205941.200,181599.700,249302.600,203524.400,191690.800,187352.000,199762.700,0.000
194137.500,205051.300,180576.800,248687.600,202456.700,190932.700,186497.800,198864.000,0.000
193818.300,204331.900,179595.700,248332.900,201229.700,190415.100,185736.800,198211.100,0.000
194274.800,204776.500,179992.600,248720.200,201531.100,190848.700,186116.800,198701.800,0.000
194879.300,205775.000,181211.800,249312.500,202951.100,191639.800,187118.300,199663.600,0.000
194805.600,205956.500,181565.100,249295.500,203537.000,191707.100,187369.600,199780.200,0.000
194143.600,205063.900,180538.000,248682.100,202466.600,190944.600,186511.300,198879.600,0.000
193824.100,204348.800,179554.000,248325.900,201237.600,190424.700,185747.400,198222.900,0.000
194277.200,204786.200,179942.000,248698.800,201532.000,190855.400,186120.400,198704.000,0.000
194878.100,205767.000,181149.400,249279.400,202942.300,191643.500,187114.800,199656.600,0.000
194808.900,205953.900,181503.500,249266.600,203533.000,191710.700,187365.300,199771.700,0.000
194162.500,205076.300,180491.600,248662.200,202479.500,190960.300,186517.500,198881.900,0.000
193832.600,204350.400,179499.100,248294.000,201241.400,190430.000,185745.300,198217.400,0.000
194288.300,204791.400,179893.800,248681.900,201539.400,190863.600,186124.800,198708.600,0.000
194885.500,205773.600,181104.300,249268.100,202953.700,191652.000,187123.800,199669.800,0.000
194800.100,205949.000,181445.200,249235.900,203527.800,191702.300,187360.500,199771.500,0.000
194149.900,205073.200,180433.900,248633.500,202469.400,190949.900,186514.000,198882.000,0.000
193821.900,204347.900,179444.500,248273.900,201235.400,190426.000,185747.800,198220.500,0.000
194281.200,204786.800,179837.900,248665.500,201533.900,190861.900,186127.400,198711.700,0.000
194892.800,205782.000,181061.500,249263.000,202958.500,191660.000,187136.500,199679.200,0.000
194810.600,205963.000,181415.200,249235.300,203547.000,191719.900,187383.700,199790.100,0.000
194156.300,205081.200,180399.800,248619.800,202490.100,190964.000,186535.000,198896.800,0.000
193827.500,204352.000,179403.200,248258.000,201245.400,190430.100,185752.900,198228.300,0.000
194270.800,204774.300,179778.300,248628.300,201521.900,190849.100,186110.600,198704.600,0.000
194873.500,205764.100,180989.500,249216.000,202935.600,191638.000,187106.100,199664.200,0.000
194808.500,205956.900,181352.700,249206.900,203535.400,191710.500,187363.000,199786.000,0.000
194156.700,205078.900,180342.900,248602.500,202482.300,190956.900,186514.800,198893.700,0.000
193830.300,204351.200,179353.600,248244.200,201245.100,190429.800,185745.800,198230.100,0.000
194286.800,204790.100,179745.800,248630.200,201537.000,190862.100,186121.800,198713.100,0.000
194893.700,205781.000,180963.600,249218.700,202952.500,191657.600,187119.800,199673.000,0.000
194819.700,205964.900,181321.500,249205.300,203542.100,191721.900,187365.600,199788.300,0.000
194168.400,205091.200,180316.100,248596.000,202492.300,190969.800,186521.400,198897.500,0.000
193835.000,204361.400,179322.400,248226.700,201251.500,190438.800,185747.800,198228.600,0.000
194274.100,204774.400,179691.800,248596.500,201523.500,190856.000,186103.600,198701.100,0.000
194878.300,205762.900,180900.900,249179.400,202932.700,191642.900,187098.100,199658.300,0.000
194825.500,205970.000,181277.500,249183.600,203546.300,191728.400,187368.100,199791.300,0.000
194172.500,205096.000,180271.800,248583.200,202499.500,190978.200,186525.900,198902.700,0.000
193831.600,204363.300,179274.200,248205.400,201257.600,190443.000,185746.900,198230.100,0.000
194281.900,204790.500,179655.800,248584.700,201539.800,190866.100,186115.000,198707.900,0.000
194883.200,205774.900,180867.500,249170.300,202949.700,191651.600,187109.500,199665.800,0.000
194815.700,205963.600,181230.300,249159.600,203547.700,191717.000,187362.000,199788.600,0.000
194161.500,205085.400,180222.100,248553.700,202499.200,190963.400,186516.600,198897.600,0.000
193824.200,204351.500,179223.300,248176.600,201252.400,190425.500,185737.700,198223.100,0.000
194274.000,204776.500,179600.100,248558.400,201528.800,190851.500,186104.100,198698.300,0.000
194878.300,205761.800,180808.900,249149.600,202937.100,191642.300,187101.100,199655.200,0.000
194812.100,205957.400,181175.400,249132.800,203538.500,191711.200,187361.200,199778.800,0.000
194161.800,205085.400,180173.400,248528.000,202491.200,190957.900,186522.000,198890.900,0.000
193832.000,204359.100,179180.000,248168.600,201248.600,190428.500,185747.400,198224.000,0.000
194284.300,204787.500,179557.900,248549.000,201530.000,190857.700,186113.200,198704.000,0.000
194895.000,205779.700,180774.900,249146.100,202946.500,191653.300,187111.800,199666.800,0.000
194824.000,205974.500,181139.600,249125.200,203547.300,191724.300,187365.400,199786.000,0.000
194171.200,205101.300,180138.300,248519.600,202502.200,190975.800,186528.100,198901.200,0.000
193838.300,204368.900,179143.400,248156.000,201257.400,190443.000,185757.200,198235.700,0.000
194286.400,204790.500,179516.300,248539.000,201528.200,190862.400,186117.400,198710.500,0.000
194894.600,205786.500,180733.900,249124.200,202945.000,191657.700,187117.500,199673.700,0.000
194830.500,205990.000,181110.700,249117.600,203560.100,191738.200,187383.500,199807.700,0.000
194175.800,205118.500,180108.800,248512.000,202520.100,190990.500,186543.500,198920.600,0.000
193837.500,204381.100,179106.000,248141.000,201271.000,190452.800,185763.200,198242.300,0.000
194270.300,204786.500,179463.900,248508.500,201524.600,190860.600,186109.300,198702.000,0.000
194873.500,205772.700,180675.400,249095.200,202933.400,191650.900,187104.600,199661.900,0.000
194817.300,205978.400,181053.100,249093.300,203550.200,191730.900,187372.400,199794.100,0.000
194165.900,205104.600,180049.500,248484.400,202509.400,190977.000,186530.300,198905.000,0.000
193827.800,204366.800,179044.000,248107.200,201260.000,190437.000,185744.000,198228.200,0.000
194273.600,204779.700,179410.600,248481.800,201521.600,190855.600,186096.000,198696.900,0.000
194876.300,205766.500,180622.700,249076.900,202924.600,191642.600,187090.900,199656.800,0.000
194817.300,205971.700,181007.400,249072.800,203542.200,191723.800,187363.500,199794.900,0.000
194167.500,205100.500,180012.800,248459.500,202511.500,190975.800,186530.300,198911.000,0.000
193828.900,204361.500,179008.300,248092.500,201261.900,190434.900,185747.700,198234.600,0.000
194267.800,204770.500,179367.800,248460.600,201516.700,190846.600,186095.600,198698.300,0.000
194885.000,205768.000,180590.600,249059.800,202931.100,191645.200,187096.500,199664.100,0.000
194832.000,205985.500,180983.300,249062.900,203561.400,191734.000,187377.000,199806.600,0.000
194183.100,205118.400,179988.500,248458.500,202530.900,190987.200,186544.700,198922.900,0.000
193840.900,204371.900,178976.200,248086.300,201267.700,190439.800,185753.100,198237.000,0.000
194285.700,204784.200,179333.800,248463.700,201516.700,190851.400,186099.000,198697.800,0.000
194880.700,205762.400,180531.000,249034.900,202911.300,191631.800,187082.400,199647.200,0.000
194824.400,205975.600,180920.600,249033.800,203540.300,191722.800,187363.500,199791.000,0.000
194181.100,205112.400,179933.100,248438.800,202517.400,190984.300,186540.300,198917.800,0.000
193831.800,204360.800,178916.000,248053.800,201252.400,190433.400,185745.300,198227.200,0.000
194257.500,204755.700,179260.800,248406.500,201493.200,190832.100,186081.300,198674.700,0.000
194872.600,205750.400,180476.600,249003.300,202903.400,191627.900,187078.500,199639.400,0.000
194825.800,205973.600,180874.400,249011.500,203540.000,191722.000,187363.400,199788.200,0.000
194172.700,205105.300,179883.500,248410.400,202512.300,190974.000,186531.800,198907.500,0.000
193825.800,204357.500,178870.700,248036.400,201252.600,190425.200,185740.400,198223.900,0.000
194259.100,204757.500,179217.300,248393.400,201493.800,190826.400,186073.500,198676.000,0.000
194873.500,205751.200,180435.000,248993.400,202909.400,191625.900,187072.000,199641.000,0.000
194824.100,205970.300,180831.300,249001.800,203547.300,191720.600,187356.000,199788.100,0.000
194180.600,205115.700,179848.100,248410.600,202530.100,190979.400,186529.400,198914.700,0.000
193833.800,204370.300,178839.400,248038.800,201274.200,190435.400,185741.000,198232.100,0.000
194256.600,204762.400,179185.000,248386.000,201512.100,190835.000,186075.900,198680.000,0.000
194872.000,205753.000,180400.600,248982.900,202923.200,191634.400,187075.300,199647.400,0.000
194822.700,205979.700,180799.100,248988.400,203562.600,191731.100,187362.000,199796.900,0.000
194170.600,205114.600,179809.700,248381.000,202538.700,190984.600,186532.800,198913.200,0.000
193817.100,204360.100,178794.200,247995.900,201273.400,190431.000,185736.200,198216.900,0.000
194253.500,204756.100,179142.100,248365.100,201513.600,190834.300,186073.900,198671.400,0.000
194868.500,205747.200,180356.600,248963.000,202919.700,191628.500,187071.400,199636.900,0.000
194823.000,205973.000,180757.600,248965.800,203556.000,191724.000,187356.500,199788.200,0.000
194168.600,205104.400,179764.600,248360.000,202524.300,190974.700,186522.000,198905.600,0.000
193822.400,204359.400,178755.000,247989.100,201261.700,190428.400,185731.800,198219.400,0.000
194250.100,204755.100,179098.600,248346.900,201496.400,190831.300,186069.100,198669.900,0.000
194862.900,205750.300,180311.200,248931.200,202902.100,191625.900,187067.700,199631.800,0.000
194815.000,205973.600,180715.900,248942.200,203542.700,191724.600,187357.300,199787.000,0.000
194175.800,205122.100,179738.300,248350.200,202529.100,190987.500,186537.500,198915.900,0.000
193830.500,204375.200,178723.500,247972.200,201269.200,190439.300,185748.300,198230.300,0.000
194249.100,204756.500,179053.500,248323.400,201489.300,190829.800,186072.200,198669.400,0.000
194864.700,205754.300,180274.700,248923.000,202902.100,191630.500,187077.700,199639.400,0.000
194828.400,205990.000,180687.000,248938.200,203553.900,191731.800,187370.700,199800.900,0.000
194180.600,205125.500,179704.500,248336.800,202536.700,190987.400,186541.700,198923.200,0.000
193826.300,204367.600,178682.900,247954.000,201265.200,190431.500,185744.200,198227.700,0.000
194255.900,204760.900,179019.500,248308.800,201493.000,190829.500,186075.500,198672.600,0.000
194876.900,205756.600,180236.100,248911.200,202901.600,191632.300,187079.900,199643.500,0.000
194838.900,205994.400,180649.000,248929.700,203553.400,191739.200,187377.600,199807.200,0.000
194196.600,205140.800,179672.600,248341.300,202544.300,191005.100,186558.300,198938.800,0.000
193845.300,204389.500,178656.100,247966.600,201281.000,190454.800,185765.100,198246.200,0.000
194272.200,204781.400,178992.100,248311.000,201511.600,190854.200,186096.300,198688.300,0.000
194881.600,205770.200,180203.500,248898.100,202917.000,191646.000,187091.500,199647.800,0.000
194834.200,205991.800,180614.700,248907.200,203566.500,191743.500,187385.600,199806.800,0.000
194194.300,205141.600,179642.500,248308.400,202558.000,191007.400,186566.300,198935.700,0.000
193836.000,204383.300,178621.900,247922.100,201286.700,190449.800,185767.100,198241.300,0.000
194252.700,204759.200,178941.300,248267.200,201496.300,190835.900,186081.800,198674.000,0.000
194862.300,205747.200,180145.300,248856.100,202893.900,191629.700,187077.700,199638.200,0.000
194822.600,205980.900,180561.000,248872.700,203547.600,191734.100,187378.500,199802.500,0.000
194174.900,205122.000,179584.700,248266.000,202537.400,190994.700,186555.200,198926.000,0.000
193821.700,204367.800,178562.800,247880.800,201267.700,190439.000,185752.200,198230.000,0.000
194239.400,204746.600,178884.000,248227.700,201477.000,190820.700,186067.400,198665.400,0.000
194848.500,205733.600,180095.000,248824.200,202878.300,191610.400,187064.700,199632.700,0.000
194811.600,205971.600,180515.900,248843.100,203538.300,191721.500,187370.100,199803.600,0.000
194169.800,205119.000,179547.400,248250.500,202534.400,190987.800,186552.900,198936.400,0.000
193818.500,204365.300,178533.700,247871.000,201269.100,190435.000,185757.900,198241.700,0.000
194240.400,204742.100,178854.300,248219.400,201478.500,190820.800,186075.200,198671.300,0.000
194847.900,205724.700,180057.400,248808.400,202869.500,191609.300,187063.400,199626.800,0.000
194812.200,205965.700,180482.400,248832.800,203532.800,191721.300,187368.600,199798.900,0.000
194170.300,205116.200,179512.600,248241.200,202532.400,190986.100,186552.000,198932.600,0.000
193814.000,204355.700,178485.800,247854.000,201259.000,190424.200,185748.700,198230.600,0.000
194238.300,204735.600,178810.500,248198.300,201471.200,190814.200,186070.900,198663.100,0.000
194861.300,205736.900,180032.200,248801.600,202884.000,191618.900,187080.200,199638.500,0.000
194827.700,205983.600,180458.300,248819.000,203550.400,191727.500,187388.400,199809.700,0.000
194179.100,205129.300,179485.800,248214.300,202546.200,190988.500,186567.000,198935.700,0.000
193813.900,204360.300,178451.700,247818.600,201264.300,190422.500,185756.500,198229.200,0.000
194227.800,204724.900,178762.000,248162.800,201460.100,190802.700,186065.300,198655.000,0.000
194849.900,205722.500,179975.000,248765.800,202863.600,191603.800,187067.200,199626.800,0.000
194819.300,205972.500,180403.900,248792.600,203535.100,191721.400,187377.700,199800.500,0.000
194171.400,205126.300,179439.600,248197.900,202542.700,190990.800,186567.300,198934.800,0.000
193807.400,204366.800,178416.900,247809.800,201273.100,190432.400,185770.400,198234.700,0.000
194227.500,204741.900,178736.900,248165.700,201479.300,190816.800,186087.400,198665.800,0.000
194839.600,205732.100,179944.000,248752.900,202877.000,191608.400,187080.400,199627.700,0.000
194808.500,205979.600,180373.800,248772.500,203548.900,191724.300,187390.800,199804.200,0.000
194173.900,205139.500,179416.100,248184.400,202566.400,191001.700,186585.500,198946.400,0.000
193810.600,204371.200,178381.400,247795.900,201285.900,190436.300,185772.000,198237.500,0.000
194230.300,204741.900,178694.100,248144.500,201484.500,190819.500,186081.200,198664.600,0.000
194847.900,205737.600,179906.900,248738.100,202884.000,191618.300,187077.400,199630.700,0.000
194816.300,205988.700,180339.600,248758.800,203558.600,191733.800,187389.300,199805.600,0.000
194179.400,205143.400,179380.500,248173.000,202568.600,191003.500,186580.100,198943.000,0.000
193815.100,204374.800,178347.400,247788.100,201285.700,190437.600,185769.900,198236.600,0.000
194223.600,204739.300,178652.000,248116.700,201477.400,190813.600,186071.900,198654.100,0.000
194839.100,205728.100,179862.200,248704.100,202875.400,191609.500,187065.000,199615.900,0.000
194817.000,205985.700,180302.000,248736.300,203557.300,191731.800,187383.900,199797.800,0.000
194179.500,205145.000,179348.400,248147.500,202575.100,191005.200,186581.200,198938.300,0.000
193817.600,204381.000,178321.000,247754.300,201299.800,190441.300,185775.700,198231.500,0.000
194228.400,204742.600,178625.600,248092.400,201490.000,190817.300,186076.100,198651.200,0.000
194848.800,205736.500,179836.600,248693.800,202887.900,191617.800,187071.600,199619.800,0.000
194821.800,205992.900,180276.800,248722.200,203568.600,191743.200,187389.800,199805.700,0.000
194169.100,205133.000,179304.500,248115.800,202568.200,191002.900,186567.000,198932.700,0.000
193806.200,204369.300,178272.600,247723.600,201287.500,190441.300,185757.800,198227.900,0.000
194219.600,204733.600,178578.700,248064.600,201476.700,190820.100,186061.100,198650.600,0.000
194840.300,205723.800,179794.300,248664.300,202876.300,191618.300,187057.600,199621.600,0.000
194819.000,205984.800,180240.200,248697.900,203560.800,191744.100,187378.300,199808.000,0.000
194170.800,205134.800,179274.800,248088.000,202568.500,191007.500,186563.000,198937.300,0.000
193801.600,204366.000,178235.100,247688.500,201281.100,190435.000,185748.500,198225.500,0.000
194211.400,204726.100,178537.300,248034.500,201465.300,190811.800,186051.800,198647.700,0.000
194834.900,205720.300,179754.400,248645.200,202867.400,191617.300,187055.900,199623.100,0.000
194823.500,205987.300,180207.600,248691.700,203564.100,191752.300,187389.700,199818.200,0.000
194179.700,205149.100,179250.100,248102.000,202583.100,191019.200,186583.800,198953.000,0.000
193807.000,204375.200,178207.000,247702.600,201291.400,190441.000,185761.700,198231.600,0.000
194218.400,204738.700,178507.400,248041.900,201472.300,190817.500,186059.500,198650.300,0.000
194850.900,205742.500,179727.600,248658.700,202877.700,191626.400,187064.000,199630.900,0.000
194829.300,206003.000,180176.200,248691.600,203566.700,191750.600,187389.300,199821.700,0.000
194187.900,205155.900,179219.000,248090.900,202582.000,191019.800,186581.000,198958.200,0.000
193821.600,204383.300,178180.300,247699.400,201291.800,190450.300,185764.300,198244.900,0.000
194231.800,204742.100,178475.000,248037.000,201465.600,190821.500,186057.300,198657.000,0.000
194848.900,205728.200,179683.000,248637.300,202858.200,191615.600,187049.400,199623.900,0.000
194829.900,205990.300,180132.800,248674.300,203551.500,191742.500,187375.400,199818.300,0.000
194187.600,205145.600,179180.200,248086.000,202571.800,191011.200,186569.800,198958.800,0.000
193815.900,204372.100,178136.800,247680.400,201280.300,190435.100,185747.600,198236.900,0.000
194230.000,204731.100,178431.100,248029.100,201454.900,190807.100,186043.200,198652.000,0.000
194845.600,205717.200,179635.900,248630.900,202840.800,191603.500,187035.700,199619.200,0.000
194823.500,205976.800,180083.500,248653.900,203530.800,191735.800,187363.500,199812.700,0.000
194190.700,205151.800,179139.400,248069.400,202560.800,191011.500,186569.500,198960.000,0.000
193822.900,204380.300,178099.200,247675.800,201272.000,190433.600,185750.900,198240.200,0.000
194228.200,204729.400,178386.800,248015.700,201441.900,190797.700,186039.700,198647.800,0.000
194851.700,205730.600,179606.000,248625.900,202844.700,191603.300,187045.400,199624.200,0.000
194837.100,205995.700,180069.200,248670.000,203548.300,191741.600,187383.400,199829.200,0.000
194197.000,205160.400,179123.800,248077.900,202575.500,191017.600,186584.400,198971.800,0.000
193815.700,204380.400,178074.500,247668.600,201278.600,190437.000,185757.800,198242.800,0.000
194221.000,204730.500,178359.200,248002.400,201441.600,190799.300,186041.500,198645.900,0.000
194855.800,205733.300,179583.300,248619.200,202849.600,191613.800,187050.400,199629.400,0.000
194842.200,206001.200,180043.700,248663.500,203555.300,191753.500,187386.100,199833.000,0.000
194203.500,205171.400,179101.500,248071.800,202587.000,191028.200,186584.700,198975.900,0.000
193821.600,204392.800,178058.200,247666.600,201298.500,190450.600,185765.500,198252.200,0.000
194221.200,204736.000,178337.800,248001.000,201460.000,190812.700,186050.700,198653.500,0.000
194842.800,205728.900,179550.000,248596.500,202856.800,191613.600,187047.000,199621.900,0.000
194836.100,206006.600,180019.200,248640.600,203568.000,191756.600,187386.500,199827.400,0.000
194197.000,205171.900,179075.300,248053.200,202599.600,191033.900,186588.700,198970.900,0.000
193820.900,204388.600,178026.200,247654.200,201303.000,190455.500,185766.600,198246.100,0.000
194227.500,204736.700,178305.500,247992.300,201464.600,190820.900,186050.700,198650.300,0.000
194850.700,205737.900,179521.400,248591.100,202863.800,191628.000,187050.600,199623.500,0.000
194842.100,206014.700,179992.900,248632.800,203575.900,191772.000,187392.800,199830.200,0.000
194209.300,205180.300,179052.200,248046.700,202611.300,191048.300,186596.800,198977.100,0.000
193832.200,204404.900,178009.800,247641.400,201320.200,190464.900,185776.600,198253.800,0.000
194227.100,204742.800,178285.900,247973.100,201475.200,190820.100,186057.600,198652.800,0.000
194857.000,205740.200,179500.600,248578.000,202870.200,191626.100,187059.000,199628.200,0.000
194837.800,206010.700,179956.700,248604.500,203569.300,191759.300,187389.600,199823.400,0.000
194198.000,205177.900,179014.100,248017.500,202603.600,191037.300,186590.400,198970.900,0.000
193818.700,204395.800,177967.900,247614.800,201308.200,190455.900,185766.300,198245.800,0.000
194208.900,204730.300,178236.800,247934.600,201453.700,190805.200,186039.700,198635.100,0.000
194832.800,205724.900,179447.500,248540.100,202845.900,191608.400,187036.500,199607.700,0.000
194831.600,206007.700,179923.000,248598.400,203564.800,191758.300,187383.400,199824.700,0.000
194188.300,205175.900,178980.800,247999.900,202596.300,191029.700,186581.700,198967.500,0.000
193806.700,204388.500,177931.800,247589.700,201298.500,190444.400,185756.000,198241.400,0.000
194211.700,204733.300,178208.800,247923.100,201454.900,190807.700,186041.600,198640.700,0.000
194831.700,205724.200,179414.700,248526.500,202842.700,191608.000,187036.900,199605.300,0.000
194822.800,206003.600,179887.200,248573.400,203556.700,191751.300,187382.100,199817.000,0.000
194193.800,205179.100,178961.300,247997.600,202606.600,191038.200,186598.200,198975.300,0.000
193810.700,204391.100,177910.200,247575.000,201306.100,190447.600,185767.000,198243.800,0.000
194205.000,204719.100,178176.700,247892.600,201446.700,190796.100,186035.000,198635.300,0.000
194837.900,205719.600,179394.600,248507.800,202843.700,191609.300,187037.700,199613.500,0.000
194840.200,206013.500,179876.400,248556.200,203574.800,191766.500,187394.300,199834.100,0.000
194206.200,205183.600,178939.400,247971.300,202618.500,191045.200,186601.400,198984.900,0.000
193817.400,204379.500,177875.900,247561.900,201306.400,190448.900,185762.500,198247.600,0.000
194217.400,204714.200,178141.900,247891.400,201447.800,190801.700,186032.500,198640.200,0.000
194839.700,205707.000,179352.100,248493.300,202834.900,191602.600,187027.000,199613.900,0.000
194827.700,205984.800,179825.100,248534.700,203550.700,191739.400,187369.100,199822.000,0.000
194188.600,205157.000,178892.700,247949.800,202594.900,191016.000,186578.200,198971.000,0.000
193802.500,204366.400,177837.500,247532.400,201287.800,190426.600,185747.300,198237.200,0.000
194202.100,204704.100,178108.900,247868.100,201432.000,190786.500,186025.000,198633.800,0.000
194830.900,205704.400,179324.800,248483.900,202828.500,191599.300,187025.900,199613.100,0.000
194827.500,205997.400,179807.800,248533.800,203557.200,191752.800,187380.000,199835.600,0.000
194194.100,205175.100,178879.100,247951.000,202610.900,191037.300,186596.000,198988.100,0.000
193810.400,204385.600,177823.300,247543.300,201310.700,190450.200,185764.500,198250.100,0.000
194205.000,204715.300,178081.900,247867.800,201446.300,190797.300,186030.400,198637.000,0.000
194837.900,205717.000,179294.900,248485.300,202840.700,191610.400,187033.100,199618.300,0.000
194835.200,206005.300,179775.200,248547.700,203567.500,191764.800,187387.600,199839.700,0.000
194189.400,205173.000,178842.000,247945.200,202615.500,191038.900,186598.700,198988.800,0.000
193802.400,204375.700,177781.800,247528.500,201307.500,190445.700,185762.100,198248.900,0.000
194193.700,204702.900,178036.200,247853.700,201438.000,190793.700,186025.600,198629.900,0.000
194819.500,205696.900,179241.200,248453.100,202821.300,191593.900,187017.400,199601.200,0.000
194831.100,205998.700,179737.200,248515.000,203559.400,191756.100,187381.600,199833.300,0.000
194193.700,205176.100,178809.500,247927.300,202614.800,191036.600,186595.600,198987.500,0.000
193808.000,204389.200,177756.500,247518.800,201316.900,190450.400,185769.000,198252.900,0.000
194193.600,204710.200,178006.300,247837.500,201441.900,190791.000,186027.100,198628.600,0.000
194817.300,205698.000,179207.900,248439.000,202820.800,191589.200,187019.800,199595.600,0.000
194825.100,205996.600,179700.300,248499.000,203558.100,191751.400,187385.300,199822.800,0.000
194189.500,205173.200,178772.600,247911.900,202614.500,191033.600,186602.200,198979.200,0.000
193801.100,204375.700,177709.700,247500.700,201304.100,190436.300,185764.400,198241.900,0.000
194188.100,204694.600,177960.700,247818.300,201424.600,190776.300,186022.800,198619.000,0.000
194810.500,205685.000,179168.400,248420.500,202806.700,191574.500,187019.100,199591.300,0.000
194814.500,205980.600,179657.700,248478.000,203538.900,191730.000,187377.500,199818.500,0.000
194186.000,205167.900,178740.200,247901.300,202603.500,191021.000,186600.500,198982.000,0.000
193802.700,204379.600,177686.200,247498.000,201299.300,190432.200,185769.700,198248.100,0.000
194188.700,204697.600,177935.500,247817.200,201421.300,190770.700,186027.400,198624.000,0.000
194810.800,205685.700,179141.600,248415.500,202803.500,191571.200,187021.700,199594.200,0.000
194813.100,205980.600,179633.000,248473.900,203540.900,191729.500,187381.800,199822.300,0.000
194178.500,205157.400,178708.100,247880.700,202601.600,191016.100,186597.600,198978.200,0.000
193791.900,204369.600,177650.700,247469.000,201297.900,190429.500,185765.500,198240.600,0.000
194172.200,204684.000,177893.100,247783.800,201412.900,190767.800,186019.600,198614.200,0.000
194800.000,205677.400,179093.100,248391.400,202790.600,191565.500,187012.500,199584.600,0.000
194810.600,205984.700,179591.200,248460.700,203535.700,191730.700,187381.800,199819.600,0.000
194177.800,205172.000,178678.900,247877.500,202606.800,191022.400,186607.600,198985.200,0.000
193786.100,204376.800,177619.800,247455.200,201300.700,190429.500,185771.300,198245.800,0.000
194175.800,204694.300,177863.700,247775.600,201418.700,190772.900,186027.000,198622.300,0.000
194807.600,205689.000,179073.600,248385.700,202804.700,191581.800,187026.400,199597.600,0.000
194825.200,205995.600,179578.300,248451.800,203555.200,191751.200,187396.000,199832.700,0.000
194193.000,205180.400,178662.100,247866.200,202621.500,191035.800,186615.000,198992.000,0.000
193790.900,204373.400,177590.100,247435.500,201299.300,190429.900,185764.000,198238.600,0.000
194170.400,204682.100,177824.900,247748.200,201404.500,190763.100,186008.500,198605.900,0.000
194803.800,205680.200,179036.500,248363.600,202788.800,191571.000,187008.800,199582.700,0.000
194815.000,205989.000,179543.400,248429.500,203540.700,191739.700,187382.700,199816.600,0.000
194179.300,205172.800,178629.600,247845.000,202612.400,191026.300,186606.200,198977.500,0.000
193777.100,204359.000,177553.400,247421.400,201289.200,190420.400,185755.500,198225.900,0.000
194167.300,204670.800,177790.800,247737.000,201396.700,190761.100,186006.800,198597.600,0.000
194801.500,205672.600,179003.300,248342.300,202786.100,191570.200,187009.900,199576.500,0.000
194808.600,205979.700,179506.800,248401.200,203535.800,191734.500,187379.600,199810.800,0.000
194180.400,205173.700,178597.900,247816.000,202610.100,191022.700,186606.000,198973.900,0.000
193783.500,204367.600,177528.400,247397.200,201294.300,190419.600,185763.500,198226.400,0.000
194165.700,204671.600,177756.600,247709.900,201393.200,190749.800,186006.600,198589.300,0.000
194798.200,205667.400,178964.900,248320.900,202774.000,191559.000,187005.300,199565.600,0.000
194815.500,205981.000,179480.200,248392.800,203533.500,191734.600,187384.600,199814.400,0.000
194192.700,205178.400,178580.000,247820.600,202615.500,191031.500,186616.300,198989.500,0.000
193791.900,204368.500,177508.400,247397.100,201296.600,190429.400,185767.100,198240.400,0.000
194164.600,204670.100,177730.400,247693.200,201388.400,190752.600,186002.900,198594.500,0.000
194806.000,205671.500,178942.600,248316.000,202776.200,191565.700,187004.800,199575.800,0.000
194819.900,205988.000,179455.700,248388.900,203539.700,191738.300,187382.600,199823.800,0.000
194186.200,205177.900,178552.000,247806.600,202624.300,191033.100,186615.100,198996.500,0.000
193780.200,204362.300,177468.100,247364.000,201289.100,190416.600,185756.500,198232.500,0.000
194164.000,204668.600,177698.100,247681.000,201383.200,190748.800,186000.500,198597.800,0.000
194802.200,205670.300,178912.100,248303.300,202770.000,191565.300,187004.600,199578.800,0.000
194821.500,205988.200,179425.900,248374.700,203532.200,191740.500,187382.700,199823.500,0.000
194198.500,205184.200,178520.800,247800.300,202616.600,191034.500,186616.800,198994.400,0.000
193788.700,204370.000,177440.400,247360.200,201292.500,190422.700,185763.500,198235.400,0.000
194166.000,204668.400,177665.200,247663.900,201387.300,190748.300,186002.400,198596.900,0.000
194800.800,205660.300,178873.400,248278.200,202769.500,191556.300,187001.900,199576.400,0.000
194826.100,205985.300,179397.900,248351.000,203536.400,191736.200,187388.800,199831.000,0.000
194205.900,205184.100,178501.300,247785.000,202626.300,191036.000,186626.900,199008.200,0.000
193790.700,204363.700,177415.500,247340.500,201295.100,190419.000,185765.200,198240.600,0.000
194165.300,204664.700,177638.100,247640.300,201385.000,190747.000,185998.800,198596.900,0.000
194807.200,205668.300,178854.600,248259.300,202772.100,191566.700,187004.500,199579.900,0.000
194830.500,205991.800,179378.500,248333.200,203544.700,191751.900,187392.100,199833.200,0.000
194204.800,205192.900,178483.300,247758.000,202636.700,191052.200,186633.300,199009.000,0.000
193804.200,204387.000,177410.500,247332.300,201314.200,190446.200,185783.700,198253.000,0.000
194177.300,204679.000,177624.700,247634.400,201395.000,190768.700,186014.300,198601.800,0.000
194815.100,205677.300,178832.100,248249.900,202774.000,191579.100,187010.600,199578.200,0.000
194842.300,206005.000,179358.800,248329.200,203550.500,191762.600,187400.700,199834.000,0.000
194216.900,205202.200,178460.300,247760.400,202645.000,191058.000,186636.900,199008.000,0.000
193801.000,204378.400,177371.700,247317.500,201312.700,190436.600,185775.500,198238.100,0.000
194173.000,204667.000,177581.100,247618.300,201388.600,190752.600,186002.400,198585.200,0.000
194809.000,205659.900,178784.500,248232.800,202760.500,191559.300,186997.200,199560.300,0.000
194834.900,205988.600,179314.500,248319.000,203538.300,191745.100,187390.300,199820.500,0.000
194213.000,205194.900,178424.400,247744.400,202635.900,191048.100,186631.600,198996.000,0.000
193809.100,204382.000,177344.700,247309.500,201311.300,190438.000,185778.600,198234.600,0.000
194178.500,204665.900,177547.800,247606.000,201381.400,190751.500,186001.800,198580.400,0.000
194820.200,205669.000,178758.400,248229.900,202761.900,191562.400,187001.000,199562.900,0.000
194845.400,206000.200,179291.500,248309.000,203540.600,191746.700,187395.900,199823.200,0.000
194221.700,205200.500,178399.200,247739.100,202637.100,191046.400,186637.400,199000.500,0.000
193811.500,204379.700,177315.800,247302.500,201304.800,190429.500,185776.300,198232.500,0.000
194183.800,204668.400,177527.300,247604.700,201376.900,190747.900,185999.500,198580.000,0.000
194826.100,205672.000,178743.900,248231.300,202759.700,191566.100,187001.900,199567.500,0.000
194849.300,206000.000,179275.000,248308.400,203536.000,191748.400,187392.000,199826.000,0.000
194218.900,205192.500,178378.100,247720.000,202631.400,191038.700,186623.800,198995.000,0.000
193808.000,204366.400,177294.300,247290.100,201303.700,190422.400,185763.500,198230.900,0.000
194177.600,204655.300,177503.400,247591.100,201375.600,190741.700,185986.600,198577.000,0.000
194824.300,205665.000,178721.000,248214.300,202760.800,191561.600,186992.700,199564.100,0.000
194845.600,205994.500,179254.100,248293.500,203540.700,191744.100,187383.900,199820.800,0.000
194215.300,205192.800,178362.100,247713.800,202638.600,191040.800,186620.700,198994.100,0.000
193808.500,204374.700,177282.200,247284.700,201313.100,190429.200,185767.000,198234.300,0.000
194167.500,204653.800,177479.700,247579.200,201371.500,190736.300,185979.800,198571.000,0.000
194806.000,205659.200,178690.300,248189.700,202750.200,191551.700,186982.400,199549.000,0.000
194840.100,206001.200,179237.000,248276.100,203544.600,191751.100,187391.800,199822.300,0.000
194219.500,205217.000,178358.700,247711.700,202657.500,191060.100,186641.500,199008.000,0.000
193802.500,204392.200,177276.200,247276.200,201326.700,190444.800,185778.400,198239.500,0.000
194162.700,204664.100,177472.100,247569.500,201385.100,190751.600,185992.600,198576.000,0.000
194804.000,205663.000,178681.500,248192.800,202764.200,191564.700,186995.000,199561.900,0.000
194840.200,206008.500,179226.000,248277.900,203557.200,191761.300,187399.500,199834.500,0.000
194210.100,205207.200,178330.800,247692.100,202655.200,191053.700,186635.600,199005.500,0.000
193789.800,204372.700,177231.600,247250.400,201308.400,190420.700,185762.000,198225.400,0.000
194158.200,204648.900,177428.400,247550.000,201364.700,190731.800,185977.300,198563.900,0.000
194798.100,205650.300,178636.800,248170.400,202742.800,191550.300,186980.800,199547.100,0.000
194831.600,205994.700,179182.900,248255.900,203539.500,191747.900,187390.200,199821.300,0.000
194211.500,205205.500,178303.500,247688.400,202652.700,191054.800,186638.200,199006.200,0.000
193788.700,204375.000,177204.500,247238.100,201306.200,190421.600,185762.900,198224.100,0.000
194153.800,204653.400,177398.100,247533.700,201361.300,190730.400,185974.400,198559.900,0.000
194797.600,205651.300,178604.600,248159.800,202735.100,191544.900,186969.500,199540.800,0.000
194843.200,206005.800,179161.000,248258.800,203538.900,191746.800,187381.500,199821.400,0.000
194215.800,205211.600,178276.300,247671.000,202648.700,191045.700,186623.200,198997.600,0.000
193798.400,204379.800,177182.000,247225.700,201310.400,190422.700,185755.300,198221.300,0.000
194160.200,204654.600,177370.800,247521.800,201361.700,190726.500,185962.400,198555.100,0.000
194792.900,205645.400,178570.100,248131.100,202727.200,191531.300,186953.000,199529.400,0.000
194834.300,205994.000,179124.900,248227.200,203531.000,191738.100,187369.900,199812.900,0.000
194216.000,205209.400,178256.000,247663.200,202656.800,191050.900,186630.200,199007.300,0.000
193798.500,204381.000,177163.000,247224.400,201316.000,190425.500,185759.600,198229.900,0.000
194152.100,204646.800,177345.500,247507.900,201357.000,190722.000,185959.600,198554.500,0.000
194788.500,205643.000,178545.400,248115.500,202721.500,191528.400,186949.400,199526.200,0.000
194830.300,205994.000,179101.700,248207.500,203528.800,191734.400,187361.600,199804.300,0.000
194209.100,205210.400,178230.000,247644.000,202654.200,191046.000,186619.000,198997.000,0.000
193786.100,204383.400,177139.100,247203.300,201316.900,190423.500,185756.100,198226.800,0.000
194138.100,204647.600,177314.900,247484.000,201352.500,190718.700,185956.300,198549.600,0.000
194778.100,205643.100,178514.200,248100.200,202716.800,191530.600,186950.600,199529.000,0.000
194817.500,205993.600,179074.400,248194.700,203527.700,191739.400,187369.000,199816.900,0.000
194198.800,205212.300,178208.500,247632.100,202658.800,191053.200,186627.700,199011.500,0.000
193775.300,204377.300,177112.700,247186.000,201316.800,190422.800,185754.900,198231.100,0.000
194124.500,204632.700,177286.400,247465.500,201346.700,190715.600,185949.500,198549.500,0.000
194766.300,205631.300,178486.600,248082.500,202710.300,191528.200,186942.800,199527.100,0.000
194816.700,205992.900,179047.400,248183.300,203526.800,191741.100,187364.800,199815.300,0.000
194202.000,205214.900,178184.300,247619.200,202662.400,191054.800,186628.600,199010.800,0.000
193786.900,204384.900,177094.000,247186.100,201323.000,190429.000,185762.300,198237.500,0.000
194141.400,204643.100,177268.900,247482.500,201355.500,190726.200,185959.600,198559.000,0.000
194771.700,205635.400,178468.800,248078.400,202724.900,191536.900,186955.500,199531.000,0.000
194815.000,205991.500,179030.600,248166.100,203540.000,191746.200,187377.200,199812.000,0.000
194208.400,205226.000,178176.800,247612.900,202682.700,191070.600,186651.000,199016.600,0.000
193774.100,204376.600,177064.600,247157.400,201326.600,190431.600,185770.500,198229.700,0.000
194125.900,204629.300,177227.700,247439.800,201350.600,190723.000,185959.400,198546.600,0.000
194767.200,205628.700,178429.400,248056.800,202718.600,191535.200,186951.600,199528.000,0.000
194811.400,205981.700,178992.000,248147.400,203529.200,191741.100,187366.000,199813.700,0.000
194196.300,205198.400,178128.500,247587.100,202660.500,191051.000,186625.700,199007.600,0.000
193776.500,204371.200,177037.500,247149.200,201323.800,190426.900,185760.900,198235.700,0.000
194125.100,204626.600,177203.400,247424.300,201347.900,190715.900,185952.100,198551.200,0.000
194767.100,205623.200,178402.100,248035.200,202710.400,191526.000,186943.200,199529.100,0.000
194820.000,205985.900,178969.600,248130.800,203527.900,191737.800,187367.700,199821.900,0.000
194209.300,205212.200,178112.200,247572.200,202664.300,191055.100,186635.900,199021.600,0.000
193787.700,204382.700,177019.000,247129.200,201322.900,190429.500,185770.200,198244.600,0.000
194130.000,204633.500,177183.700,247402.800,201341.500,190718.700,185958.900,198555.000,0.000
194781.600,205638.000,178393.500,248030.500,202712.300,191542.000,186963.300,199541.900,0.000
194833.100,205999.400,178963.600,248131.600,203530.600,191757.800,187390.600,199838.100,0.000
194212.800,205215.000,178096.900,247562.800,202660.500,191068.300,186647.600,199029.700,0.000
193783.000,204377.600,176993.500,247114.000,201311.600,190433.300,185769.500,198241.900,0.000
194129.600,204630.100,177156.600,247399.300,201330.500,190721.100,185953.400,198552.800,0.000
194778.500,205632.800,178361.100,248028.300,202699.600,191540.600,186951.700,199540.200,0.000
194836.000,206005.000,178937.600,248133.400,203529.000,191761.500,187386.400,199839.900,0.000
194216.600,205228.600,178077.400,247571.100,202671.200,191078.600,186650.400,199035.000,0.000
193781.400,204383.700,176967.200,247122.200,201320.700,190443.700,185766.800,198247.900,0.000
194136.200,204641.300,177134.200,247404.000,201342.600,190740.200,185959.100,198567.900,0.000
194779.000,205639.000,178335.100,248028.200,202703.800,191552.100,186956.200,199551.600,0.000
194828.600,206003.800,178908.700,248134.700,203526.600,191767.200,187382.800,199844.500,0.000
194212.000,205231.800,178056.600,247575.400,202673.800,191084.500,186652.600,199046.000,0.000
193778.800,204392.000,176954.600,247121.600,201325.400,190445.600,185777.300,198258.800,0.000
194120.500,204629.100,177102.100,247397.100,201326.000,190722.300,185951.100,198556.900,0.000
194767.600,205627.000,178301.900,248021.900,202686.100,191536.800,186945.000,199537.300,0.000
194821.600,205996.900,178876.500,248118.600,203514.500,191752.000,187374.500,199833.500,0.000
194207.600,205226.300,178020.500,247557.800,202661.500,191069.100,186641.500,199033.400,0.000
193781.900,204389.800,176918.500,247119.700,201313.400,190438.400,185766.300,198250.900,0.000
194120.200,204626.600,177064.100,247392.100,201313.900,190714.500,185940.000,198548.000,0.000
194774.300,205629.700,178273.800,248023.400,202682.900,191535.200,186947.200,199535.600,0.000
194831.400,206003.900,178858.000,248126.400,203516.500,191755.100,187384.400,199835.300,0.000
194218.200,205240.000,178010.400,247567.400,202671.900,191075.100,186657.700,199037.800,0.000
193780.000,204391.200,176897.300,247111.600,201317.000,190434.200,185771.800,198244.700,0.000
194122.500,204624.500,177041.700,247384.300,201312.700,190714.000,185944.200,198543.200,0.000
194771.600,205624.000,178243.400,248007.200,202674.400,191532.400,186940.900,199524.400,0.000
194832.100,205999.700,178827.900,248115.700,203515.000,191758.100,187381.700,199832.600,0.000
194222.000,205238.100,177985.300,247560.400,202678.700,191084.500,186664.300,199042.500,0.000
193792.500,204393.700,176877.600,247113.400,201329.900,190446.100,185784.900,198250.400,0.000
194134.200,204636.300,177025.300,247382.000,201328.400,190724.000,185957.600,198548.600,0.000
194776.800,205633.400,178222.500,248000.300,202685.500,191535.100,186947.400,199528.800,0.000
194833.700,206009.300,178814.200,248111.600,203527.000,191761.800,187391.200,199840.500,0.000
194218.000,205239.600,177966.800,247555.100,202678.800,191081.000,186665.800,199042.800,0.000
193779.200,204388.500,176851.500,247091.300,201318.200,190434.000,185779.000,198241.100,0.000
194115.400,204621.000,176993.900,247363.500,201311.100,190708.100,185947.600,198535.200,0.000
194757.700,205613.600,178189.000,247982.300,202661.200,191518.300,186936.600,199516.900,0.000
194818.500,205997.500,178782.800,248096.200,203506.200,191747.700,187383.700,199830.600,0.000
194208.700,205235.300,177941.700,247542.700,202669.800,191072.500,186665.100,199038.500,0.000
193775.200,204388.000,176832.900,247105.500,201319.300,190432.200,185783.700,198246.400,0.000
194111.000,204619.100,176970.400,247394.800,201308.700,190704.900,185952.000,198540.000,0.000
194765.000,205624.100,178175.000,248036.300,202673.400,191527.500,186951.300,199527.700,0.000
194826.600,206009.200,178770.400,248146.700,203523.900,191761.100,187398.000,199840.400,0.000
194214.300,205248.800,177933.800,247578.000,202691.100,191091.300,186683.200,199051.500,0.000
193770.800,204394.100,176814.900,247108.800,201327.500,190440.700,185789.800,198247.100,0.000
194095.900,204613.700,176941.300,247361.000,201304.600,190701.900,185942.500,198528.100,0.000
194749.300,205617.200,178144.600,247980.900,202665.300,191521.900,186937.400,199514.500,0.000
194815.500,206006.400,178743.800,248091.900,203516.100,191754.200,187383.600,199831.500,0.000
194203.800,205247.000,177910.300,247531.100,202686.200,191081.500,186668.600,199043.100,0.000
193771.000,204400.000,176807.400,247081.200,201340.100,190441.300,185796.000,198253.100,0.000
194107.800,204629.300,176943.600,247351.200,201326.100,190709.200,185961.000,198542.200,0.000
194756.500,205623.500,178141.300,247978.000,202680.100,191525.300,186952.900,199522.300,0.000
194813.800,205997.800,178727.000,248076.800,203517.700,191748.300,187391.300,199826.000,0.000
194206.600,205231.700,177883.800,247515.900,202676.200,191073.500,186670.500,199034.400,0.000
193770.000,204376.300,176767.400,247061.300,201316.900,190429.700,185784.000,198236.900,0.000
194112.000,204615.400,176906.600,247339.000,201306.200,190707.400,185954.900,198532.400,0.000
194756.700,205610.400,178103.200,247961.000,202658.600,191523.500,186947.000,199512.900,0.000
194829.300,206005.000,178711.100,248076.900,203518.300,191763.900,187406.900,199837.400,0.000
194221.600,205250.200,177884.500,247529.800,202699.100,191095.200,186699.600,199059.100,0.000
193772.000,204387.800,176759.000,247062.600,201330.000,190438.700,185801.000,198252.200,0.000
194114.000,204624.500,176897.000,247334.900,201311.800,190710.400,185967.600,198544.600,0.000
194761.000,205617.800,178091.500,247955.600,202661.300,191521.000,186958.200,199522.200,0.000
194833.500,206009.900,178696.900,248074.900,203522.800,191759.500,187411.800,199845.500,0.000
194227.600,205251.300,177868.300,247525.100,202700.300,191090.500,186699.000,199063.300,0.000
193781.900,204384.700,176741.900,247058.600,201329.400,190434.300,185802.400,198255.600,0.000
194110.600,204603.800,176862.400,247319.700,201296.400,190694.400,185954.800,198534.300,0.000
194755.600,205601.000,178058.100,247946.900,202648.800,191510.100,186947.000,199516.700,0.000
194830.200,206003.000,178668.500,248065.000,203513.700,191752.400,187406.200,199843.000,0.000
194223.400,205250.800,177841.900,247508.800,202694.200,191082.400,186693.800,199057.800,0.000
193780.500,204399.000,176730.100,247055.100,201337.800,190437.600,185808.500,198257.000,0.000
194109.500,204614.200,176852.200,247325.000,201308.000,190703.800,185968.400,198540.800,0.000
194754.900,205606.700,178039.600,247949.300,202656.300,191515.000,186956.000,199519.600,0.000
194822.500,206005.200,178647.800,248054.700,203521.700,191756.000,187413.100,199841.000,0.000
194224.000,205266.900,177833.100,247507.300,202711.100,191094.600,186711.800,199067.000,0.000
193778.800,204407.900,176712.700,247049.500,201349.100,190447.100,185817.200,198261.700,0.000
194093.400,204606.900,176818.600,247300.000,201304.100,190698.300,185956.200,198525.800,0.000
194748.000,205609.600,178014.900,247928.200,202656.900,191516.700,186949.600,199507.800,0.000
194827.100,206011.800,178628.500,248055.900,203526.800,191765.100,187411.800,199839.300,0.000
194219.600,205256.400,177803.800,247507.900,202709.100,191099.300,186703.100,199059.100,0.000
193778.400,204396.900,176679.400,247050.100,201343.700,190447.100,185808.900,198255.600,0.000
194105.800,204612.500,176794.700,247309.500,201308.800,190704.700,185960.100,198532.800,0.000
194753.300,205604.900,177986.300,247932.800,202655.400,191519.400,186950.500,199514.900,0.000
194836.900,206013.500,178606.600,248059.000,203528.800,191773.000,187420.500,199852.100,0.000
194232.600,205269.400,177791.600,247510.200,202721.500,191111.500,186721.700,199076.400,0.000
193773.000,204395.500,176657.600,247036.000,201346.800,190446.300,185820.100,198259.100,0.000
194100.400,204608.200,176768.200,247290.900,201303.900,190701.200,185962.600,198528.000,0.000
194757.500,205608.000,177966.900,247920.500,202655.900,191521.800,186954.200,199513.600,0.000
194845.900,206020.000,178591.800,248056.400,203535.400,191775.000,187423.200,199855.500,0.000
194242.600,205271.200,177772.200,247506.200,202722.500,191108.300,186715.000,199077.400,0.000
193790.200,204402.800,176642.900,247035.800,201350.800,190447.800,185813.700,198262.600,0.000
194115.400,204615.700,176758.800,247291.700,201311.200,190706.800,185959.700,198535.200,0.000
194768.800,205613.800,177957.400,247924.000,202661.200,191527.100,186953.000,199520.800,0.000
194843.500,206016.400,178574.700,248046.800,203534.000,191773.300,187418.900,199854.600,0.000
194240.300,205270.300,177757.400,247496.700,202728.600,191106.900,186717.200,199079.300,0.000
193789.700,204404.700,176628.100,247030.200,201357.900,190448.600,185816.600,198265.400,0.000
194116.300,204607.500,176731.900,247289.200,201306.200,190702.500,185955.000,198532.300,0.000
194766.500,205604.400,177923.400,247910.300,202648.800,191515.000,186942.000,199509.000,0.000
194851.000,206020.200,178558.100,248049.300,203537.000,191772.000,187422.200,199855.200,0.000
194248.100,205281.700,177750.900,247497.400,202744.500,191114.700,186726.700,199086.000,0.000
193791.400,204417.100,176618.300,247022.000,201374.800,190452.200,185822.900,198269.500,0.000
194107.800,204614.500,176711.600,247269.900,201311.400,190698.200,185955.000,198529.500,0.000
194760.200,205601.900,177897.600,247896.300,202646.200,191514.400,186942.300,199510.800,0.000
