EEG 1, EEG 2, EEG 3, EEG 4, EEG 5, EEG 6, EEG 7, EEG 8, TRIG
462586.700,487296.800,750000.100,750000.100,484664.800,450229.700,443557.400,466387.800,0.000
393018.200,413799.700,750000.100,750000.100,411615.300,382171.600,376590.700,396380.000,0.000
353671.300,372489.300,750000.100,750000.100,370827.200,343873.200,339049.100,357041.300,0.000
338262.500,356325.200,750000.100,750000.100,355061.200,328926.300,324435.200,341717.800,0.000
326375.000,343602.300,750000.100,750000.100,342405.300,317274.900,312881.800,329653.300,0.000
316105.000,332444.900,750000.100,750000.100,331078.000,307102.700,302692.800,319074.500,0.000
307499.300,323157.300,750000.100,714229.600,321743.300,298610.200,294235.800,310307.600,0.000
299928.100,315202.400,750000.100,676287.000,314003.900,291292.100,287073.400,302794.500,0.000
292713.500,307690.400,750000.100,643153.000,306699.500,284372.500,280318.100,295617.400,0.000
285821.700,300322.800,750000.100,613868.300,299301.600,277655.100,273643.600,288564.700,0.000
279726.000,293634.100,750000.100,588164.400,292415.200,271593.800,267534.800,282206.800,0.000
274593.000,288068.000,750000.100,565727.100,286768.500,266511.200,262459.400,276950.200,0.000
269983.500,283286.800,750000.100,545815.100,282137.700,262083.500,258147.400,272408.400,0.000
265376.800,278567.800,750000.100,527618.900,277591.200,257712.400,253910.700,267863.600,0.000
260796.900,273694.300,750000.100,510882.800,272679.200,253256.100,249484.500,263160.300,0.000
256720.200,269201.200,750000.100,495817.800,267994.200,249184.800,245356.400,258867.300,0.000
253334.300,265533.300,750000.100,482435.700,264250.900,245820.700,241996.900,255392.900,0.000
250302.200,262444.500,750000.100,470343.800,261302.100,242932.000,239219.800,252449.500,0.000
247126.600,259250.900,750000.100,458968.100,258262.400,239956.200,236357.500,249351.000,0.000
243851.800,255776.900,750000.100,448219.800,254749.400,236778.600,233192.500,245978.100,0.000
240944.700,252538.000,750000.100,438383.500,251336.500,233844.800,230204.900,242877.500,0.000
238600.800,249988.600,750000.100,429610.300,248695.900,231485.600,227845.600,240457.700,0.000
236504.900,247891.500,750000.100,421611.800,246723.000,229505.600,225962.200,238461.900,0.000
234225.000,245638.400,750000.100,413939.000,244623.800,227394.900,223960.600,236276.100,0.000
231789.700,243055.700,750000.100,406511.600,242006.600,225031.900,221609.400,233764.200,0.000
229647.200,240649.400,750000.100,399680.100,239431.400,222858.200,219374.300,231458.700,0.000
227982.200,238828.500,750000.100,393589.800,237540.000,221181.300,217689.300,229743.500,0.000
226517.900,237395.300,750000.100,388014.900,236228.500,219812.600,216405.000,228379.400,0.000
224836.600,235771.600,750000.100,382561.100,234755.600,218281.400,214968.600,226797.300,0.000
222974.400,233797.100,750000.100,377178.200,232753.200,216480.000,213172.500,224871.200,0.000
221355.400,231957.800,750000.100,372203.800,230746.200,214817.800,211448.300,223101.200,0.000
220165.400,230651.300,750000.100,367810.700,229366.800,213606.800,210222.000,221867.500,0.000
219130.100,229663.800,750000.100,363779.500,228518.700,212662.500,209358.800,220945.000,0.000
217863.400,228460.900,729475.100,359741.900,227473.600,211526.800,208313.300,219774.300,0.000
216401.200,226909.200,709187.200,355665.500,225893.500,210111.100,206896.200,218245.700,0.000
215156.900,225461.200,689952.800,351907.700,224285.600,208808.500,205532.600,216850.800,0.000
214311.000,224504.200,672178.100,348642.600,223266.800,207924.500,204635.700,215960.700,0.000
213589.800,223854.500,655618.400,345657.300,222743.800,207280.600,204065.500,215348.500,0.000
212630.700,222985.000,639610.100,342609.300,222023.700,206446.400,203311.900,214485.900,0.000
211456.500,221739.100,623897.000,339468.300,220758.500,205315.200,202177.200,213260.600,0.000
210475.300,220580.800,608934.500,336564.100,219446.000,204281.500,201076.700,212146.400,0.000
209874.700,219888.300,595148.400,334097.300,218693.300,203646.100,200422.200,211510.000,0.000
209387.900,219475.200,582317.500,331853.900,218410.200,203227.900,200076.200,211133.400,0.000
208655.300,218831.500,569809.600,329506.200,217918.600,202609.300,199537.500,210498.200,0.000
207698.300,217809.200,557386.200,327012.800,216873.400,201683.400,198607.300,209484.900,0.000
206912.000,216848.000,545502.800,324706.800,215759.800,200829.100,197687.000,208558.100,0.000
206491.300,216340.600,534612.300,322795.900,215195.300,200360.800,197198.400,208098.700,0.000
206176.900,216110.600,524506.900,321079.700,215085.300,200107.100,197009.700,207889.700,0.000
205606.200,215636.100,514562.900,319216.000,214755.700,199643.500,196620.300,207414.000,0.000
204817.500,214787.800,504573.900,317207.500,213886.300,198880.600,195851.200,206571.800,0.000
204188.700,213999.600,494990.500,315351.200,212944.700,198183.600,195087.300,205810.500,0.000
203904.700,213644.800,486256.200,313850.800,212526.100,197852.900,194731.700,205489.400,0.000
203723.100,213548.600,478192.700,312535.200,212561.300,197727.100,194671.300,205411.300,0.000
203280.700,213205.400,470176.900,311049.900,212366.100,197381.500,194399.500,205059.900,0.000
202613.500,212486.300,462017.600,309396.200,211626.400,196735.900,193746.500,204342.300,0.000
202090.500,211805.900,454157.300,307876.200,210800.000,196145.600,193085.500,203689.800,0.000
201919.800,211565.200,447065.300,306697.600,210501.300,195927.400,192838.800,203483.400,0.000
201837.500,211579.100,440551.100,305683.400,210633.500,195900.600,192877.500,203512.000,0.000
201489.900,211335.200,434011.300,304491.800,210531.600,195650.900,192699.900,203260.300,0.000
200906.300,210705.000,427243.600,303105.000,209880.800,195088.100,192127.400,202626.500,0.000
200470.900,210124.600,420714.800,301813.600,209150.300,194585.300,191553.700,202060.000,0.000
200382.100,209963.500,414883.100,300883.200,208933.600,194441.200,191383.100,201933.600,0.000
200375.900,210050.300,409566.300,300086.200,209142.000,194482.400,191487.500,202034.300,0.000
200108.900,209886.300,404169.500,299106.700,209119.000,194305.600,191379.100,201858.500,0.000
199603.800,209334.700,398497.500,297922.800,208545.000,193815.800,190879.700,201302.800,0.000
199243.700,208821.700,393016.300,296859.700,207888.700,193381.400,190377.400,200817.100,0.000
199222.800,208740.400,388187.600,296115.800,207743.600,193305.000,190275.700,200765.300,0.000
199284.600,208900.000,383821.100,295505.300,208016.300,193412.200,190444.700,200931.400,0.000
199074.600,208799.800,379327.300,294694.300,208052.700,193294.200,190392.600,200812.500,0.000
198634.200,208314.900,374525.900,293681.700,207543.500,192867.300,189951.600,200319.400,0.000
198332.300,207861.400,369873.400,292775.800,206945.100,192488.300,189503.400,199889.500,0.000
198359.300,207820.100,365828.900,292179.000,206850.100,192458.300,189445.400,199881.000,0.000
198471.300,208030.500,362219.900,291714.000,207174.000,192611.200,189656.400,200092.300,0.000
198310.000,207990.700,358457.700,291044.600,207263.400,192541.400,189650.800,200026.800,0.000
197895.700,207538.500,354338.500,290149.600,206792.200,192139.800,189240.500,199567.000,0.000
197625.900,207125.000,350347.700,289371.300,206241.200,191795.000,188826.800,199174.900,0.000
197686.000,207134.600,346935.300,288881.700,206190.700,191803.100,188806.600,199206.000,0.000
197825.500,207374.000,343925.800,288518.200,206548.400,191987.500,189047.100,199452.400,0.000
197699.800,207367.500,340749.100,287958.400,206680.700,191947.900,189077.500,199423.500,0.000
197330.400,206965.200,337196.900,287169.300,206257.200,191594.500,188709.300,199005.000,0.000
197096.400,206590.600,333737.400,286478.700,205739.200,191287.100,188326.700,198644.300,0.000
197178.200,206612.700,330828.200,286084.800,205709.900,191313.400,188324.900,198697.500,0.000
197343.400,206878.900,328309.600,285814.800,206099.100,191524.500,188593.900,198971.300,0.000
197248.000,206898.600,325609.400,285348.500,206263.800,191517.000,188654.900,198973.400,0.000
196905.000,206519.900,322517.700,284654.300,205866.200,191186.500,188313.300,198587.800,0.000
196672.800,206155.900,319486.200,284020.300,205362.300,190887.100,187941.600,198239.500,0.000
196775.300,206204.200,316998.000,283702.100,205352.900,190934.500,187959.200,198312.100,0.000
196956.800,206490.000,314881.100,283506.300,205754.200,191163.600,188242.300,198599.700,0.000
196868.400,206524.000,312556.600,283085.400,205923.200,191168.300,188311.300,198609.300,0.000
196544.600,206168.100,309836.600,282454.800,205548.600,190860.200,187990.500,198240.400,0.000
196349.400,205832.600,307173.300,281905.900,205072.700,190590.100,187648.100,197919.300,0.000
196475.100,205903.500,305036.300,281649.000,205086.800,190661.800,187690.800,198017.400,0.000
196679.100,206212.400,303256.700,281503.300,205508.000,190909.800,187994.800,198328.800,0.000
196614.600,206269.900,301259.900,281153.000,205697.700,190932.700,188082.200,198359.700,0.000
196303.400,205931.000,298852.400,280572.300,205341.400,190636.300,187775.900,198009.200,0.000
196120.800,205612.600,296490.600,280067.800,204880.900,190378.800,187445.500,197706.800,0.000
196258.500,205694.900,294638.500,279858.000,204904.600,190459.000,187492.900,197812.400,0.000
196481.600,206023.800,293145.500,279771.500,205351.700,190726.900,187816.600,198141.500,0.000
196427.700,206086.300,291414.400,279470.000,205557.900,190760.300,187915.400,198183.800,0.000
196131.700,205763.000,289265.700,278918.000,205216.100,190479.300,187622.100,197842.400,0.000
195962.700,205461.900,287156.700,278458.700,204773.700,190235.100,187307.000,197551.700,0.000
196106.500,205554.200,285544.400,278281.800,204807.700,190321.000,187363.200,197666.400,0.000
196324.900,205879.500,284265.700,278212.900,205239.500,190581.400,187674.800,197988.300,0.000
196281.800,205957.300,282761.800,277942.300,205450.000,190624.000,187781.800,198039.900,0.000
195994.300,205635.000,280833.000,277433.500,205117.200,190347.700,187497.700,197708.300,0.000
195825.500,205327.400,278923.300,277000.500,204672.800,190102.800,187181.400,197418.600,0.000
195977.100,205423.100,277511.600,276864.200,204715.300,190198.000,187247.800,197544.100,0.000
196207.600,205761.800,276439.500,276841.900,205168.400,190473.400,187578.200,197885.100,0.000
196156.600,205833.300,275112.700,276585.100,205374.800,190510.500,187678.700,197931.000,0.000
195872.200,205519.700,273358.300,276104.000,205036.500,190236.900,187390.800,197600.700,0.000
195714.200,205228.000,271637.900,275708.300,204605.400,190006.600,187086.400,197325.300,0.000
195873.200,205338.900,270402.500,275603.100,204654.400,190110.000,187158.600,197457.500,0.000
196103.000,205673.900,269492.000,275587.800,205111.600,190388.700,187493.700,197801.600,0.000
196065.600,205754.900,268334.800,275365.800,205331.800,190438.500,187610.800,197860.600,0.000
195785.200,205443.600,266734.200,274911.800,204989.700,190163.800,187322.500,197526.700,0.000
195636.000,205162.100,265167.300,274551.800,204559.600,189934.500,187022.100,197255.800,0.000
195798.700,205269.700,264083.900,274470.800,204615.100,190036.200,187097.800,197392.100,0.000
196036.100,205606.700,263310.900,274470.100,205064.100,190311.500,187424.700,197728.400,0.000
196014.200,205698.100,262293.700,274287.000,205287.000,190370.400,187543.000,197797.400,0.000
195733.900,205391.600,260830.800,273865.800,204956.000,190105.700,187263.600,197478.400,0.000
195562.900,205092.600,259377.200,273474.800,204519.800,189863.800,186953.200,197190.100,0.000
195739.000,205217.500,258425.100,273418.700,204582.500,189981.000,187035.900,197335.000,0.000
195993.800,205574.300,257793.700,273485.200,205049.200,190274.500,187379.700,197694.000,0.000
195956.500,205653.800,256888.500,273298.400,205266.600,190324.500,187491.800,197750.000,0.000
195676.200,205344.800,255539.700,272866.600,204941.000,190062.800,187215.000,197425.700,0.000
195538.000,205080.300,254220.500,272547.600,204525.300,189847.700,186928.500,197165.500,0.000
195691.100,205178.700,253357.600,272478.600,204567.700,189945.700,186997.200,197291.100,0.000
195939.000,205531.500,252825.300,272544.800,205029.300,190234.700,187340.000,197644.500,0.000
195901.000,205617.400,252025.900,272370.300,205252.600,190291.900,187462.500,197706.400,0.000
195622.600,205307.700,250779.500,271956.600,204927.200,190029.800,187188.400,197384.800,0.000
195483.600,205026.000,249550.900,271645.300,204506.100,189807.400,186897.200,197119.900,0.000
195652.800,205138.800,248792.500,271620.700,204559.200,189917.200,186976.900,197260.400,0.000
195887.400,205480.000,248344.500,271653.300,205012.300,190196.300,187308.300,197599.600,0.000
195874.600,205585.200,247648.400,271518.200,205248.200,190262.200,187436.600,197677.000,0.000
195600.800,205279.600,246485.800,271132.800,204917.700,189996.500,187156.900,197355.900,0.000
195460.500,204997.500,245341.500,270853.300,204496.200,189780.100,186864.500,197095.900,0.000
195622.600,205109.300,244654.300,270808.300,204539.700,189880.600,186932.200,197224.200,0.000
195879.600,205469.700,244295.800,270886.700,205004.400,190175.400,187276.300,197577.000,0.000
195857.900,205567.200,243670.300,270761.200,205230.500,190240.400,187404.200,197649.400,0.000
195580.300,205259.000,242590.000,270381.800,204909.400,189978.600,187134.100,197331.300,0.000
195438.400,204974.100,241514.900,270085.700,204480.000,189752.800,186835.600,197057.100,0.000
195617.000,205098.800,240916.900,270092.000,204536.400,189872.100,186918.300,197205.300,0.000
195851.500,205437.400,240613.100,270156.900,204986.800,190149.400,187249.300,197547.200,0.000
195822.100,205533.700,240051.400,270014.800,205208.800,190208.000,187372.100,197614.100,0.000
195554.400,205239.600,239044.900,269663.900,204890.000,189954.000,187105.900,197305.800,0.000
195416.500,204961.400,238039.500,269390.100,204465.500,189734.100,186813.600,197043.100,0.000
195589.500,205079.300,237498.100,269397.400,204522.000,189848.700,186895.700,197188.100,0.000
195836.600,205429.500,237268.200,269483.600,204986.900,190138.800,187239.100,197538.300,0.000
195810.800,205520.400,236771.200,269364.100,205213.200,190197.800,187363.300,197606.700,0.000
195537.900,205219.500,235811.900,269010.200,204885.000,189936.000,187086.400,197290.600,0.000
195389.000,204939.700,234860.300,268722.200,204460.500,189713.900,186790.900,197020.000,0.000
195572.000,205066.400,234387.900,268743.200,204522.900,189837.600,186880.500,197170.800,0.000
195822.400,205419.200,234213.300,268853.200,204983.900,190129.400,187222.200,197526.500,0.000
195793.800,205507.700,233764.500,268730.300,205205.400,190188.000,187341.700,197594.100,0.000
195523.500,205205.400,232863.500,268380.700,204878.400,189928.200,187071.000,197276.900,0.000
195389.000,204931.500,231971.700,268128.700,204461.300,189713.300,186785.400,197017.900,0.000
195570.900,205061.700,231546.700,268161.500,204525.200,189835.800,186876.600,197172.700,0.000
195809.200,205404.400,231409.500,268250.700,204976.100,190116.900,187210.200,197516.000,0.000
195791.500,205502.500,231016.200,268151.200,205205.800,190179.000,187336.300,197589.300,0.000
195524.400,205205.500,230161.200,267819.500,204880.400,189920.800,187062.800,197272.700,0.000
195375.300,204921.300,229306.300,267544.400,204454.800,189701.900,186768.500,197002.100,0.000
195542.500,205022.500,228912.600,267563.600,204501.100,189811.200,186845.500,197141.000,0.000
195795.200,205381.600,228830.500,267680.100,204960.200,190102.100,187191.100,197493.400,0.000
195771.900,205480.700,228479.000,267592.900,205188.000,190163.200,187321.000,197566.400,0.000
195509.700,205190.300,227667.800,267266.300,204864.600,189909.600,187053.400,197253.500,0.000
195374.200,204917.600,226861.800,267024.100,204449.000,189697.600,186770.200,196997.300,0.000
195547.900,205036.600,226515.700,267048.100,204509.900,189813.100,186857.000,197140.400,0.000
195792.100,205381.300,226465.700,267169.300,204965.700,190095.600,187194.200,197484.200,0.000
195771.800,205480.200,226149.400,267072.300,205190.700,190156.300,187320.900,197556.400,0.000
195513.700,205193.600,225379.000,266761.300,204871.000,189908.800,187057.000,197252.900,0.000
195362.600,204910.600,224597.800,266497.600,204442.700,189685.500,186760.000,196982.200,0.000
195538.100,205030.100,224286.600,266527.400,204500.000,189802.600,186845.400,197128.400,0.000
195790.900,205386.500,224282.100,266666.500,204964.100,190097.000,187192.500,197488.400,0.000
195771.600,205483.100,224006.900,266591.900,205194.700,190161.200,187322.300,197566.100,0.000
195515.800,205195.500,223274.200,266288.700,204879.900,189912.900,187060.100,197260.200,0.000
195371.100,204915.000,222530.700,266050.200,204453.600,189691.100,186766.800,196993.400,0.000
195534.300,205022.400,222242.600,266059.800,204501.900,189791.000,186844.900,197127.500,0.000
195786.500,205378.000,222265.300,266202.400,204962.800,190050.700,187190.600,197482.900,0.000
195767.900,205480.100,222023.800,266138.900,205197.200,190127.200,187322.900,197563.700,0.000
195501.200,205182.000,221313.800,265828.000,204877.700,189891.200,187055.800,197255.300,0.000
195357.000,204908.100,220602.000,265578.200,204457.200,189683.400,186767.600,196988.900,0.000
195529.100,205025.900,220349.600,265613.700,204515.200,189799.300,186850.800,197128.500,0.000
195783.500,205380.000,220404.800,265770.900,204981.000,190097.500,187199.400,197489.700,0.000
195760.400,205476.300,220185.700,265704.000,205209.500,190165.200,187330.200,197568.000,0.000
195490.900,205183.300,219503.700,265382.600,204890.900,189916.000,187068.500,197259.100,0.000
195347.600,204902.800,218819.400,265151.000,204471.000,189696.200,186781.000,196995.100,0.000
195526.700,205020.500,218593.100,265219.600,204525.700,189812.700,186866.600,197141.600,0.000
195769.000,205363.300,218656.000,265346.900,204971.200,190093.800,187198.100,197482.000,0.000
195743.600,205451.200,218449.100,265258.500,205186.400,190147.200,187315.500,197544.000,0.000
195488.100,205157.500,217789.900,264959.100,204862.700,189892.700,187049.100,197235.700,0.000
195348.600,204880.800,217127.300,264740.300,204437.400,189674.900,186758.500,196972.900,0.000
195520.500,204995.800,216924.000,264797.800,204487.300,189784.900,186836.100,197112.400,0.000
195775.400,205355.400,217027.800,264945.800,204946.500,190078.100,187179.700,197468.500,0.000
195758.000,205458.200,216861.000,264891.300,205181.100,190149.700,187314.200,197550.900,0.000
195485.100,205153.000,216216.800,264575.700,204856.200,189888.200,187042.400,197231.400,0.000
195342.100,204877.700,215577.800,264353.400,204434.500,189668.600,186752.100,196967.000,0.000
195526.900,205005.700,215404.800,264424.500,204496.900,189787.100,186841.400,197115.400,0.000
195775.500,205360.200,215524.700,264574.200,204956.200,190077.700,187182.800,197468.100,0.000
195751.400,205457.300,215369.300,264497.100,205182.900,190137.500,187306.200,197542.600,0.000
195486.400,205159.900,214753.600,264203.500,204866.100,189882.500,187039.700,197239.600,0.000
195339.100,204882.200,214131.000,263988.100,204439.800,189663.800,186746.400,196968.100,0.000
195500.700,204994.900,213957.300,264033.800,204477.600,189772.500,186817.700,197089.700,0.000
195754.600,205353.400,214093.100,264186.400,204931.700,190064.000,187158.000,197441.700,0.000
195744.600,205458.700,213968.900,264139.300,205170.400,190136.300,187295.800,197536.100,0.000
195483.700,205162.500,213379.900,263851.900,204862.800,189888.900,187038.300,197238.600,0.000
195343.600,204887.000,212780.900,263635.100,204444.800,189672.600,186752.000,196974.200,0.000
195513.700,205005.200,212630.200,263701.100,204488.800,189782.100,186828.200,197103.500,0.000
195765.400,205355.800,212780.900,263857.300,204939.300,190070.100,187166.400,197452.100,0.000
195755.700,205458.400,212673.200,263815.800,205176.900,190140.700,187301.900,197543.100,0.000
195489.200,205162.600,212095.500,263519.500,204863.800,189886.200,187040.200,197237.600,0.000
195348.800,204890.200,211513.700,263304.700,204443.300,189672.200,186753.000,196969.700,0.000
195518.500,205007.200,211379.600,263360.800,204489.300,189785.700,186832.300,197098.700,0.000
195755.300,205344.400,211532.100,263515.500,204929.200,190068.800,187162.300,197440.400,0.000
195740.100,205450.600,211435.700,263470.300,205164.700,190141.200,187295.600,197530.700,0.000
195486.100,205169.500,210888.500,263203.100,204869.100,189895.200,187045.500,197243.200,0.000
195342.300,204893.900,210319.500,262979.400,204452.700,189676.900,186757.200,196975.700,0.000
195510.900,205009.200,210202.200,263037.600,204503.900,189790.100,186837.600,197106.900,0.000
195755.300,205351.200,210377.000,263208.900,204951.500,190068.800,187168.000,197449.000,0.000
195738.200,205444.400,210293.500,263167.500,205183.200,190131.900,187296.400,197537.000,0.000
195475.600,205145.700,209746.600,262876.000,204871.500,189879.500,187034.100,197235.700,0.000
195342.200,204879.500,209196.100,262670.100,204457.600,189666.100,186750.500,196970.500,0.000
195507.000,204997.100,209085.500,262730.800,204502.900,189774.100,186824.200,197093.800,0.000
195750.000,205339.100,209271.200,262892.200,204946.200,190054.600,187154.400,197432.600,0.000
195741.400,205443.700,209209.200,262866.800,205188.100,190132.300,187296.400,197529.600,0.000
195479.300,205148.400,208680.900,262593.400,204888.400,189887.000,187044.100,197236.500,0.000
195345.000,204884.400,208144.600,262391.500,204477.100,189675.900,186760.400,196974.500,0.000
195508.500,204991.600,208042.500,262461.200,204515.700,189779.500,186828.800,197098.700,0.000
195745.500,205331.200,208241.200,262611.500,204960.700,190060.600,187158.900,197438.100,0.000
195732.200,205435.500,208182.300,262569.300,205196.300,190130.900,187290.300,197526.500,0.000
195484.100,205159.400,207674.400,262307.900,204904.500,189893.000,187043.900,197242.000,0.000
195335.800,204875.400,207136.100,262111.600,204478.600,189670.100,186748.500,196971.400,0.000
195495.400,204979.700,207042.700,262165.700,204514.500,189771.800,186816.200,197090.400,0.000
195749.000,205340.200,207264.300,262336.900,204969.500,190066.400,187159.500,197443.300,0.000
195741.400,205448.600,207224.900,262314.000,205208.300,190140.000,187299.800,197538.300,0.000
195488.400,205164.700,206724.300,262054.600,204904.600,189897.800,187048.500,197250.000,0.000
195334.700,204881.800,206195.100,261827.700,204475.000,189675.200,186751.600,196975.800,0.000
195499.200,204993.300,206115.600,261888.300,204513.000,189781.600,186822.200,197094.400,0.000
195755.500,205345.800,206344.000,262077.200,204964.300,190072.500,187164.000,197448.800,0.000
195751.200,205455.500,206316.200,262053.900,205207.500,190146.200,187304.300,197540.300,0.000
195495.600,205174.400,205820.900,261781.800,204903.400,189895.800,187044.200,197243.000,0.000
195346.100,204896.700,205303.500,261559.300,204478.400,189673.300,186750.700,196969.400,0.000
195511.300,205007.700,205236.900,261632.100,204519.800,189783.000,186823.800,197096.700,0.000
195763.600,205354.900,205473.700,261820.400,204966.300,190069.000,187159.000,197449.800,0.000
195746.400,205450.200,205444.400,261783.800,205198.300,190137.500,187292.800,197537.800,0.000
195493.200,205170.300,204961.200,261514.300,204896.800,189895.800,187044.900,197246.400,0.000
195351.500,204899.100,204460.200,261315.300,204477.400,189680.400,186759.400,196982.200,0.000
195511.600,205005.400,204397.400,261381.000,204511.700,189782.900,186824.800,197101.200,0.000
195762.300,205358.000,204648.400,261565.100,204966.600,190073.500,187165.200,197453.200,0.000
195743.700,205454.300,204627.800,261540.000,205198.200,190135.900,187296.600,197540.100,0.000
195479.800,205161.200,204147.200,261253.000,204892.800,189885.500,187041.600,197239.000,0.000
195338.700,204889.000,203655.400,261052.800,204478.100,189672.100,186755.500,196971.800,0.000
195503.800,205003.600,203602.100,261124.500,204515.200,189777.400,186825.500,197091.800,0.000
195752.100,205356.000,203855.800,261308.500,204964.200,190064.000,187162.400,197442.200,0.000
195739.400,205455.500,203853.500,261282.300,205206.600,190133.600,187302.200,197536.100,0.000
195485.300,205166.100,203387.100,261026.000,204907.000,189884.600,187046.900,197244.200,0.000
195344.800,204889.100,202899.700,260833.200,204485.000,189663.600,186755.000,196977.100,0.000
195505.800,204993.600,202851.100,260896.400,204520.300,189767.000,186819.600,197093.000,0.000
195759.300,205344.700,203113.800,261091.300,204973.400,190057.300,187156.000,197447.600,0.000
195742.700,205443.800,203111.000,261064.500,205210.300,190126.100,187288.900,197539.500,0.000
195485.400,205163.500,202651.500,260802.000,204911.400,189884.100,187038.800,197249.300,0.000
195336.200,204887.600,202164.900,260600.300,204488.000,189663.200,186744.300,196974.500,0.000
195506.700,205002.300,202132.000,260696.300,204532.400,189776.500,186818.600,197102.500,0.000
195755.300,205345.100,202396.900,260878.700,204981.000,190061.600,187155.500,197452.300,0.000
195740.900,205446.600,202401.000,260836.600,205216.400,190130.800,187290.000,197536.200,0.000
195481.200,205161.800,201945.800,260573.700,204914.400,189884.900,187035.200,197241.000,0.000
195333.500,204889.200,201471.300,260381.700,204493.800,189666.700,186745.300,196968.700,0.000
195495.800,205004.000,201445.500,260454.200,204538.000,189776.100,186823.400,197092.900,0.000
195745.700,205348.300,201719.900,260647.700,204987.900,190060.700,187159.900,197444.400,0.000
195735.300,205451.800,201733.700,260634.000,205223.400,190133.200,187294.700,197535.000,0.000
195476.900,205167.400,201281.800,260372.500,204918.600,189886.600,187038.600,197231.900,0.000
195319.500,204875.300,200797.800,260157.200,204484.600,189651.900,186736.000,196951.400,0.000
195489.100,204985.500,200777.000,260242.200,204529.000,189758.800,186809.100,197083.800,0.000
195751.300,205350.500,201080.100,260458.500,205004.000,190061.900,187166.900,197453.400,0.000
195727.400,205449.000,201095.400,260419.000,205236.200,190125.200,187295.800,197527.200,0.000
195465.800,205163.800,200646.300,260150.400,204924.300,189877.500,187037.800,197221.000,0.000
195334.300,204894.800,200188.200,259982.100,204506.000,189664.900,186754.600,196964.800,0.000
195497.400,205006.700,200170.300,260066.700,204546.500,189768.500,186824.700,197098.000,0.000
195741.500,205350.800,200458.800,260235.300,205002.700,190053.100,187165.000,197445.000,0.000
195733.000,205459.100,200491.200,260229.200,205248.700,190129.000,187307.000,197534.100,0.000
195468.300,205168.500,200045.500,259969.700,204936.700,189877.100,187044.700,197229.200,0.000
195328.700,204896.400,199592.000,259783.400,204518.100,189660.600,186757.000,196965.800,0.000
195497.800,205007.400,199584.500,259867.600,204565.500,189768.400,186832.100,197097.000,0.000
195744.900,205357.000,199880.000,260068.500,205021.700,190055.800,187171.500,197445.800,0.000
195721.800,205452.400,199901.000,260040.300,205243.600,190119.400,187299.200,197518.600,0.000
195461.400,205166.500,199464.200,259782.200,204930.000,189875.900,187042.100,197215.300,0.000
195318.800,204887.900,199011.800,259586.200,204508.700,189653.100,186749.100,196948.500,0.000
195488.500,204995.900,199008.700,259676.000,204555.600,189762.000,186826.500,197086.800,0.000
195739.500,205347.500,199309.400,259881.700,205012.700,190054.100,187168.000,197440.700,0.000
195715.000,205443.200,199337.700,259856.600,205239.300,190118.800,187295.300,197514.200,0.000
195451.400,205153.300,198905.500,259590.700,204922.500,189867.400,187033.500,197206.900,0.000
195322.500,204886.200,198468.900,259408.500,204508.900,189656.400,186748.300,196950.700,0.000
195495.000,205007.200,198475.700,259507.900,204560.300,189768.400,186824.900,197090.000,0.000
195734.900,205349.300,198776.900,259702.100,205011.900,190052.300,187163.500,197439.900,0.000
195713.900,205446.400,198808.900,259674.400,205241.200,190118.500,187293.700,197518.300,0.000
195446.700,205147.700,198371.100,259406.800,204921.600,189861.400,187024.100,197206.700,0.000
195310.600,204873.500,197936.200,259225.400,204506.900,189646.000,186739.400,196949.000,0.000
195478.400,204984.900,197940.500,259316.500,204548.600,189755.000,186814.300,197078.700,0.000
195728.900,205338.300,198248.400,259515.700,205000.900,190043.500,187153.300,197427.400,0.000
195716.300,205444.100,198289.700,259494.900,205234.900,190113.600,187284.700,197508.400,0.000
195459.100,205160.900,197868.300,259244.100,204929.000,189869.000,187027.000,197207.600,0.000
195327.100,204893.600,197438.600,259074.800,204515.800,189655.600,186744.300,196953.700,0.000
195490.100,205001.700,197445.400,259155.300,204557.600,189758.700,186817.300,197080.600,0.000
195734.100,205346.600,197753.400,259343.600,205004.300,190040.100,187148.800,197421.200,0.000
195719.800,205452.200,197804.100,259338.200,205240.300,190114.200,187286.000,197507.000,0.000
195460.100,205164.800,197389.300,259096.700,204931.400,189867.400,187030.600,197208.400,0.000
195311.300,204883.300,196946.700,258899.600,204503.600,189642.500,186733.300,196937.500,0.000
195475.000,204986.400,196954.500,258980.200,204541.900,189745.400,186800.700,197066.900,0.000
195727.300,205341.500,197279.100,259186.300,205001.900,190041.400,187145.400,197425.800,0.000
195715.500,205448.100,197331.000,259174.700,205235.600,190110.800,187280.700,197507.900,0.000
195455.500,205162.300,196917.500,258918.300,204924.700,189861.500,187020.100,197202.100,0.000
195314.600,204883.600,196487.600,258739.000,204503.700,189642.200,186729.400,196937.600,0.000
195493.800,205004.300,196515.500,258854.800,204561.100,189760.700,186816.600,197085.600,0.000
195726.900,205343.200,196818.200,259017.800,205001.100,190035.300,187140.300,197416.800,0.000
195713.900,205454.700,196870.700,259005.000,205235.900,190110.500,187276.000,197499.800,0.000
195456.500,205169.700,196463.300,258766.500,204930.500,189872.000,187023.000,197204.500,0.000
195309.400,204881.500,196026.800,258578.000,204500.900,189644.700,186724.500,196930.800,0.000
195494.500,205013.300,196060.000,258684.300,204558.300,189768.200,186814.900,197077.500,0.000
195746.600,205365.400,196386.700,258900.400,205014.300,190058.600,187159.500,197433.100,0.000
195723.300,205454.800,196437.600,258876.200,205241.200,190120.100,187286.400,197507.400,0.000
195456.100,205155.800,196021.500,258611.300,204918.800,189860.900,187015.400,197193.600,0.000
195322.300,204883.800,195602.300,258445.300,204500.500,189647.100,186728.200,196936.500,0.000
195490.600,204998.700,195628.800,258541.100,204550.600,189758.400,186809.700,197077.200,0.000
195738.500,205350.600,195955.200,258723.300,205005.600,190047.000,187151.000,197424.800,0.000
195722.400,205447.300,196012.100,258721.100,205236.300,190113.800,187280.200,197503.000,0.000
195460.600,205159.300,195603.400,258475.200,204922.700,189860.300,187015.300,197195.000,0.000
195312.700,204881.500,195178.700,258276.300,204494.700,189635.900,186722.800,196925.700,0.000
195486.700,205000.200,195208.200,258372.800,204541.400,189747.600,186799.300,197064.000,0.000
195736.100,205342.900,195538.500,258587.000,204994.500,190035.800,187139.500,197417.000,0.000
195718.100,205442.300,195600.000,258574.200,205223.700,190103.400,187272.000,197495.500,0.000
195460.500,205165.700,195202.200,258327.500,204914.400,189862.100,187015.200,197196.500,0.000
195319.500,204889.600,194788.900,258156.200,204498.600,189645.400,186730.600,196937.600,0.000
195493.100,205001.400,194824.600,258267.600,204548.700,189756.300,186812.700,197081.000,0.000
195735.100,205350.800,195154.300,258450.900,205003.800,190044.700,187149.000,197427.700,0.000
195717.300,205453.700,195220.200,258432.200,205237.600,190112.900,187278.100,197501.900,0.000
195464.500,205172.000,194830.200,258195.800,204936.100,189874.000,187026.300,197209.000,0.000
195324.200,204901.000,194415.700,258012.700,204520.600,189656.600,186741.200,196945.900,0.000
195492.800,205012.400,194448.600,258116.300,204567.000,189763.000,186819.400,197080.200,0.000
195736.500,205359.000,194782.000,258316.700,205018.100,190047.600,187156.300,197430.100,0.000
195715.800,205451.700,194843.900,258306.200,205244.200,190110.100,187285.500,197506.500,0.000
195457.900,205162.500,194444.800,258069.700,204931.400,189863.900,187026.400,197203.900,0.000
195303.000,204874.900,194021.300,257864.900,204500.900,189641.000,186725.000,196926.600,0.000
195480.800,204993.500,194061.300,257968.700,204548.300,189753.800,186803.300,197065.400,0.000
195729.000,205338.300,194393.200,258173.500,204993.600,190033.800,187136.500,197413.200,0.000
195713.500,205437.800,194459.400,258168.900,205216.800,190098.100,187263.200,197488.000,0.000
195466.800,205163.600,194077.600,257937.400,204916.600,189864.800,187015.400,197197.600,0.000
195328.200,204889.800,193671.500,257765.000,204497.100,189647.100,186729.100,196936.600,0.000
195492.100,204996.500,193713.700,257855.800,204546.500,189754.300,186811.300,197070.400,0.000
195742.500,205345.000,194055.700,258060.000,205002.800,190044.300,187154.900,197422.800,0.000
195720.700,205444.200,194121.500,258054.500,205228.400,190109.800,187283.300,197498.500,0.000
195463.400,205160.500,193728.900,257815.600,204916.200,189865.400,187022.300,197197.900,0.000
195321.700,204886.700,193323.400,257627.400,204497.200,189645.100,186733.700,196933.200,0.000
195494.300,205003.300,193368.800,257737.600,204547.200,189756.500,186815.500,197072.600,0.000
195743.300,205350.600,193710.400,257950.200,205000.000,190042.000,187152.900,197420.500,0.000
195719.400,205445.300,193776.500,257922.600,205223.800,190105.300,187275.100,197490.700,0.000
195459.700,205161.800,193390.800,257684.100,204917.300,189857.200,187018.100,197194.000,0.000
195304.900,204875.900,192977.000,257495.600,204486.800,189626.700,186720.500,196923.700,0.000
195482.200,204993.000,193025.500,257605.000,204536.300,189742.000,186799.300,197062.700,0.000
195733.400,205339.400,193368.200,257814.700,204988.000,190030.800,187135.200,197410.900,0.000
195708.300,205429.900,193437.500,257805.800,205216.100,190092.800,187262.300,197484.600,0.000
195439.000,205136.500,193044.300,257548.600,204901.000,189843.000,186998.400,197177.500,0.000
195298.500,204862.200,192644.000,257364.300,204479.400,189628.900,186711.100,196914.300,0.000
195478.200,204981.400,192700.300,257486.600,204537.300,189746.900,186797.000,197065.100,0.000
195722.200,205329.600,193045.700,257693.900,204990.900,190032.200,187133.600,197415.600,0.000
195701.700,205425.800,193121.100,257677.900,205219.700,190097.000,187257.700,197488.400,0.000
195438.400,205136.500,192735.000,257431.900,204906.900,189846.900,186994.000,197182.900,0.000
195294.700,204857.400,192332.700,257259.700,204483.000,189626.800,186704.000,196920.500,0.000
195463.200,204965.200,192378.000,257363.300,204526.300,189732.700,186779.300,197054.900,0.000
195710.600,205318.600,192726.900,257572.000,204980.600,190023.300,187122.800,197407.100,0.000
195700.900,205426.500,192815.400,257568.700,205219.500,190097.800,187263.400,197494.500,0.000
195445.800,205142.800,192439.300,257336.600,204915.100,189856.200,187009.500,197198.400,0.000
195304.600,204868.800,192044.900,257157.400,204498.200,189638.300,186722.200,196934.400,0.000
195467.700,204975.400,192089.700,257247.600,204540.600,189742.300,186796.300,197063.400,0.000
195719.000,205329.600,192440.800,257460.200,204992.800,190033.700,187136.800,197413.100,0.000
195711.500,205445.500,192536.100,257468.200,205238.600,190116.600,187279.200,197504.300,0.000
195454.800,205158.600,192157.600,257233.200,204931.800,189869.900,187023.200,197205.300,0.000
195301.400,204874.400,191749.200,257042.300,204498.700,189642.300,186724.800,196931.800,0.000
195469.000,204983.000,191801.000,257143.300,204546.900,189751.900,186801.400,197070.700,0.000
195716.700,205328.300,192150.300,257350.000,204998.500,190038.700,187135.700,197419.900,0.000
195703.000,205438.700,192237.900,257346.700,205232.800,190112.900,187269.100,197499.600,0.000
195444.400,205150.600,191862.300,257110.800,204924.300,189866.200,187012.900,197201.800,0.000
195305.900,204872.600,191469.000,256939.200,204501.800,189648.400,186723.400,196938.800,0.000
195474.000,204982.500,191519.400,257043.400,204542.400,189757.600,186797.200,197071.100,0.000
195726.300,205339.400,191879.900,257262.400,204998.000,190053.000,187142.000,197427.700,0.000
195718.000,205451.500,191977.800,257279.400,205238.700,190126.300,187281.300,197520.000,0.000
195447.800,205157.400,191592.500,257012.200,204923.600,189868.600,187014.000,197205.200,0.000
195317.200,204889.500,191205.000,256853.800,204509.000,189655.400,186730.000,196945.100,0.000
195483.900,204998.200,191254.900,256965.800,204549.300,189762.500,186801.500,197079.200,0.000
195725.700,205345.400,191606.000,257153.300,204996.500,190047.000,187135.000,197425.500,0.000
195726.000,205459.300,191707.000,257168.400,205245.500,190127.900,187277.100,197526.300,0.000
195469.700,205180.000,191336.800,256929.700,204946.600,189886.500,187024.100,197231.400,0.000
195313.500,204893.400,190935.100,256732.000,204513.900,189651.700,186720.000,196946.900,0.000
195469.400,204989.100,190978.300,256824.500,204544.400,189750.600,186780.400,197065.100,0.000
195728.300,205341.200,191339.000,257047.300,204999.000,190041.700,187123.500,197427.300,0.000
195729.900,205459.000,191444.800,257069.600,205246.300,190123.600,187272.000,197534.800,0.000
195457.600,205165.700,191066.600,256806.900,204933.400,189870.400,187010.400,197228.000,0.000
195313.200,204896.500,190680.500,256619.100,204516.500,189655.700,186724.300,196957.500,0.000
195472.400,204999.300,190728.200,256714.200,204548.600,189758.000,186790.200,197077.000,0.000
195717.200,205340.000,191076.600,256925.300,204986.600,190041.100,187119.000,197421.300,0.000
195702.000,205442.800,191167.600,256919.100,205216.700,190110.200,187253.800,197510.600,0.000
195457.300,205169.600,190816.800,256698.400,204928.800,189877.300,187015.900,197232.200,0.000
195318.300,204898.700,190434.500,256524.400,204516.900,189660.200,186730.100,196963.000,0.000
195482.000,205008.100,190488.400,256626.200,204555.400,189762.700,186799.000,197084.300,0.000
195725.000,205349.600,190837.500,256828.300,204996.500,190044.800,187127.700,197427.300,0.000
195713.700,205445.700,190927.300,256836.300,205229.300,190116.300,187261.800,197516.900,0.000
195452.300,205162.000,190558.200,256594.500,204924.200,189874.800,187007.600,197223.200,0.000
195313.500,204896.000,190183.500,256419.600,204514.300,189659.800,186728.300,196962.500,0.000
195473.400,204992.800,190231.700,256515.000,204544.100,189757.800,186792.900,197079.200,0.000
195723.400,205332.200,190584.200,256732.600,204984.600,190043.300,187122.800,197425.700,0.000
195710.500,205429.500,190676.300,256739.400,205215.600,190110.400,187253.900,197511.300,0.000
195458.100,205151.700,190317.600,256504.700,204920.200,189872.900,187005.500,197223.600,0.000
195322.800,204889.800,189943.300,256335.500,204514.700,189666.800,186725.700,196964.500,0.000
195481.600,204998.500,189994.400,256433.400,204548.700,189768.200,186789.800,197080.600,0.000
195727.700,205345.000,190351.600,256644.900,204994.300,190050.600,187122.800,197427.300,0.000
195726.300,205454.600,190455.000,256664.900,205237.400,190127.500,187267.000,197531.000,0.000
195474.200,205176.000,190099.200,256434.300,204943.900,189891.800,187022.300,197247.900,0.000
195324.900,204902.000,189714.300,256250.800,204522.800,189668.000,186729.100,196970.200,0.000
195478.500,205007.100,189765.700,256337.800,204552.300,189765.700,186792.000,197081.800,0.000
195719.100,205340.700,190117.500,256545.600,204990.200,190044.500,187122.100,197424.800,0.000
195715.200,205450.900,190222.600,256559.400,205232.700,190121.100,187264.500,197524.600,0.000
195468.200,205180.300,189874.900,256334.000,204944.900,189889.000,187022.200,197244.600,0.000
195322.600,204908.200,189493.700,256164.100,204526.500,189668.200,186732.800,196972.200,0.000
195481.000,205012.200,189543.600,256252.300,204556.400,189763.500,186795.400,197082.000,0.000
195723.200,205354.300,189899.300,256463.900,204999.100,190044.300,187126.000,197422.600,0.000
195709.900,205457.300,190003.900,256477.400,205241.400,190116.300,187268.200,197517.600,0.000
195454.900,205179.000,189649.300,256236.300,204949.200,189878.200,187023.100,197230.800,0.000
195309.000,204901.900,189263.400,256061.900,204530.600,189660.900,186730.900,196960.600,0.000
195478.500,205012.700,189323.800,256175.000,204567.900,189768.500,186800.200,197083.200,0.000
195724.800,205358.800,189683.000,256371.200,205005.800,190048.500,187131.400,197426.500,0.000
195709.700,205454.700,189785.400,256361.800,205242.400,190116.000,187265.400,197517.600,0.000
195454.600,205169.700,189429.500,256132.600,204948.300,189870.800,187012.200,197225.500,0.000
195316.400,204900.100,189055.900,255970.300,204535.500,189653.000,186723.200,196957.400,0.000
195472.500,205005.600,189109.500,256064.800,204562.500,189749.000,186782.200,197067.000,0.000
195719.000,205353.400,189469.600,256279.400,205005.100,190037.300,187114.900,197415.900,0.000
195708.300,205449.000,189568.500,256294.300,205238.000,190103.900,187251.200,197510.800,0.000
195456.100,205169.700,189215.200,256064.700,204942.400,189867.200,187003.500,197224.400,0.000
195314.500,204896.500,188839.800,255901.500,204525.700,189653.500,186719.500,196958.000,0.000
195473.300,205003.100,188897.300,255986.000,204559.200,189756.000,186785.000,197074.800,0.000
195719.800,205348.300,189261.100,256197.300,205006.700,190041.900,187118.800,197422.500,0.000
195708.400,205451.300,189372.300,256217.200,205247.900,190114.200,187261.000,197521.300,0.000
195468.300,205179.300,189033.400,256010.300,204962.000,189884.500,187023.600,197249.400,0.000
195318.700,204899.900,188648.800,255817.400,204534.000,189657.700,186721.700,196964.100,0.000
195477.500,205004.700,188708.100,255916.300,204565.000,189757.700,186784.900,197076.800,0.000
195719.900,205347.100,189071.600,256126.600,205006.000,190041.000,187116.300,197423.900,0.000
195709.700,205451.500,189180.300,256131.100,205245.300,190111.300,187252.800,197518.700,0.000
195462.800,205175.700,188833.200,255907.200,204952.800,189875.400,187005.500,197232.700,0.000
195320.000,204903.100,188458.800,255736.400,204537.800,189659.800,186715.500,196962.300,0.000
195480.100,205002.400,188515.600,255843.400,204565.900,189754.200,186774.000,197073.800,0.000
195727.300,205346.300,188878.600,256050.800,205006.500,190037.400,187105.400,197415.900,0.000
195716.900,205446.900,188983.200,256055.300,205244.900,190109.900,187241.500,197509.000,0.000
195466.400,205169.200,188636.000,255828.300,204954.800,189873.000,186996.600,197226.200,0.000
195338.200,204911.700,188278.600,255687.900,204550.000,189670.000,186723.900,196975.900,0.000
195481.300,205007.600,188325.300,255761.500,204567.300,189759.400,186776.600,197074.500,0.000
195723.500,205350.000,188689.300,255973.600,205010.900,190041.400,187111.800,197418.000,0.000
195708.400,205447.300,188795.500,255978.300,205250.000,190113.500,187251.200,197514.600,0.000
195461.700,205178.000,188455.700,255752.300,204964.000,189883.100,187013.800,197236.800,0.000
195320.400,204906.500,188081.100,255587.200,204546.000,189664.000,186721.900,196964.800,0.000
195477.500,205007.900,188138.300,255676.300,204575.100,189762.900,186780.300,197074.900,0.000
195731.300,205357.400,188508.200,255896.700,205019.000,190053.000,187115.800,197427.100,0.000
195724.200,205466.500,188621.400,255917.100,205256.800,190132.900,187258.000,197528.500,0.000
195463.600,205178.000,188270.400,255680.800,204957.400,189885.100,187008.400,197236.900,0.000
195324.800,204909.700,187903.400,255512.500,204545.700,189669.800,186725.200,196971.100,0.000
195486.900,205021.000,187969.200,255620.700,204581.500,189771.700,186793.400,197090.900,0.000
195737.300,205370.200,188335.500,255848.600,205028.100,190060.000,187128.700,197442.000,0.000
195727.400,205471.000,188443.400,255857.800,205262.700,190132.300,187265.300,197534.300,0.000
195466.300,205180.800,188084.800,255616.300,204957.400,189882.100,187006.600,197235.300,0.000
195321.100,204910.500,187715.200,255445.400,204544.500,189665.000,186721.000,196965.700,0.000
195487.100,205021.900,187784.700,255544.700,204582.300,189772.600,186791.100,197085.100,0.000
195728.300,205360.300,188149.000,255750.400,205021.100,190053.900,187120.200,197427.700,0.000
195710.500,205454.800,188255.300,255748.500,205257.200,190121.400,187255.200,197517.500,0.000
195466.400,205177.600,187912.300,255524.800,204963.800,189884.300,187008.700,197230.400,0.000
195327.500,204909.700,187548.200,255368.700,204550.800,189668.200,186722.800,196961.600,0.000
195490.800,205017.000,187615.700,255481.800,204588.000,189771.300,186790.800,197084.500,0.000
195729.900,205351.500,187975.300,255688.400,205024.400,190047.500,187120.000,197426.200,0.000
195718.800,205450.900,188081.800,255696.200,205256.200,190116.400,187254.900,197517.800,0.000
195473.600,205177.900,187739.500,255475.000,204963.100,189882.500,187010.700,197233.500,0.000
195330.900,204911.300,187373.400,255308.200,204550.800,189664.100,186722.200,196963.900,0.000
195489.300,205019.000,187437.900,255405.900,204581.700,189762.600,186786.300,197080.300,0.000
195730.600,205355.200,187801.900,255606.300,205017.600,190039.100,187112.800,197418.500,0.000
195715.800,205459.300,187910.600,255609.000,205252.100,190110.000,187248.000,197510.900,0.000
195464.000,205175.300,187568.900,255391.400,204961.100,189872.300,187005.700,197228.600,0.000
195335.700,204910.600,187211.200,255257.700,204554.300,189664.800,186729.400,196972.400,0.000
195487.500,205013.900,187272.400,255337.700,204585.000,189763.700,186791.700,197084.000,0.000
195726.000,205357.600,187633.900,255534.700,205018.600,190043.400,187115.700,197424.000,0.000
195711.800,205457.300,187747.400,255549.900,205255.500,190116.600,187254.100,197520.700,0.000
195466.000,205178.600,187410.700,255343.500,204967.600,189880.600,187011.200,197241.500,0.000
195334.000,204915.300,187047.600,255192.700,204552.100,189666.800,186724.300,196976.400,0.000
195484.300,205017.000,187105.800,255272.000,204575.700,189758.600,186782.600,197081.900,0.000
195729.500,205358.500,187472.800,255468.700,205013.300,190036.800,187111.200,197420.500,0.000
195720.700,205461.700,187587.600,255483.300,205250.100,190111.300,187249.400,197516.000,0.000
195467.000,205183.000,187246.500,255261.900,204958.400,189875.200,187003.700,197232.300,0.000
195323.900,204907.200,186878.500,255101.000,204539.800,189656.500,186713.900,196962.500,0.000
195488.300,205019.900,186947.900,255206.200,204570.900,189760.400,186778.600,197077.400,0.000
195730.900,205363.500,187321.500,255415.300,205018.100,190045.500,187114.000,197425.700,0.000
195711.300,205450.200,187424.800,255428.500,205244.600,190111.700,187243.600,197513.900,0.000
195471.100,205183.700,187088.400,255212.000,204955.800,189879.900,187004.000,197234.800,0.000
195333.200,204918.900,186730.400,255057.300,204547.300,189668.500,186723.200,196972.300,0.000
195482.300,205011.100,186786.900,255140.200,204568.500,189759.400,186774.000,197074.600,0.000
195723.300,205350.100,187153.400,255345.500,205007.200,190037.500,187100.700,197418.000,0.000
195716.900,205458.700,187273.000,255356.500,205247.000,190110.500,187241.300,197516.000,0.000
195471.700,205184.800,186939.500,255137.000,204962.900,189878.700,187003.000,197235.800,0.000
195333.800,204915.200,186577.100,254980.600,204553.900,189666.400,186720.300,196970.600,0.000
195497.100,205031.900,186651.700,255080.300,204595.900,189772.700,186791.000,197090.900,0.000
195734.100,205367.700,187022.900,255293.000,205040.300,190055.100,187124.700,197435.000,0.000
195715.100,205457.300,187131.100,255298.000,205271.500,190121.600,187259.600,197522.600,0.000
195467.700,205184.700,186789.500,255078.800,204976.900,189882.600,187011.300,197234.000,0.000
195325.500,204911.800,186419.500,254913.800,204554.200,189662.100,186714.200,196961.700,0.000
195481.100,205012.400,186484.300,255024.800,204581.900,189761.000,186775.600,197077.200,0.000
195721.600,205349.100,186852.200,255231.200,205016.700,190037.000,187102.700,197417.900,0.000
195711.300,205455.800,186966.400,255248.300,205247.900,190107.700,187234.800,197510.200,0.000
195460.100,205177.000,186628.700,255015.400,204955.200,189868.800,186990.100,197226.300,0.000
195317.900,204897.000,186262.500,254840.800,204534.200,189645.900,186697.400,196951.300,0.000
195474.700,204998.000,186330.000,254937.600,204563.600,189745.000,186758.300,197062.900,0.000
195728.200,205349.000,186707.400,255164.200,205005.400,190032.100,187092.500,197413.100,0.000
195713.200,205456.300,186824.200,255171.800,205237.600,190104.200,187227.800,197506.400,0.000
195462.500,205179.500,186490.000,254947.500,204948.600,189870.900,186984.800,197223.200,0.000
195331.700,204917.000,186136.800,254796.600,204544.700,189665.300,186705.700,196963.400,0.000
195491.300,205024.400,186209.200,254895.400,204576.600,189764.900,186771.800,197077.000,0.000
195728.800,205365.500,186576.300,255108.400,205010.600,190042.200,187101.200,197418.200,0.000
195721.200,205479.000,186697.800,255137.100,205253.700,190122.100,187248.100,197519.300,0.000
195469.000,205197.400,186360.000,254910.400,204961.900,189882.000,187003.100,197228.300,0.000
195319.800,204915.300,185993.900,254725.200,204540.800,189658.400,186711.200,196952.000,0.000
195487.800,205029.100,186075.500,254833.200,204582.400,189768.500,186785.900,197078.500,0.000
195738.000,205371.400,186452.800,255062.000,205029.200,190055.500,187120.100,197430.500,0.000
195717.800,205465.700,186564.300,255065.300,205257.500,190121.500,187249.200,197519.200,0.000
195460.600,205180.600,186225.000,254831.500,204961.100,189882.200,187001.000,197230.500,0.000
195325.600,204918.100,185870.000,254686.000,204551.300,189669.200,186719.200,196969.200,0.000
195484.600,205028.500,185939.500,254789.500,204584.600,189768.800,186782.700,197082.800,0.000
195724.500,205370.100,186305.200,255003.500,205020.000,190046.600,187109.900,197422.600,0.000
195699.300,205462.800,186413.200,254992.200,205250.600,190109.300,187243.500,197507.900,0.000
195442.900,205174.800,186071.600,254757.800,204949.000,189863.700,186992.900,197215.100,0.000
195303.700,204898.500,185714.600,254605.100,204535.100,189647.600,186704.700,196949.200,0.000
195470.100,205010.000,185791.000,254718.300,204570.000,189755.000,186771.900,197072.100,0.000
195712.200,205351.000,186162.800,254922.600,205008.300,190034.300,187101.200,197412.500,0.000
195706.200,205456.600,186286.100,254942.100,205248.800,190109.900,187243.500,197508.500,0.000
195459.200,205186.000,185955.400,254728.100,204960.500,189880.600,187001.000,197228.600,0.000
195319.000,204912.400,185595.600,254571.100,204546.200,189666.000,186711.800,196962.100,0.000
195472.800,205009.900,185663.100,254668.500,204575.100,189761.800,186770.300,197075.300,0.000
195714.700,205343.600,186030.500,254868.400,205009.100,190038.300,187092.400,197412.500,0.000
195715.100,205452.100,186156.700,254895.400,205249.600,190116.700,187233.200,197514.400,0.000
195463.700,205175.300,185823.100,254674.300,204960.000,189880.600,186988.700,197230.400,0.000
195320.700,204900.800,185462.500,254517.800,204546.800,189660.600,186699.500,196961.900,0.000
195484.700,205009.100,185535.800,254625.800,204578.500,189763.800,186765.900,197080.300,0.000
195728.900,205349.400,185909.600,254825.600,205015.000,190048.200,187097.400,197421.600,0.000
195721.500,205453.000,186035.200,254854.100,205255.500,190125.600,187241.100,197524.400,0.000
195460.100,205164.700,185691.200,254621.900,204951.600,189878.100,186987.100,197231.900,0.000
195314.600,204889.800,185329.500,254434.800,204531.000,189656.300,186693.300,196957.000,0.000
195479.200,205003.900,185410.000,254543.700,204567.600,189764.400,186759.000,197079.200,0.000
195726.300,205353.900,185791.400,254770.000,205014.900,190055.200,187095.300,197433.100,0.000
195718.900,205457.900,185913.000,254795.400,205252.900,190130.400,187233.900,197530.100,0.000
195462.300,205177.700,185573.000,254557.300,204955.300,189890.100,186982.400,197239.700,0.000
195317.200,204910.800,185214.000,254380.400,204542.600,189674.200,186692.200,196971.500,0.000
195480.500,205022.300,185295.400,254494.800,204580.300,189778.400,186761.200,197095.000,0.000
195725.900,205362.100,185672.600,254711.100,205022.300,190060.000,187092.300,197437.500,0.000
195709.700,205458.700,185786.000,254723.100,205252.400,190124.900,187222.500,197523.000,0.000
195453.800,205174.500,185446.400,254499.100,204947.800,189879.900,186966.500,197229.500,0.000
195327.700,204917.300,185104.500,254340.300,204547.400,189679.800,186693.000,196975.100,0.000
195478.600,205015.200,185173.000,254436.300,204574.700,189774.600,186752.200,197085.200,0.000
195728.100,205360.600,185549.300,254656.200,205015.800,190057.100,187084.200,197430.800,0.000
195721.200,205468.500,185669.300,254675.300,205252.300,190126.600,187220.300,197525.900,0.000
195472.500,205193.100,185337.400,254471.000,204959.300,189888.700,186973.800,197243.100,0.000
195323.100,204919.100,184974.800,254279.500,204538.100,189666.500,186680.300,196963.000,0.000
195477.700,205018.600,185045.100,254376.500,204565.300,189764.800,186741.000,197073.700,0.000
195719.800,205354.300,185414.500,254589.100,205000.500,190043.800,187068.300,197414.400,0.000
195707.800,205449.400,185532.700,254601.400,205232.400,190109.300,187202.900,197509.700,0.000
195459.600,205172.800,185204.800,254387.800,204941.900,189875.200,186961.300,197228.900,0.000
195317.200,204900.800,184845.000,254227.900,204522.400,189659.300,186673.100,196961.400,0.000
195476.800,205008.700,184918.800,254331.100,204553.000,189764.600,186736.100,197078.600,0.000
195720.700,205348.400,185294.500,254552.400,204992.700,190044.300,187067.900,197423.100,0.000
195709.100,205452.200,185415.900,254564.800,205228.200,190113.800,187204.100,197516.900,0.000
195463.000,205179.500,185088.500,254342.600,204940.900,189878.600,186961.900,197238.400,0.000
195319.800,204910.900,184733.900,254183.200,204529.000,189665.800,186676.000,196972.400,0.000
195487.600,205024.300,184819.500,254308.200,204569.500,189774.300,186750.600,197102.000,0.000
195731.700,205363.700,185199.100,254529.600,205008.800,190058.000,187085.100,197451.100,0.000
195714.100,205459.600,185314.600,254526.500,205239.500,190126.100,187220.300,197535.700,0.000
195462.500,205179.500,184979.600,254302.800,204943.000,189885.800,186971.400,197243.900,0.000
195313.000,204903.500,184615.000,254118.100,204518.900,189660.600,186673.700,196963.800,0.000
195476.100,205013.900,184693.400,254223.900,204552.700,189761.700,186743.100,197082.500,0.000
195723.700,205357.900,185074.400,254447.700,204997.200,190043.300,187077.000,197429.700,0.000
195712.400,205460.500,185197.500,254469.300,205233.100,190115.000,187211.900,197525.400,0.000
195462.500,205189.300,184867.000,254239.600,204941.400,189880.000,186969.100,197238.800,0.000
195330.400,204924.100,184522.900,254090.300,204535.000,189672.100,186689.900,196977.900,0.000
195495.800,205034.700,184599.600,254201.600,204566.800,189772.200,186747.800,197091.600,0.000
195733.800,205371.600,184970.600,254408.400,205001.500,190050.900,187069.800,197430.400,0.000
195712.700,205465.600,185088.800,254422.600,205233.600,190120.700,187203.300,197522.300,0.000
195464.600,205187.700,184762.700,254201.900,204944.700,189885.300,186962.600,197238.300,0.000
195322.300,204917.700,184406.300,254036.600,204525.000,189667.300,186670.800,196965.900,0.000
195478.000,205023.600,184482.000,254132.400,204557.500,189765.800,186734.600,197079.800,0.000
195719.800,205358.500,184854.000,254349.300,204992.600,190042.000,187061.800,197416.300,0.000
195711.900,205463.000,184981.400,254367.500,205235.000,190119.900,187204.400,197515.500,0.000
195461.500,205186.900,184649.600,254145.100,204941.600,189878.000,186956.200,197226.700,0.000
195317.400,204913.600,184298.000,253983.900,204529.600,189663.100,186673.500,196960.900,0.000
195472.900,205012.400,184369.200,254090.400,204555.400,189760.000,186733.300,197073.600,0.000
195721.400,205360.100,184750.900,254307.100,204999.100,190047.100,187067.000,197420.900,0.000
195703.800,205459.300,184871.800,254317.400,205232.800,190109.800,187199.400,197509.500,0.000
195446.200,205174.200,184539.900,254085.100,204935.600,189864.200,186953.100,197220.800,0.000
195313.700,204911.900,184194.600,253932.100,204527.500,189652.900,186675.900,196963.900,0.000
195468.300,205010.300,184265.900,254035.600,204552.900,189750.100,186734.600,197075.300,0.000
195712.400,205348.500,184642.900,254246.500,204992.200,190030.300,187063.400,197415.200,0.000
195708.000,205454.700,184769.500,254275.200,205231.400,190106.300,187205.200,197514.200,0.000
195458.000,205178.900,184438.200,254055.800,204937.500,189869.300,186957.700,197230.800,0.000
195315.200,204907.700,184086.100,253881.000,204525.300,189652.700,186671.600,196959.600,0.000
195476.400,205012.300,184169.700,253991.600,204560.600,189755.800,186740.300,197079.500,0.000
195719.200,205353.700,184548.000,254210.600,204998.700,190040.900,187074.200,197424.600,0.000
195710.700,205462.000,184676.600,254229.000,205240.300,190119.200,187218.700,197522.500,0.000
195454.700,205179.500,184341.600,254003.700,204942.800,189877.100,186968.300,197231.700,0.000
195318.800,204912.700,183995.200,253851.700,204532.200,189662.100,186685.100,196971.000,0.000
195476.400,205016.100,184076.300,253949.200,204565.000,189760.400,186749.200,197081.700,0.000
195720.500,205356.400,184451.800,254170.500,205002.500,190042.000,187078.500,197423.900,0.000
195707.700,205463.700,184572.500,254173.400,205236.900,190114.800,187213.800,197514.800,0.000
195460.500,205187.100,184250.400,253959.700,204954.000,189878.900,186973.700,197233.500,0.000
195314.800,204908.500,183892.400,253788.600,204537.100,189657.600,186679.700,196960.900,0.000
195480.100,205023.900,183976.200,253901.700,204571.700,189762.400,186748.700,197079.200,0.000
195723.600,205362.000,184354.400,254123.300,205011.000,190043.100,187079.500,197421.600,0.000
195712.500,205461.600,184475.500,254138.700,205243.500,190115.100,187213.900,197514.200,0.000
195461.300,205176.900,184138.700,253919.500,204941.200,189870.800,186961.200,197225.900,0.000
195320.500,204906.100,183784.000,253763.700,204524.900,189653.900,186673.600,196958.800,0.000
195472.100,205006.000,183857.300,253854.200,204555.300,189754.100,186735.500,197068.300,0.000
195721.500,205357.600,184243.200,254084.100,205000.400,190042.000,187074.000,197422.300,0.000
195710.100,205459.600,184369.600,254100.100,205238.000,190112.800,187213.500,197518.300,0.000
195460.600,205181.800,184038.000,253879.100,204944.200,189872.900,186965.600,197230.800,0.000
195315.800,204908.400,183686.200,253712.400,204527.300,189654.200,186678.300,196964.700,0.000
195477.300,205017.000,183771.300,253825.900,204562.200,189758.700,186748.600,197084.900,0.000
195718.900,205352.300,184151.300,254041.800,205003.100,190041.300,187081.900,197426.300,0.000
195711.300,205457.800,184280.100,254063.800,205238.600,190114.400,187222.300,197521.600,0.000
195459.200,205183.800,183950.000,253846.000,204943.100,189878.200,186977.500,197231.900,0.000
195315.700,204918.500,183599.800,253683.200,204530.500,189663.800,186694.800,196964.300,0.000
195469.900,205016.600,183676.000,253781.100,204559.500,189758.100,186757.800,197077.900,0.000
195713.900,205355.500,184055.000,253999.500,204996.000,190037.100,187088.400,197419.600,0.000
195707.100,205459.200,184183.300,254013.600,205232.800,190112.000,187229.700,197515.300,0.000
195462.700,205189.000,183863.200,253804.000,204946.400,189878.600,186989.000,197236.500,0.000
195325.500,204926.200,183515.100,253641.200,204534.000,189665.800,186704.400,196969.900,0.000
195479.300,205029.400,183593.900,253746.000,204562.000,189762.700,186765.500,197077.800,0.000
195711.700,205357.300,183967.100,253955.800,204995.500,190035.700,187088.200,197413.600,0.000
195702.300,205459.400,184095.300,253977.700,205236.000,190108.800,187228.800,197510.600,0.000
195452.300,205181.800,183766.500,253753.200,204942.600,189870.100,186980.500,197223.300,0.000
195305.200,204901.800,183407.500,253591.800,204518.200,189645.400,186684.300,196949.800,0.000
195466.300,205011.200,183490.800,253694.900,204551.800,189747.500,186753.200,197067.200,0.000
195712.200,205353.100,183870.700,253914.600,204992.600,190029.500,187085.100,197409.700,0.000
195701.600,205456.100,183992.800,253935.100,205226.900,190101.000,187221.400,197498.600,0.000
195456.000,205188.500,183674.600,253712.000,204942.300,189872.500,186988.100,197223.100,0.000
195317.700,204918.400,183326.300,253553.500,204530.500,189655.300,186705.900,196959.000,0.000
195465.800,205011.200,183393.300,253649.700,204548.400,189745.800,186759.400,197063.200,0.000
195708.900,205348.000,183772.600,253870.000,204986.300,190028.100,187087.200,197404.200,0.000
195695.900,205446.500,183896.300,253876.800,205220.900,190097.000,187220.100,197495.500,0.000
195451.400,205176.100,183573.700,253666.300,204933.200,189863.700,186979.100,197219.500,0.000
195309.500,204903.500,183221.000,253513.000,204514.500,189645.400,186689.500,196955.000,0.000
195459.600,204998.400,183289.800,253597.300,204529.600,189732.900,186739.700,197055.000,0.000
195710.300,205349.100,183678.500,253822.900,204975.100,190024.400,187078.400,197405.800,0.000
195699.300,205450.200,183805.900,253846.600,205214.000,190101.400,187219.000,197503.700,0.000
195453.800,205171.500,183480.800,253631.800,204921.100,189864.800,186976.500,197220.100,0.000
195317.100,204904.100,183136.700,253479.000,204511.000,189651.900,186697.500,196957.900,0.000
195476.600,205010.700,183215.300,253585.200,204539.900,189751.100,186761.900,197070.500,0.000
195719.800,205357.300,183598.500,253798.300,204982.100,190036.400,187095.100,197413.800,0.000
195704.500,205454.700,183724.000,253812.800,205217.300,190105.800,187229.700,197501.300,0.000
195465.200,205188.400,183407.400,253603.100,204934.100,189877.500,186993.200,197224.500,0.000
195326.300,204924.500,183058.700,253446.200,204524.000,189665.400,186706.700,196956.400,0.000
195476.100,205021.000,183131.400,253536.200,204548.500,189755.900,186764.400,197060.200,0.000
195721.500,205365.100,183515.300,253760.600,204988.000,190036.400,187093.300,197404.300,0.000
195709.300,205466.300,183640.300,253779.100,205224.700,190106.900,187226.400,197498.500,0.000
195457.900,205180.800,183313.900,253556.300,204931.500,189866.400,186979.400,197210.200,0.000
195321.400,204912.100,182968.100,253408.000,204516.100,189649.700,186694.000,196947.000,0.000
195480.800,205018.300,183049.500,253509.300,204544.800,189748.500,186758.500,197062.600,0.000
195718.700,205350.900,183427.000,253717.200,204977.900,190025.000,187086.600,197401.700,0.000
195704.500,205448.700,183554.000,253731.200,205213.800,190099.500,187223.900,197496.900,0.000
195465.900,205189.400,183241.700,253531.400,204934.200,189875.500,186990.000,197225.700,0.000
195320.400,204915.300,182889.000,253367.900,204518.900,189656.700,186701.100,196956.300,0.000
195475.000,205019.200,182969.000,253461.000,204551.200,189750.900,186760.500,197063.600,0.000
195711.000,205353.100,183345.200,253670.800,204983.300,190025.400,187082.900,197400.300,0.000
195700.300,205461.400,183473.500,253687.300,205221.500,190101.300,187218.100,197493.500,0.000
195454.500,205181.300,183153.700,253477.500,204937.800,189866.400,186979.000,197214.900,0.000
195315.000,204908.400,182804.000,253329.900,204521.000,189647.900,186689.700,196948.500,0.000
195466.100,205004.800,182878.400,253417.700,204543.700,189740.000,186745.700,197052.900,0.000
195714.300,205347.600,183266.100,253643.400,204983.000,190023.600,187081.000,197399.100,0.000
195706.500,205451.000,183398.700,253657.300,205221.800,190101.900,187223.500,197497.000,0.000
195450.100,205175.300,183074.200,253432.000,204930.000,189862.200,186977.600,197211.100,0.000
195303.200,204900.600,182721.400,253270.100,204512.800,189642.800,186688.300,196939.200,0.000
195469.000,205016.600,182812.300,253386.900,204551.500,189755.400,186763.400,197063.100,0.000
195711.500,205357.400,183197.300,253607.700,204992.200,190042.400,187095.100,197407.300,0.000
195699.200,205462.000,183330.200,253629.200,205233.500,190117.100,187232.800,197504.600,0.000
195448.800,205179.300,183003.400,253411.700,204941.400,189875.900,186985.700,197219.800,0.000
195313.900,204913.300,182652.800,253254.100,204520.600,189656.800,186693.800,196949.400,0.000
195467.300,205012.300,182727.700,253359.000,204541.100,189749.400,186748.400,197061.000,0.000
195711.300,205351.800,183109.000,253585.700,204978.500,190032.800,187080.400,197406.500,0.000
195704.100,205454.300,183242.800,253602.600,205217.500,190108.200,187223.500,197504.600,0.000
195446.200,205167.900,182911.700,253372.100,204915.700,189861.400,186968.500,197213.600,0.000
195304.500,204898.800,182562.900,253217.200,204501.800,189644.400,186679.700,196949.400,0.000
195461.200,205004.000,182641.100,253313.800,204527.700,189739.900,186742.900,197058.500,0.000
195706.000,205345.300,183025.800,253533.600,204967.200,190024.800,187079.100,197401.600,0.000
195706.300,205457.000,183165.300,253570.500,205214.900,190110.100,187229.800,197508.500,0.000
195455.600,205183.700,182843.100,253352.000,204925.600,189877.000,186988.400,197228.800,0.000
195306.100,204908.500,182489.100,253172.800,204507.300,189650.900,186695.400,196949.500,0.000
195469.000,205019.100,182577.500,253288.200,204543.400,189754.300,186765.100,197070.500,0.000
195709.100,205355.700,182959.600,253508.800,204982.300,190032.600,187094.700,197411.900,0.000
195695.900,205451.100,183087.100,253524.900,205217.300,190104.600,187231.900,197504.100,0.000
195442.200,205170.500,182759.300,253312.600,204925.600,189870.000,186985.700,197219.200,0.000
195295.200,204898.300,182404.400,253128.300,204504.700,189646.800,186691.200,196941.800,0.000
195458.800,205007.400,182490.900,253243.200,204535.400,189748.300,186756.200,197058.500,0.000
195699.500,205346.900,182874.000,253448.900,204976.800,190029.300,187084.200,197399.900,0.000
195693.300,205452.700,183012.000,253474.600,205222.400,190103.500,187226.000,197501.000,0.000
195453.400,205185.800,182698.800,253268.400,204939.500,189871.600,186986.100,197221.400,0.000
195318.500,204917.900,182353.900,253124.000,204525.500,189659.800,186699.600,196955.200,0.000
195467.300,205011.200,182423.800,253224.400,204543.300,189751.400,186752.500,197059.600,0.000
195715.300,205360.500,182812.700,253443.600,204992.000,190041.200,187088.700,197406.700,0.000
195705.900,205463.000,182946.000,253469.800,205232.000,190112.000,187227.500,197502.500,0.000
195451.600,205180.600,182619.600,253255.100,204933.700,189866.400,186980.200,197216.300,0.000
195299.600,204898.700,182258.500,253076.200,204502.200,189637.600,186681.900,196934.800,0.000
195454.500,204997.700,182338.900,253178.500,204524.600,189732.300,186741.500,197046.100,0.000
195697.300,205339.800,182728.200,253400.200,204968.000,190017.400,187074.500,197393.200,0.000
195690.700,205447.300,182867.900,253425.800,205211.500,190095.900,187214.500,197496.300,0.000
195446.800,205179.300,182554.700,253207.500,204926.500,189863.900,186972.700,197216.300,0.000
195302.900,204908.800,182205.600,253041.800,204511.000,189648.000,186682.900,196947.100,0.000
195456.300,205010.900,182283.000,253146.000,204537.600,189746.700,186739.700,197056.100,0.000
195697.700,205343.200,182665.300,253363.800,204977.800,190025.100,187068.500,197396.000,0.000
195697.900,205455.100,182803.900,253393.500,205222.100,190105.100,187216.700,197499.000,0.000
195442.100,205174.100,182480.900,253170.100,204929.100,189866.300,186972.700,197213.500,0.000
195296.800,204898.800,182124.300,253005.600,204507.200,189643.500,186677.900,196937.400,0.000
195451.400,204996.900,182201.100,253107.300,204532.600,189743.300,186738.000,197048.500,0.000
195701.200,205338.400,182592.000,253344.400,204976.200,190032.400,187076.200,197401.200,0.000
195699.000,205456.300,182735.600,253362.900,205228.500,190116.200,187226.100,197508.700,0.000
195443.500,205180.400,182412.900,253142.800,204938.600,189875.200,186978.500,197222.600,0.000
195297.800,204903.300,182061.300,252989.300,204519.300,189656.100,186686.200,196952.500,0.000
195446.300,204999.500,182131.400,253084.000,204537.100,189745.800,186736.300,197058.000,0.000
195682.800,205338.300,182507.500,253280.300,204965.900,190022.800,187058.100,197393.000,0.000
195678.900,205445.200,182647.700,253309.900,205209.100,190103.800,187205.200,197497.600,0.000
195441.300,205177.300,182339.900,253108.300,204929.800,189875.000,186972.800,197226.200,0.000
195291.600,204897.600,181985.400,252939.800,204506.800,189650.800,186679.900,196947.800,0.000
195448.900,205000.100,182064.100,253042.000,204532.200,189751.000,186738.500,197056.500,0.000
195701.200,205345.400,182455.500,253272.700,204978.800,190038.900,187073.700,197407.500,0.000
195700.300,205454.200,182593.300,253306.300,205221.000,190117.200,187216.800,197511.000,0.000
195434.400,205166.800,182261.300,253062.700,204920.300,189872.100,186963.000,197217.800,0.000
195296.600,204897.500,181911.600,252904.900,204505.400,189656.400,186674.500,196948.000,0.000
195461.200,205008.300,181994.300,253025.200,204537.100,189758.500,186738.800,197067.400,0.000
195699.300,205342.200,182372.500,253232.200,204971.200,190033.300,187066.100,197404.600,0.000
195690.500,205449.600,182509.100,253243.800,205217.000,190111.700,187210.500,197501.900,0.000
195449.500,205179.000,182195.400,253045.700,204935.500,189883.700,186976.500,197228.100,0.000
195310.400,204906.100,181846.400,252887.300,204519.400,189669.300,186689.200,196962.000,0.000
195463.900,204999.800,181919.000,252993.900,204535.700,189759.500,186741.600,197070.400,0.000
195700.300,205337.900,182303.700,253201.800,204970.800,190038.900,187067.700,197409.700,0.000
195694.500,205446.300,182442.300,253224.000,205214.300,190116.300,187208.300,197509.000,0.000
195447.400,205173.900,182124.900,253015.100,204928.700,189880.800,186965.500,197228.600,0.000
195306.300,204903.700,181776.700,252857.500,204511.400,189660.200,186678.700,196960.900,0.000
195453.100,204993.900,181845.300,252949.200,204523.300,189746.100,186729.300,197061.900,0.000
195699.200,205334.700,182230.000,253164.700,204962.700,190027.800,187056.800,197404.000,0.000
195697.200,205449.600,182370.900,253191.200,205207.600,190109.000,187198.900,197505.200,0.000
195452.000,205179.700,182059.400,252977.100,204925.800,189878.900,186960.700,197227.300,0.000
195306.500,204903.300,181707.500,252824.000,204507.300,189657.100,186672.600,196958.000,0.000
195466.500,205009.600,181786.900,252941.400,204535.500,189756.600,186739.100,197075.300,0.000
195709.400,205349.700,182171.000,253150.100,204975.300,190040.300,187068.400,197417.500,0.000
195701.900,205456.600,182310.500,253168.400,205220.900,190118.800,187211.000,197516.900,0.000
195451.800,205183.600,181991.300,252953.500,204931.300,189884.400,186969.000,197234.400,0.000
195304.500,204910.900,181634.400,252788.400,204509.300,189661.200,186673.700,196957.100,0.000
195460.400,205005.800,181713.300,252892.300,204536.700,189754.600,186731.200,197066.700,0.000
195712.300,205349.600,182104.400,253124.000,204978.400,190041.200,187062.600,197417.800,0.000
195704.300,205456.500,182243.300,253141.800,205220.100,190119.600,187205.400,197516.500,0.000
195449.500,205177.200,181916.800,252910.900,204922.400,189877.400,186955.900,197224.700,0.000
195308.100,204903.500,181566.600,252755.600,204500.000,189655.100,186663.800,196954.700,0.000
195462.200,205002.600,181645.600,252863.600,204524.100,189749.100,186720.600,197067.100,0.000
195708.400,205345.000,182032.900,253080.700,204964.200,190034.500,187051.400,197412.300,0.000
195705.800,205460.100,182175.000,253110.600,205208.500,190111.000,187199.500,197515.800,0.000
195455.600,205186.800,181856.900,252892.800,204921.300,189875.000,186958.400,197232.500,0.000
195316.300,204917.700,181513.500,252741.700,204511.600,189663.300,186674.300,196968.300,0.000
195473.700,205017.300,181592.600,252853.700,204537.300,189759.300,186731.100,197078.600,0.000
195712.000,205355.200,181974.900,253060.000,204973.800,190038.800,187060.100,197418.000,0.000
195698.100,205456.600,182106.700,253075.100,205212.500,190111.500,187197.500,197512.600,0.000
195451.900,205183.000,181792.800,252859.000,204928.800,189877.600,186953.400,197230.300,0.000
195312.300,204915.300,181451.600,252701.100,204517.800,189662.500,186669.200,196963.400,0.000
195466.100,205017.500,181529.800,252799.400,204540.200,189758.300,186727.200,197071.400,0.000
195709.000,205350.300,181909.400,253022.600,204973.000,190037.800,187049.800,197412.200,0.000
195698.100,205450.900,182041.500,253036.700,205210.300,190105.900,187185.700,197506.100,0.000
195454.000,205183.700,181731.200,252831.700,204927.900,189876.200,186949.400,197228.800,0.000
195315.900,204920.300,181391.400,252678.200,204516.400,189664.400,186666.800,196963.600,0.000
195463.900,205016.900,181464.700,252770.700,204538.100,189756.000,186721.800,197066.500,0.000
195713.100,205362.100,181853.400,252995.500,204979.000,190042.000,187053.800,197412.400,0.000
195706.000,205472.400,181989.800,253018.200,205220.200,190118.500,187193.700,197511.500,0.000
195459.400,205202.100,181678.200,252811.800,204935.400,189887.700,186955.600,197234.300,0.000
195308.000,204916.700,181324.400,252649.100,204510.800,189663.000,186661.800,196959.900,0.000
195459.700,205012.400,181397.700,252744.200,204525.500,189755.100,186719.200,197062.400,0.000
195703.300,205354.300,181787.500,252960.300,204963.500,190036.600,187051.400,197405.100,0.000
195697.000,205463.600,181923.900,252983.100,205202.300,190107.400,187189.000,197500.400,0.000
195449.200,205190.300,181608.600,252776.700,204917.100,189876.600,186950.200,197222.900,0.000
195302.800,204913.300,181261.400,252611.300,204499.400,189661.000,186661.000,196955.400,0.000
195457.000,205021.000,181345.000,252706.500,204525.600,189756.700,186719.300,197064.100,0.000
195699.600,205353.000,181726.500,252926.900,204957.700,190033.000,187043.200,197404.400,0.000
195698.800,205461.900,181867.000,252963.700,205198.500,190114.400,187188.400,197509.500,0.000
195455.100,205198.500,181560.000,252751.500,204921.300,189887.700,186956.200,197234.800,0.000
195309.400,204922.100,181212.200,252576.400,204506.300,189659.600,186665.100,196959.600,0.000
195454.500,205005.800,181283.600,252669.700,204520.800,189743.600,186712.500,197059.700,0.000
195700.800,205348.700,181671.000,252892.800,204957.800,190025.200,187037.100,197398.600,0.000
195701.000,205463.300,181815.900,252933.600,205205.700,190108.800,187185.400,197507.100,0.000
195452.900,205192.700,181505.300,252732.200,204923.100,189878.300,186947.700,197234.100,0.000
195303.800,204915.800,181155.600,252550.900,204504.500,189654.800,186657.000,196955.700,0.000
195456.200,205011.800,181229.100,252649.900,204523.600,189747.900,186711.100,197059.400,0.000
195704.400,205352.600,181616.200,252880.900,204961.800,190033.900,187043.500,197406.600,0.000
195695.400,205458.300,181753.500,252890.600,205201.600,190108.800,187185.000,197503.500,0.000
195446.700,205186.300,181443.100,252681.600,204921.200,189878.800,186949.800,197228.800,0.000
195306.500,204919.100,181101.400,252532.400,204511.100,189666.300,186669.400,196965.900,0.000
195455.100,205014.600,181171.300,252621.300,204528.000,189755.800,186720.800,197066.100,0.000
195705.500,205359.000,181561.700,252848.600,204970.400,190040.000,187050.900,197409.500,0.000
195688.600,205452.600,181692.200,252867.200,205207.300,190108.800,187184.400,197499.800,0.000
195436.200,205175.200,181373.300,252644.700,204916.700,189871.700,186938.600,197215.500,0.000
195293.600,204906.600,181025.100,252488.500,204497.300,189650.100,186646.300,196942.200,0.000
195448.800,205004.800,181102.600,252591.400,204516.800,189743.800,186702.300,197049.000,0.000
195693.000,205351.800,181490.900,252810.800,204952.600,190026.900,187034.600,197393.300,0.000
195687.800,205464.800,181637.300,252835.900,205199.700,190107.000,187184.200,197499.100,0.000
195446.800,205191.000,181328.500,252632.500,204919.100,189878.000,186949.200,197224.800,0.000
195298.000,204907.900,180974.200,252475.800,204497.200,189657.100,186656.600,196951.000,0.000
195449.800,205008.800,181050.600,252570.400,204517.100,189750.600,186711.000,197056.200,0.000
195689.500,205346.900,181435.700,252780.400,204958.000,190032.500,187039.100,197394.600,0.000
195686.500,205456.600,181579.600,252817.400,205207.000,190113.600,187187.900,197502.400,0.000
195443.300,205183.100,181268.500,252606.400,204920.400,189882.100,186949.200,197227.900,0.000
195297.000,204906.000,180925.000,252440.400,204501.000,189661.400,186662.600,196958.800,0.000
195450.900,204998.900,181002.600,252547.100,204517.700,189750.900,186719.200,197066.400,0.000
195694.900,205340.200,181386.900,252770.800,204951.600,190032.300,187046.700,197407.200,0.000
195689.000,205453.200,181530.100,252795.000,205198.700,190111.800,187195.800,197510.700,0.000
195451.100,205187.300,181227.000,252594.800,204917.800,189879.300,186962.400,197237.000,0.000
195304.800,204914.400,180884.400,252427.100,204503.900,189660.500,186674.600,196966.300,0.000
195449.000,205003.700,180953.100,252518.500,204517.500,189749.400,186722.400,197063.400,0.000
195697.200,205349.000,181341.600,252756.700,204954.400,190034.100,187054.000,197412.400,0.000
195696.100,205457.600,181483.300,252786.700,205198.000,190109.700,187197.600,197515.300,0.000
195440.000,205176.000,181162.100,252556.800,204909.800,189869.700,186949.900,197226.400,0.000
195299.500,204908.400,180823.300,252397.200,204502.900,189656.800,186669.100,196965.100,0.000
195450.300,205000.600,180895.700,252495.000,204517.800,189747.000,186720.100,197070.500,0.000
195694.000,205335.000,181279.000,252719.400,204949.300,190027.000,187044.000,197412.900,0.000
195687.900,205443.900,181421.700,252744.900,205197.200,190105.900,187188.100,197511.700,0.000
195444.600,205175.900,181111.700,252539.800,204917.400,189876.600,186956.200,197234.200,0.000
195304.500,204906.900,180767.300,252376.600,204504.300,189660.100,186673.600,196964.600,0.000
195457.300,205005.900,180844.900,252481.300,204526.400,189752.900,186728.600,197067.900,0.000
195695.500,205342.200,181225.400,252691.800,204956.700,190025.900,187048.200,197403.000,0.000
195684.900,205445.400,181360.500,252702.600,205192.400,190093.300,187185.600,197494.900,0.000
195443.600,205177.800,181053.300,252506.200,204912.400,189864.600,186953.700,197224.400,0.000
195300.500,204908.400,180706.600,252342.500,204493.900,189649.000,186664.600,196953.600,0.000
195446.000,204997.300,180777.400,252433.900,204506.900,189735.800,186713.600,197051.600,0.000
195688.100,205335.500,181159.600,252651.100,204943.000,190017.500,187041.700,197393.300,0.000
195676.700,205442.300,181298.000,252674.500,205185.300,190093.300,187184.700,197495.400,0.000
195431.100,205174.900,180991.000,252466.500,204901.400,189863.800,186949.200,197222.600,0.000
195290.300,204903.000,180650.000,252312.000,204487.900,189648.800,186663.400,196957.500,0.000
195446.700,205003.600,180729.800,252423.600,204510.100,189743.800,186719.400,197065.500,0.000
195690.900,205347.500,181116.100,252633.400,204947.300,190025.600,187046.100,197404.900,0.000
195684.300,205450.500,181257.100,252653.900,205193.100,190104.400,187189.300,197502.000,0.000
195434.200,205178.200,180938.600,252438.600,204904.400,189869.200,186946.500,197216.000,0.000
195300.000,204914.500,180599.400,252296.800,204495.100,189657.500,186665.000,196954.000,0.000
195458.100,205014.300,180683.100,252404.000,204522.300,189752.600,186728.000,197069.100,0.000
195696.500,205350.000,181067.300,252616.800,204953.100,190028.600,187051.900,197404.000,0.000
195681.700,205455.300,181202.300,252618.900,205191.300,190097.000,187189.000,197491.600,0.000
195428.700,205177.500,180885.700,252403.800,204903.600,189856.500,186946.100,197210.800,0.000
195281.000,204896.900,180533.900,252245.500,204479.600,189631.500,186647.900,196937.800,0.000
195438.400,204987.700,180614.500,252361.000,204501.900,189729.000,186702.700,197047.000,0.000
195686.100,205328.900,181008.100,252591.200,204943.500,190015.000,187034.100,197393.700,0.000
195680.800,205443.600,181152.600,252605.300,205189.500,190089.400,187176.700,197493.000,0.000
195428.500,205173.300,180839.700,252384.200,204906.800,189852.900,186938.100,197212.200,0.000
195287.100,204899.300,180494.300,252239.000,204489.800,189635.300,186652.200,196943.000,0.000
195448.000,205003.700,180579.000,252350.400,204516.000,189735.200,186714.200,197054.900,0.000
195696.000,205354.400,180977.500,252574.400,204960.500,190023.500,187052.100,197401.300,0.000
195684.900,205456.900,181117.500,252602.900,205202.800,190099.100,187192.400,197499.400,0.000
195430.500,205180.300,180799.600,252371.700,204912.100,189858.800,186946.300,197213.800,0.000
195283.500,204904.800,180450.900,252209.600,204489.900,189638.300,186657.900,196942.800,0.000
195428.200,204987.800,180518.800,252305.500,204499.500,189723.400,186705.600,197040.800,0.000
195675.000,205327.900,180905.800,252525.700,204934.800,190004.200,187034.300,197382.500,0.000
195675.000,205438.600,181049.700,252548.300,205180.600,190082.800,187179.200,197484.400,0.000
195430.800,205163.800,180737.700,252339.600,204899.500,189852.100,186941.000,197204.900,0.000
195292.500,204897.600,180395.300,252186.700,204489.100,189642.800,186660.100,196936.800,0.000
195445.500,204993.100,180470.000,252289.400,204504.900,189732.900,186715.000,197041.100,0.000
195691.000,205336.800,180862.700,252514.300,204944.300,190016.700,187046.700,197387.300,0.000
195687.800,205452.700,181009.400,252548.300,205192.300,190096.100,187191.500,197493.100,0.000
195435.100,205179.500,180694.100,252328.700,204903.500,189856.500,186944.500,197209.500,0.000
195286.800,204906.800,180347.700,252167.300,204484.800,189637.200,186653.700,196939.700,0.000
195431.200,204998.000,180419.800,252268.100,204494.200,189725.700,186702.200,197042.200,0.000
195678.300,205332.300,180810.700,252491.500,204934.600,190011.900,187034.800,197388.100,0.000
195687.000,205444.700,180961.800,252531.600,205188.600,190098.900,187189.000,197499.900,0.000
195446.700,205181.900,180655.100,252330.700,204907.400,189870.600,186953.700,197226.500,0.000
195305.300,204909.700,180308.300,252176.800,204488.300,189651.300,186665.100,196954.600,0.000
195444.800,204994.200,180369.900,252255.200,204493.600,189732.900,186708.100,197044.400,0.000
195686.800,205333.700,180754.600,252471.700,204927.400,190014.300,187035.700,197383.400,0.000
195679.500,205439.000,180898.800,252499.200,205173.800,190091.900,187179.300,197486.300,0.000
195435.500,205170.900,180589.200,252290.800,204891.400,189859.900,186942.300,197211.500,0.000
195290.200,204899.300,180246.100,252132.300,204476.500,189640.900,186660.000,196943.700,0.000
195443.800,205001.500,180323.900,252238.000,204497.500,189733.000,186718.100,197046.300,0.000
195687.800,205338.600,180715.500,252444.900,204937.100,190014.700,187049.900,197384.800,0.000
195690.700,205450.500,180871.100,252486.300,205188.400,190099.000,187200.300,197495.800,0.000
195433.000,205167.900,180552.200,252264.300,204894.900,189857.100,186951.400,197209.800,0.000
195284.500,204891.000,180202.800,252098.800,204473.700,189638.800,186659.500,196938.500,0.000
195435.300,204982.800,180276.900,252202.900,204490.600,189731.200,186710.800,197042.500,0.000
195685.200,205327.400,180668.100,252432.700,204930.500,190016.900,187043.100,197391.300,0.000
195686.100,205443.700,180817.700,252465.500,205180.300,190097.200,187191.800,197496.800,0.000
195437.200,205177.000,180510.800,252247.100,204902.400,189867.800,186958.000,197219.700,0.000
195289.500,204897.800,180162.100,252092.200,204484.300,189646.800,186669.000,196945.500,0.000
195431.200,204980.800,180227.100,252179.600,204491.000,189727.300,186710.900,197039.400,0.000
195683.800,205331.300,180621.400,252400.700,204935.900,190016.100,187046.300,197389.300,0.000
195681.000,205442.800,180768.500,252427.100,205183.800,190095.200,187195.000,197493.200,0.000
195435.700,205175.500,180459.800,252217.000,204902.200,189864.700,186958.400,197214.000,0.000
195284.200,204894.100,180109.300,252053.600,204479.200,189639.700,186666.000,196939.100,0.000
195435.700,204986.500,180183.500,252157.700,204494.000,189729.800,186720.000,197045.700,0.000
195685.200,205330.300,180576.900,252390.000,204937.600,190020.700,187056.000,197396.600,0.000
195681.400,205444.900,180729.700,252420.900,205194.200,190106.900,187209.700,197506.900,0.000
195421.300,205160.800,180412.500,252196.600,204905.400,189864.700,186964.300,197218.800,0.000
195271.600,204879.500,180058.800,252025.100,204478.300,189637.800,186664.300,196935.700,0.000
195433.200,204982.300,180139.800,252131.600,204498.500,189736.000,186721.700,197044.300,0.000
195687.700,205338.900,180539.800,252362.200,204944.000,190031.300,187060.300,197394.900,0.000
195684.200,205447.700,180692.200,252396.500,205194.700,190112.300,187210.300,197503.000,0.000
195437.200,205175.500,180383.800,252182.000,204914.800,189877.900,186974.000,197226.300,0.000
195284.800,204893.100,180030.300,252010.500,204491.800,189655.300,186680.600,196950.100,0.000
195439.700,204987.200,180103.900,252117.100,204506.700,189750.000,186733.000,197054.200,0.000
195681.000,205327.000,180490.400,252334.200,204939.500,190030.200,187056.500,197392.600,0.000
195673.800,205435.100,180633.300,252356.400,205182.900,190107.100,187198.900,197493.000,0.000
195436.400,205174.400,180329.400,252161.800,204906.200,189883.700,186964.700,197222.200,0.000
195286.900,204896.900,179977.400,251994.400,204485.600,189659.600,186669.300,196947.200,0.000
195437.200,204990.400,180054.800,252083.600,204504.300,189750.500,186724.400,197053.800,0.000
195690.900,205335.700,180449.100,252316.000,204944.900,190036.600,187053.800,197401.800,0.000
195687.200,205446.900,180591.500,252358.400,205188.300,190114.800,187192.000,197501.300,0.000
195439.800,205180.200,180282.600,252135.600,204908.700,189884.000,186953.000,197224.700,0.000
195290.700,204902.800,179933.300,251968.600,204489.500,189660.900,186658.000,196951.600,0.000
195439.000,204994.200,180009.000,252064.500,204506.000,189750.900,186712.400,197057.400,0.000
195684.100,205330.600,180395.500,252284.200,204936.000,190025.900,187036.100,197394.800,0.000
195681.300,205443.300,180545.200,252315.500,205185.000,190105.700,187183.000,197502.600,0.000
195435.400,205178.200,180237.100,252103.900,204903.900,189874.400,186946.200,197225.200,0.000
195283.300,204892.800,179882.400,251945.100,204479.700,189647.500,186653.300,196949.500,0.000
195436.800,204989.600,179960.400,252053.600,204499.200,189739.600,186710.800,197059.100,0.000
195683.600,205334.700,180350.200,252272.900,204937.800,190026.400,187040.700,197405.600,0.000
195677.900,205443.200,180494.600,252289.300,205186.000,190110.400,187185.000,197508.800,0.000
195434.000,205174.500,180188.900,252088.500,204905.500,189882.100,186946.700,197233.000,0.000
195287.300,204904.400,179846.900,251929.000,204491.600,189665.600,186662.400,196963.500,0.000
195436.400,204997.800,179922.300,252026.300,204505.800,189751.500,186713.900,197066.400,0.000
195681.600,205338.300,180310.300,252247.400,204941.300,190031.800,187040.800,197407.700,0.000
195675.300,205448.600,180454.400,252267.200,205186.700,190108.700,187180.900,197506.200,0.000
195429.100,205184.100,180148.400,252057.300,204908.100,189877.500,186944.900,197230.500,0.000
195285.100,204908.500,179803.000,251899.000,204493.600,189654.900,186660.000,196961.400,0.000
195436.600,205004.000,179882.600,252001.300,204513.100,189747.000,186717.500,197068.300,0.000
195684.300,205342.500,180276.200,252233.200,204952.500,190030.300,187049.600,197415.400,0.000
195674.300,205444.500,180414.000,252246.500,205193.100,190102.900,187185.900,197506.200,0.000
195428.700,205172.600,180103.900,252047.100,204910.300,189869.400,186945.900,197226.800,0.000
195271.200,204887.500,179745.100,251872.800,204481.300,189638.400,186647.300,196945.600,0.000
195424.800,204985.000,179819.000,251961.500,204495.000,189729.400,186701.700,197047.500,0.000
195686.400,205342.200,180223.900,252210.900,204944.600,190029.100,187043.500,197406.900,0.000
195687.800,205457.000,180379.300,252240.200,205196.400,190116.300,187193.900,197515.000,0.000
195432.400,205181.700,180065.200,252020.400,204909.100,189878.600,186948.000,197230.300,0.000
195272.400,204895.200,179707.700,251846.300,204482.600,189648.700,186651.100,196948.700,0.000
195427.700,204990.000,179787.300,251955.200,204498.500,189738.900,186707.200,197056.200,0.000
195676.500,205331.500,180180.300,252181.400,204934.800,190022.700,187036.800,197401.800,0.000
195675.600,205446.500,180330.600,252207.700,205185.700,190106.600,187185.400,197504.600,0.000
195428.300,205171.700,180021.900,251994.300,204905.900,189869.500,186945.900,197223.100,0.000
195289.300,204900.100,179677.900,251848.700,204491.300,189651.300,186658.900,196955.900,0.000
195450.800,205008.600,179763.800,251978.200,204517.000,189752.300,186719.100,197071.700,0.000
195692.900,205347.400,180151.000,252186.800,204953.100,190030.300,187047.300,197409.000,0.000
195682.700,205449.600,180290.400,252182.500,205194.300,190100.900,187183.400,197500.700,0.000
195439.800,205184.500,179984.800,251987.400,204914.200,189868.600,186940.700,197224.000,0.000
195287.800,204907.800,179633.000,251822.200,204491.400,189644.000,186642.700,196947.200,0.000
195438.800,205001.300,179706.500,251921.900,204506.700,189736.100,186695.400,197052.900,0.000
195679.100,205337.800,180090.400,252135.600,204939.200,190015.100,187022.800,197391.000,0.000
195679.200,205455.100,180244.600,252168.200,205194.000,190101.900,187176.600,197499.000,0.000
195435.200,205188.500,179944.900,251970.500,204920.700,189874.900,186945.900,197226.300,0.000
195284.200,204906.200,179590.500,251805.000,204497.100,189646.100,186647.600,196944.900,0.000
195440.900,205006.200,179668.600,251909.000,204514.000,189739.800,186698.600,197050.000,0.000
195690.500,205353.900,180068.600,252136.100,204953.700,190027.900,187034.900,197400.200,0.000
195680.400,205464.800,180220.400,252156.800,205202.000,190105.400,187184.200,197501.600,0.000
195430.000,205190.600,179910.500,251942.300,204920.400,189871.900,186946.800,197222.100,0.000
195280.700,204907.900,179557.900,251786.600,204498.900,189649.300,186654.900,196948.200,0.000
195431.200,205001.400,179631.400,251886.500,204512.500,189736.900,186703.500,197050.800,0.000
195675.900,205342.500,180015.600,252098.500,204944.000,190014.500,187023.200,197389.100,0.000
195673.400,205455.300,180162.500,252128.700,205191.800,190097.700,187169.000,197495.100,0.000
195434.400,205192.500,179862.200,251923.000,204920.000,189874.400,186939.600,197224.200,0.000
195286.000,204911.200,179514.900,251766.000,204500.200,189652.100,186651.600,196950.500,0.000
195437.100,205005.700,179593.200,251871.600,204517.400,189743.700,186706.500,197056.800,0.000
195685.600,205353.600,179984.400,252089.000,204951.400,190025.100,187032.300,197394.000,0.000
195679.800,205469.100,180132.000,252109.000,205200.000,190107.500,187176.800,197492.900,0.000
195432.300,205193.200,179825.900,251902.500,204919.500,189875.200,186943.200,197215.600,0.000
195282.300,204907.900,179473.300,251744.800,204492.900,189648.200,186648.100,196940.000,0.000
195443.500,205009.700,179556.100,251860.900,204515.700,189747.400,186704.900,197053.300,0.000
195693.800,205351.100,179948.100,252104.100,204952.500,190033.100,187035.900,197401.600,0.000
195678.200,205459.600,180088.100,252086.300,205195.700,190105.300,187177.800,197492.800,0.000
195437.600,205192.300,179789.600,251883.400,204925.700,189879.200,186949.900,197222.900,0.000
195285.600,204904.100,179434.500,251713.600,204498.300,189648.200,186653.900,196943.300,0.000
195440.900,204999.200,179512.800,251818.700,204517.500,189742.500,186709.300,197051.500,0.000
195694.400,205349.000,179911.400,252046.200,204963.300,190032.500,187045.100,197398.800,0.000
195692.000,205463.600,180063.500,252077.500,205213.900,190116.200,187193.200,197506.700,0.000
195443.200,205192.800,179757.100,251870.500,204930.300,189884.200,186956.600,197228.600,0.000
195286.800,204908.200,179402.200,251704.200,204499.500,189656.700,186658.400,196946.100,0.000
195442.600,205006.900,179482.600,251815.700,204518.200,189753.900,186715.800,197054.600,0.000
195691.200,205346.700,179876.800,252050.700,204956.000,190039.800,187050.200,197404.300,0.000
195693.800,205462.300,180027.800,252087.500,205204.700,190119.300,187198.800,197510.000,0.000
195449.900,205202.100,179723.500,251858.000,204928.700,189891.500,186964.600,197232.600,0.000
195296.900,204919.100,179372.800,251688.200,204506.700,189664.800,186669.500,196956.900,0.000
195440.400,205003.100,179445.500,251793.000,204514.600,189746.700,186715.800,197056.800,0.000
195683.800,205343.300,179833.000,252021.600,204947.500,190029.100,187041.500,197400.500,0.000
195672.200,205450.000,179976.600,252030.700,205193.800,190104.200,187183.400,197497.500,0.000
195430.100,205186.400,179674.600,251828.100,204918.200,189876.600,186951.700,197226.100,0.000
195289.500,204923.400,179335.400,251676.800,204506.800,189661.500,186667.300,196959.900,0.000
195437.300,205011.000,179402.900,251777.300,204515.200,189746.900,186711.500,197053.300,0.000
195680.700,205347.500,179785.800,251991.400,204948.800,190026.200,187034.100,197389.400,0.000
195686.700,205464.500,179940.400,252025.900,205206.200,190111.800,187183.800,197499.900,0.000
195439.500,205191.300,179635.900,251819.200,204926.100,189881.000,186945.000,197223.900,0.000
195284.800,204905.500,179285.200,251665.500,204499.300,189654.700,186649.200,196947.300,0.000
195430.600,205001.400,179359.300,251754.200,204509.200,189739.200,186698.400,197044.100,0.000
195677.400,205343.600,179751.300,251972.300,204945.700,190019.200,187029.500,197388.200,0.000
195682.000,205463.600,179906.600,252009.100,205202.800,190106.900,187184.300,197500.900,0.000
195433.700,205196.100,179599.000,251801.700,204924.100,189877.200,186950.300,197225.800,0.000
195277.800,204917.200,179245.900,251633.500,204501.100,189651.100,186654.800,196948.600,0.000
195432.600,205006.400,179324.000,251749.300,204519.600,189744.500,186709.300,197060.700,0.000
195681.700,205344.700,179712.600,251976.100,204950.000,190023.800,187032.500,197398.800,0.000
195671.700,205454.800,179860.000,251981.800,205197.100,190102.800,187180.000,197496.500,0.000
195428.700,205190.900,179560.600,251771.800,204925.100,189877.300,186952.300,197225.900,0.000
195277.500,204909.000,179210.800,251614.400,204502.300,189651.300,186659.300,196948.900,0.000
195424.300,204991.800,179280.400,251708.400,204509.000,189732.200,186706.500,197042.500,0.000
195671.100,205327.000,179667.700,251931.500,204941.900,190013.500,187033.700,197382.400,0.000
195671.100,205442.500,179820.000,251967.700,205192.300,190097.700,187182.600,197489.300,0.000
195423.000,205177.800,179516.400,251756.300,204916.700,189867.000,186948.200,197216.900,0.000
195275.100,204903.200,179168.300,251590.900,204498.400,189645.000,186659.600,196945.300,0.000
195426.300,204995.200,179243.400,251692.200,204512.500,189736.900,186712.600,197046.600,0.000
195677.400,205348.300,179644.400,251930.000,204958.600,190030.400,187050.200,197397.600,0.000
195673.300,205464.800,179797.500,251957.800,205208.000,190108.100,187197.300,197500.700,0.000
195419.700,205184.500,179482.500,251727.500,204918.900,189864.200,186953.200,197213.300,0.000
195270.000,204901.800,179129.800,251564.300,204496.700,189639.900,186661.100,196936.600,0.000
195420.400,204994.800,179208.600,251671.100,204516.500,189735.800,186717.000,197044.500,0.000
195663.900,205331.100,179597.300,251896.100,204944.500,190015.100,187041.400,197384.800,0.000
195663.100,205451.300,179751.300,251928.800,205191.700,190099.800,187191.500,197493.900,0.000
195413.700,205181.300,179445.400,251719.400,204911.100,189865.400,186954.000,197214.800,0.000
195266.000,204900.300,179097.700,251559.900,204489.000,189636.400,186663.000,196940.200,0.000
195418.600,204994.700,179173.700,251666.600,204503.600,189728.100,186714.500,197044.400,0.000
195663.300,205330.600,179558.000,251890.500,204936.400,190006.700,187038.300,197382.900,0.000
195669.500,205451.300,179716.400,251931.800,205194.200,190095.400,187195.800,197496.400,0.000
195420.500,205184.800,179413.300,251713.000,204917.700,189866.500,186961.400,197221.900,0.000
195267.400,204905.300,179062.400,251540.100,204493.300,189641.100,186664.700,196943.700,0.000
195418.300,204994.800,179133.900,251642.700,204502.200,189726.300,186710.900,197045.200,0.000
195665.100,205332.300,179524.700,251860.100,204938.300,190008.000,187036.100,197387.900,0.000
195670.600,205452.700,179685.100,251906.000,205197.300,190094.400,187188.900,197504.800,0.000
195425.700,205186.300,179379.500,251695.800,204919.500,189864.800,186950.500,197229.900,0.000
195274.100,204908.200,179028.400,251528.800,204502.600,189644.900,186659.000,196952.700,0.000
195413.100,204989.600,179091.900,251614.400,204508.500,189727.800,186699.800,197043.100,0.000
195666.600,205338.300,179491.200,251843.600,204949.200,190018.500,187036.000,197394.000,0.000
195672.600,205458.700,179651.600,251888.600,205207.700,190109.300,187193.500,197512.200,0.000
195417.500,205184.900,179339.100,251672.300,204921.200,189871.700,186952.300,197229.000,0.000
195263.800,204907.800,178986.800,251500.800,204497.100,189644.800,186658.400,196949.500,0.000
195413.700,204998.300,179062.900,251601.100,204511.400,189736.500,186711.400,197054.000,0.000
195667.500,205346.100,179463.700,251835.200,204956.900,190028.400,187051.600,197406.000,0.000
195664.400,205459.800,179618.000,251867.400,205211.200,190112.700,187202.700,197513.600,0.000
195431.200,205203.300,179324.600,251681.000,204941.500,189891.300,186976.000,197250.900,0.000
195275.800,204921.300,178971.000,251503.700,204514.600,189660.500,186678.100,196965.900,0.000
195423.600,205013.600,179047.400,251584.500,204530.800,189746.300,186728.200,197060.400,0.000
195668.000,205349.200,179437.700,251810.800,204965.600,190026.800,187053.100,197398.500,0.000
195669.700,205467.800,179589.400,251845.000,205211.400,190108.900,187200.300,197504.000,0.000
195423.500,205200.300,179284.200,251632.300,204932.700,189880.300,186966.500,197228.600,0.000
195271.500,204910.000,178928.200,251473.200,204502.000,189651.500,186666.500,196949.600,0.000
195421.400,204993.100,179001.000,251576.000,204506.500,189736.700,186713.300,197049.700,0.000
195669.100,205331.000,179390.500,251805.500,204937.600,190017.100,187036.500,197390.600,0.000
195663.300,205439.500,179539.800,251827.800,205185.600,190097.000,187180.300,197494.300,0.000
195423.000,205179.500,179240.900,251619.800,204911.100,189869.100,186950.900,197223.600,0.000
195269.900,204898.900,178890.900,251452.300,204487.800,189644.400,186659.100,196944.900,0.000
195416.200,204982.700,178962.500,251553.400,204497.300,189731.500,186709.800,197041.800,0.000
195664.700,205320.900,179353.500,251779.500,204929.700,190014.000,187038.400,197384.200,0.000
195667.700,205441.200,179510.800,251815.400,205185.700,190101.200,187192.700,197493.600,0.000
195424.100,205176.800,179207.000,251609.300,204910.800,189874.100,186959.700,197222.600,0.000
195273.600,204897.500,178856.100,251447.600,204490.700,189650.800,186665.300,196948.500,0.000
195429.900,204990.600,178934.900,251563.200,204505.400,189744.500,186718.300,197055.600,0.000
195669.100,205324.800,179319.400,251781.100,204931.200,190021.000,187039.600,197390.400,0.000
195664.900,205442.700,179470.300,251799.000,205183.300,190100.100,187186.800,197492.400,0.000
195427.800,205185.300,179175.500,251598.700,204918.400,189876.000,186961.700,197228.000,0.000
195272.300,204900.800,178821.000,251427.700,204491.100,189643.200,186662.400,196947.200,0.000
195413.500,204981.000,178891.300,251524.300,204498.800,189726.600,186704.800,197042.200,0.000
195662.100,205324.300,179286.100,251755.800,204937.700,190012.500,187034.400,197385.700,0.000
195660.100,205437.700,179436.800,251784.300,205188.300,190096.700,187183.600,197489.800,0.000
195419.200,205183.500,179143.500,251577.700,204923.800,189872.500,186960.200,197222.400,0.000
195264.000,204899.200,178790.500,251408.600,204499.300,189642.000,186661.900,196943.200,0.000
195414.800,204985.400,178861.400,251512.000,204502.700,189725.900,186705.100,197042.800,0.000
195661.500,205320.900,179251.300,251733.200,204932.300,190006.000,187028.300,197382.700,0.000
195665.000,205439.500,179410.200,251767.100,205188.500,190092.500,187178.800,197493.000,0.000
195427.900,205182.900,179117.700,251577.500,204921.300,189869.900,186952.500,197227.300,0.000
195268.100,204891.600,178758.600,251396.900,204489.400,189635.200,186649.700,196936.600,0.000
195414.600,204978.800,178828.500,251492.400,204493.100,189719.800,186696.100,197035.000,0.000
195664.900,205321.200,179222.900,251724.500,204929.400,190005.000,187027.500,197383.900,0.000
195662.400,205434.600,179373.600,251751.700,205176.900,190084.400,187172.400,197489.000,0.000
195416.200,205173.600,179075.800,251539.900,204905.300,189861.500,186940.800,197219.500,0.000
195269.200,204899.400,178733.000,251383.500,204490.600,189645.000,186653.600,196947.000,0.000
195417.800,204992.200,178807.200,251494.500,204502.300,189734.800,186704.200,197045.900,0.000
195658.400,205328.600,179190.600,251707.000,204929.700,190013.900,187027.200,197382.900,0.000
195651.000,205434.700,179335.900,251719.600,205175.200,190090.100,187167.800,197485.800,0.000
195406.500,205164.500,179032.900,251512.900,204898.000,189859.100,186932.800,197213.800,0.000
195255.800,204879.000,178686.300,251358.900,204481.100,189639.700,186641.900,196940.300,0.000
195404.100,204967.700,178757.700,251454.800,204487.100,189729.700,186689.700,197037.400,0.000
195654.500,205315.900,179155.300,251680.000,204928.500,190019.400,187026.800,197384.300,0.000
195648.000,205424.500,179306.700,251706.000,205180.300,190100.200,187174.900,197488.500,0.000
195407.800,205158.500,179005.900,251502.300,204905.900,189873.300,186940.900,197217.100,0.000
195262.300,204881.000,178659.200,251347.200,204483.100,189650.900,186647.000,196943.300,0.000
195406.700,204967.600,178728.400,251442.300,204486.600,189738.800,186693.300,197041.800,0.000
195649.700,205299.700,179111.400,251670.700,204908.900,190016.200,187016.200,197381.900,0.000
195646.000,205413.500,179257.300,251698.000,205146.600,190093.600,187157.800,197483.600,0.000
195400.700,205148.000,178955.000,251471.800,204870.300,189868.500,186927.900,197211.500,0.000
195253.600,204871.300,178607.200,251312.700,204450.400,189645.200,186637.400,196938.500,0.000
195405.000,204966.700,178682.800,251419.800,204463.000,189733.200,186687.500,197039.600,0.000
195651.300,205301.000,179068.200,251657.000,204892.200,190011.100,187009.500,197380.300,0.000
195645.800,205406.600,179213.100,251672.100,205138.000,190088.700,187153.800,197482.800,0.000
195404.800,205148.200,178913.100,251464.600,204866.700,189862.700,186925.100,197209.500,0.000
195260.900,204874.700,178569.500,251306.000,204453.000,189642.900,186635.800,196936.600,0.000
195411.900,204967.700,178644.400,251402.000,204464.100,189729.600,186683.000,197035.400,0.000
195656.700,205307.500,179036.000,251620.000,204895.500,190010.900,187011.300,197376.600,0.000
195659.800,205428.200,179193.400,251659.800,205151.900,190098.300,187162.900,197490.300,0.000
195412.700,205165.500,178892.400,251449.000,204879.500,189869.000,186930.000,197217.500,0.000
195264.800,204889.000,178546.500,251290.300,204463.000,189645.400,186638.200,196946.000,0.000
195408.000,204976.500,178620.700,251390.900,204475.500,189729.300,186683.700,197046.800,0.000
195641.100,205307.100,179001.400,251592.800,204900.200,189998.700,186999.300,197378.300,0.000
195639.100,205426.000,179158.300,251622.000,205155.900,190084.900,187150.700,197485.800,0.000
195404.300,205165.200,178866.800,251436.000,204890.800,189863.300,186924.500,197220.200,0.000
195261.500,204886.900,178521.900,251287.900,204472.000,189642.100,186632.100,196945.600,0.000
195410.000,204975.500,178596.800,251381.000,204483.200,189730.900,186683.700,197045.700,0.000
195655.600,205311.200,178984.200,251597.300,204912.800,190013.200,187009.200,197387.300,0.000
195659.800,205428.500,179137.500,251640.000,205164.800,190097.200,187162.200,197499.400,0.000
195410.400,205160.800,178833.800,251415.100,204886.100,189866.500,186929.500,197223.200,0.000
195264.300,204885.800,178487.200,251256.300,204463.300,189644.200,186637.300,196949.300,0.000
195414.100,204976.800,178557.700,251362.500,204468.300,189728.900,186680.800,197049.300,0.000
195659.000,205312.300,178944.700,251581.200,204894.300,190004.700,187002.600,197385.200,0.000
195656.900,205419.100,179093.000,251605.400,205139.300,190080.500,187148.600,197487.200,0.000
195431.500,205170.600,178808.200,251428.800,204882.000,189866.400,186930.500,197233.300,0.000
195289.300,204906.300,178469.300,251266.800,204471.000,189650.500,186643.300,196961.400,0.000
195446.600,205003.700,178550.800,251358.900,204491.900,189738.500,186696.800,197063.500,0.000
195695.300,205333.100,178933.400,251582.600,204918.000,190013.300,187013.900,197400.700,0.000
195708.800,205453.800,179093.600,251630.800,205172.800,190101.900,187164.700,197517.700,0.000
195459.900,205177.500,178785.600,251410.600,204890.800,189866.800,186923.200,197237.700,0.000
195315.900,204903.100,178440.400,251244.200,204471.600,189641.700,186631.600,196962.300,0.000
195473.800,204992.600,178516.100,251354.900,204479.100,189729.800,186682.200,197065.400,0.000
195728.500,205338.700,178907.400,251582.000,204909.400,190015.600,187012.000,197407.200,0.000
195735.400,205463.100,179068.700,251618.600,205166.900,190107.800,187168.400,197516.400,0.000
195495.000,205202.300,178776.700,251414.000,204901.000,189886.700,186940.500,197245.200,0.000
195349.700,204928.800,178437.800,251253.100,204486.800,189669.800,186652.000,196972.000,0.000
195492.000,205016.100,178504.300,251340.500,204490.100,189747.000,186692.200,197061.000,0.000
195732.100,205342.600,178885.100,251570.800,204911.900,190017.600,187009.700,197395.900,0.000
195735.000,205455.400,179042.300,251608.100,205162.300,190102.800,187160.800,197505.100,0.000
195493.200,205200.900,178747.900,251393.900,204892.200,189878.300,186932.600,197233.800,0.000
195341.900,204923.800,178406.800,251239.400,204477.300,189657.200,186645.000,196963.700,0.000
195477.500,205010.000,178477.700,251322.400,204486.600,189739.900,186695.500,197059.200,0.000
195719.800,205346.300,178870.700,251553.400,204922.800,190025.700,187029.600,197407.400,0.000
195722.100,205467.200,179025.100,251592.000,205174.400,190109.100,187178.400,197515.900,0.000
195471.400,205200.600,178725.000,251370.500,204902.100,189878.600,186945.200,197236.900,0.000
195322.400,204926.400,178384.700,251217.600,204491.100,189656.700,186659.800,196964.800,0.000
195464.200,205014.600,178454.600,251322.000,204498.700,189736.500,186703.900,197060.700,0.000
195703.600,205354.400,178841.400,251531.200,204928.900,190011.600,187024.400,197395.200,0.000
195692.700,205465.600,178992.200,251544.300,205182.100,190090.000,187169.000,197496.000,0.000
195443.800,205194.800,178695.000,251354.100,204911.400,189863.300,186940.400,197227.000,0.000
195284.800,204901.900,178336.900,251192.400,204481.300,189634.100,186643.300,196948.000,0.000
195430.300,204989.300,178403.000,251272.600,204483.500,189719.900,186687.500,197043.100,0.000
195686.300,205340.500,178801.300,251504.900,204920.400,190009.600,187018.500,197393.100,0.000
195692.100,205467.600,178966.000,251541.300,205182.400,190100.400,187174.300,197507.800,0.000
195451.100,205205.400,178674.700,251340.600,204915.700,189879.900,186947.700,197241.800,0.000
195291.700,204910.200,178313.200,251175.700,204482.200,189648.400,186644.200,196954.700,0.000
195439.200,204995.500,178378.900,251271.800,204482.300,189730.800,186685.600,197045.200,0.000
195687.600,205338.600,178773.800,251502.200,204917.300,190016.600,187016.000,197390.100,0.000
195693.600,205462.700,178934.000,251534.100,205175.100,190104.600,187170.000,197499.200,0.000
195451.500,205200.500,178638.400,251325.100,204910.700,189883.200,186943.800,197229.500,0.000
195291.400,204905.700,178275.800,251155.600,204476.700,189651.300,186642.300,196944.000,0.000
195440.400,204992.500,178344.500,251257.500,204478.600,189736.500,186688.600,197043.100,0.000
195683.700,205333.300,178733.800,251475.500,204907.800,190013.300,187010.000,197383.200,0.000
195681.400,205453.800,178896.400,251513.500,205167.900,190101.200,187165.600,197496.700,0.000
195426.500,205185.300,178595.000,251297.900,204896.900,189873.300,186937.200,197225.000,0.000
195272.100,204901.800,178245.500,251136.900,204477.300,189647.900,186644.900,196952.900,0.000
195413.100,204981.100,178305.800,251237.200,204471.500,189721.600,186678.400,197045.700,0.000
195663.400,205324.000,178700.700,251457.200,204908.700,190004.800,187007.500,197389.900,0.000
195667.700,205448.400,178869.800,251496.400,205175.000,190099.000,187170.000,197508.000,0.000
195418.500,205183.800,178569.200,251275.300,204901.000,189869.000,186939.400,197230.700,0.000
195270.700,204907.800,178222.600,251116.100,204481.300,189650.400,186650.000,196956.500,0.000
195410.900,204987.600,178285.800,251221.500,204483.200,189731.200,186692.400,197051.900,0.000
195653.100,205322.300,178671.700,251443.400,204912.100,190007.800,187015.800,197389.700,0.000
195662.100,205448.600,178836.400,251471.200,205173.600,190103.100,187176.100,197504.800,0.000
195422.100,205187.800,178540.500,251274.800,204905.300,189881.900,186947.600,197235.400,0.000
195260.900,204896.800,178181.800,251105.100,204473.800,189650.900,186646.200,196948.900,0.000
195401.400,204973.500,178239.400,251197.800,204465.500,189724.600,186680.900,197033.000,0.000
195657.400,205319.700,178633.700,251426.200,204900.700,190008.100,187010.400,197376.700,0.000
195669.300,205451.200,178801.000,251469.100,205170.800,190103.700,187171.000,197498.100,0.000
195415.800,205181.800,178494.600,251254.500,204896.000,189872.700,186933.400,197221.400,0.000
195250.900,204890.000,178132.200,251083.700,204462.400,189639.900,186629.000,196939.900,0.000
195394.500,204973.200,178196.800,251187.500,204465.000,189724.600,186669.900,197040.100,0.000
195643.100,205315.400,178589.500,251416.600,204901.300,190011.100,186999.700,197387.200,0.000
195649.200,205441.600,178753.900,251458.100,205162.100,190098.600,187160.200,197503.600,0.000
195394.000,205171.900,178448.200,251237.300,204884.600,189862.700,186926.800,197222.100,0.000
195238.600,204885.300,178092.500,251070.300,204455.900,189635.800,186628.900,196940.700,0.000
195384.100,204967.200,178157.900,251166.400,204455.200,189717.700,186672.300,197036.500,0.000
195634.900,205311.200,178553.100,251382.300,204890.900,190003.100,187001.900,197378.300,0.000
195649.500,205441.800,178724.300,251427.800,205160.300,190101.000,187164.200,197495.100,0.000
195406.500,205179.600,178429.300,251225.700,204890.000,189876.400,186934.700,197221.100,0.000
195252.600,204892.000,178072.000,251062.900,204458.700,189648.400,186636.500,196938.700,0.000
195398.400,204976.300,178136.500,251160.400,204458.300,189732.800,186676.800,197035.500,0.000
195652.100,205318.800,178529.900,251387.000,204892.100,190016.800,187003.700,197381.700,0.000
195666.100,205449.600,178703.000,251431.000,205160.800,190109.400,187167.800,197503.100,0.000
195419.300,205180.900,178407.300,251225.300,204885.000,189878.300,186935.600,197226.800,0.000
195268.700,204898.200,178054.500,251061.100,204454.000,189651.300,186638.100,196945.400,0.000
195415.100,204978.700,178119.500,251162.400,204449.700,189731.400,186678.800,197040.400,0.000
195669.100,205323.800,178520.400,251393.800,204888.600,190020.100,187012.600,197393.000,0.000
195676.500,205450.500,178691.800,251445.300,205157.600,190113.400,187175.800,197515.000,0.000
195423.000,205180.500,178388.000,251219.600,204881.500,189880.200,186941.800,197230.500,0.000
195263.800,204892.700,178027.100,251042.300,204450.400,189649.500,186641.200,196945.000,0.000
195405.500,204976.100,178091.100,251131.200,204450.300,189731.200,186679.600,197034.800,0.000
195647.500,205310.900,178481.000,251356.800,204881.900,190010.700,187004.400,197377.000,0.000
195648.500,205430.500,178642.500,251392.900,205141.300,190095.600,187156.400,197490.200,0.000
195404.100,205168.000,178347.500,251197.100,204874.300,189871.600,186926.800,197221.900,0.000
195250.800,204886.500,177998.600,251027.800,204451.900,189647.300,186635.400,196945.200,0.000
195399.200,204968.500,178066.900,251124.600,204453.800,189730.300,186679.600,197040.600,0.000
195642.700,205303.000,178456.700,251343.200,204882.300,190008.300,187001.400,197379.900,0.000
195653.000,205432.000,178623.700,251386.400,205147.700,190098.600,187159.500,197497.900,0.000
195401.300,205163.900,178322.500,251172.500,204874.900,189865.800,186923.500,197217.500,0.000
195243.800,204881.100,177969.800,251008.800,204446.900,189636.500,186626.900,196934.800,0.000
195396.300,204978.100,178048.300,251119.200,204460.000,189729.800,186682.700,197039.400,0.000
195651.000,205324.600,178445.700,251352.400,204897.800,190017.900,187011.700,197389.000,0.000
195651.100,205451.100,178609.900,251374.700,205158.600,190105.100,187165.000,197501.500,0.000
195393.100,205177.800,178304.300,251155.800,204883.000,189870.400,186927.600,197220.500,0.000
195238.200,204886.900,177947.200,250999.300,204456.300,189642.800,186630.500,196942.800,0.000
195384.000,204971.600,178014.000,251094.400,204459.500,189727.700,186675.300,197038.200,0.000
195633.700,205312.000,178408.000,251314.300,204889.600,190008.700,187004.300,197377.500,0.000
195640.900,205430.900,178575.700,251354.400,205152.100,190097.400,187163.200,197493.000,0.000
195399.000,205166.900,178279.100,251148.100,204882.500,189868.500,186930.500,197218.500,0.000
195240.600,204880.800,177921.800,250974.300,204454.000,189637.200,186629.300,196933.100,0.000
195385.600,204955.200,177984.800,251074.600,204451.100,189719.000,186671.600,197028.800,0.000
195642.900,205300.600,178382.200,251309.400,204887.800,190004.000,187002.700,197378.100,0.000
195653.900,205431.600,178551.900,251346.900,205154.900,190094.400,187161.600,197493.400,0.000
195407.800,205169.000,178252.300,251146.000,204882.200,189862.300,186929.300,197220.100,0.000
195248.700,204880.000,177891.200,250973.400,204449.100,189628.200,186629.500,196936.000,0.000
195401.700,204972.300,177961.700,251079.800,204453.200,189715.900,186677.000,197035.000,0.000
195652.300,205312.900,178352.500,251317.900,204888.200,190000.800,187004.400,197382.300,0.000
195645.500,205425.000,178507.800,251324.700,205144.800,190081.900,187152.600,197485.500,0.000
195398.400,205160.600,178210.100,251112.300,204876.900,189855.400,186923.400,197208.800,0.000
195249.300,204880.500,177862.000,250957.500,204457.500,189635.500,186632.100,196935.300,0.000
195407.100,204979.100,177942.700,251069.200,204473.700,189728.800,186688.400,197045.200,0.000
195653.500,205322.100,178339.800,251294.900,204910.900,190014.300,187019.400,197392.600,0.000
195657.700,205447.200,178507.800,251333.100,205172.800,190107.700,187178.200,197507.000,0.000
195408.600,205183.800,178209.700,251123.400,204900.900,189880.400,186947.600,197231.400,0.000
195257.000,204901.500,177860.300,250964.800,204477.000,189653.700,186654.300,196954.400,0.000
195404.100,204984.000,177928.500,251053.800,204478.200,189737.400,186697.200,197048.300,0.000
195661.900,205335.100,178330.700,251280.600,204920.900,190025.400,187031.100,197397.500,0.000
195656.500,205445.300,178484.900,251311.300,205174.400,190105.300,187175.200,197503.900,0.000
195399.500,205165.900,178174.700,251098.600,204892.000,189866.400,186933.000,197222.700,0.000
195248.600,204884.200,177823.900,250944.200,204466.400,189641.200,186637.300,196946.200,0.000
195394.000,204966.000,177890.100,251058.200,204466.300,189726.400,186678.700,197045.800,0.000
195631.900,205296.200,178271.500,251254.700,204890.800,189999.100,186993.300,197374.200,0.000
195645.900,205430.300,178443.500,251297.100,205158.500,190094.700,187153.200,197493.900,0.000
195402.600,205172.300,178150.700,251095.200,204890.300,189871.500,186925.300,197223.700,0.000
195235.200,204873.700,177785.000,250916.800,204452.400,189635.200,186616.800,196933.800,0.000
195381.300,204955.400,177850.100,251019.000,204456.000,189720.800,186661.700,197032.700,0.000
195636.000,205305.600,178252.800,251258.500,204896.900,190010.900,186996.700,197384.500,0.000
195643.700,205435.300,178424.200,251302.200,205161.800,190102.800,187158.600,197502.300,0.000
195403.100,205177.000,178132.100,251097.100,204894.400,189874.900,186933.400,197232.600,0.000
195233.800,204882.600,177767.900,250915.600,204462.800,189639.600,186628.500,196939.800,0.000
195383.700,204967.600,177838.400,251015.800,204470.500,189731.500,186675.900,197043.300,0.000
195630.700,205307.400,178228.600,251230.600,204900.500,190011.000,186998.600,197381.500,0.000
195627.500,205427.300,178390.200,251256.100,205158.900,190091.800,187153.000,197486.500,0.000
195386.700,205162.100,178097.200,251058.000,204891.200,189864.900,186926.200,197216.500,0.000
195232.900,204877.700,177744.400,250898.800,204468.500,189642.500,186631.400,196940.200,0.000
195375.500,204960.000,177806.900,250995.600,204468.800,189725.300,186670.300,197031.400,0.000
195632.400,205307.800,178202.100,251217.400,204903.200,190007.400,186994.300,197373.000,0.000
195644.700,205433.500,178372.100,251263.200,205167.800,190101.400,187151.200,197493.200,0.000
195403.300,205169.200,178075.600,251065.600,204898.100,189876.000,186920.300,197225.300,0.000
195247.100,204883.000,177717.500,250896.600,204468.900,189646.100,186618.700,196941.300,0.000
195395.300,204970.100,177786.000,250988.500,204468.000,189727.000,186659.300,197033.900,0.000
195641.800,205308.900,178180.100,251213.900,204897.000,190005.100,186983.700,197374.400,0.000
195655.900,205441.100,178354.200,251276.400,205166.800,190102.700,187146.200,197500.000,0.000
195402.700,205172.800,178053.700,251047.800,204892.500,189870.800,186911.100,197219.800,0.000
195241.100,204881.500,177697.000,250867.000,204461.100,189637.400,186610.300,196932.900,0.000
195388.700,204965.400,177766.000,250975.900,204463.000,189721.300,186654.500,197032.300,0.000
195645.700,205314.200,178165.200,251209.000,204904.200,190010.100,186987.900,197383.400,0.000
195646.200,205429.500,178325.800,251234.400,205160.900,190094.400,187139.900,197489.800,0.000
195404.900,205170.600,178035.900,251035.800,204898.200,189870.800,186917.700,197222.100,0.000
195244.500,204883.600,177682.200,250880.000,204472.000,189644.100,186624.700,196943.500,0.000
195392.000,204967.900,177749.700,250982.400,204474.000,189727.300,186672.500,197040.900,0.000
195628.100,205298.200,178131.600,251181.700,204898.100,190000.400,186990.200,197374.600,0.000
195632.000,205419.500,178292.200,251212.100,205155.900,190089.200,187141.900,197488.000,0.000
195389.100,205157.400,177996.900,251011.100,204887.000,189865.800,186909.000,197219.800,0.000
195239.100,204876.500,177646.700,250853.300,204462.700,189641.000,186611.500,196942.800,0.000
195392.200,204962.700,177718.200,250969.300,204467.400,189727.500,186655.700,197041.800,0.000
