EEG 1, EEG 2, EEG 3, EEG 4, EEG 5, EEG 6, EEG 7, EEG 8, TRIG
739268.300,750000.100,750000.100,750000.100,721398.600,750000.100,750000.100,750000.100,0.000
622776.700,719103.300,750000.100,750000.100,614050.100,678960.400,750000.100,700256.600,0.000
528103.200,610838.200,750000.100,750000.100,525541.100,582627.400,661422.300,601421.200,0.000
466707.500,540423.400,750000.100,750000.100,468225.800,520304.800,591332.700,537496.600,0.000
440127.500,510080.800,750000.100,750000.100,444819.900,495276.700,563536.900,512034.200,0.000
421094.000,488398.800,750000.100,750000.100,428541.200,477994.900,544530.400,494518.800,0.000
404267.800,469211.400,750000.100,750000.100,414133.000,462650.700,527692.800,478954.700,0.000
389373.600,452126.600,750000.100,750000.100,401270.100,448930.400,512626.000,465001.800,0.000
376170.000,436837.600,750000.100,750000.100,389717.700,436567.800,499039.500,452395.500,0.000
364314.300,423014.300,750000.100,750000.100,379258.400,425331.100,486693.500,440943.800,0.000
353510.400,410409.000,750000.100,750000.100,369730.300,415064.400,475447.700,430508.800,0.000
343595.800,398864.200,750000.100,750000.100,361008.900,405643.000,465151.500,420959.800,0.000
334596.900,388328.800,750000.100,750000.100,353001.200,396988.600,455684.200,412163.600,0.000
326470.300,378692.500,750000.100,750000.100,345652.700,389028.900,446962.400,404047.300,0.000
319038.100,369817.800,750000.100,750000.100,338879.700,381661.000,438893.200,396550.400,0.000
312122.500,361572.800,750000.100,750000.100,332602.000,374805.300,431414.100,389609.300,0.000
305634.700,353874.600,750000.100,750000.100,326751.500,368408.700,424456.400,383151.400,0.000
299646.700,346721.400,750000.100,750000.100,321291.700,362441.300,417962.200,377108.300,0.000
294229.200,340147.900,750000.100,750000.100,316237.300,356902.900,411916.700,371473.500,0.000
289237.500,334038.200,750000.100,750000.100,311544.300,351736.700,406281.300,366227.900,0.000
284496.600,328266.100,750000.100,750000.100,307129.100,346860.000,400990.800,361311.600,0.000
280002.700,322835.600,750000.100,750000.100,302987.400,342281.600,396040.400,356708.900,0.000
275843.800,317770.000,750000.100,750000.100,299108.900,337994.900,391398.900,352382.700,0.000
272061.300,313073.800,750000.100,750000.100,295484.600,333979.300,387041.100,348307.700,0.000
268529.800,308645.300,750000.100,750000.100,292071.400,330183.200,382926.200,344458.900,0.000
265142.300,304429.700,750000.100,750000.100,288840.500,326583.000,379041.100,340842.300,0.000
261902.900,300439.500,750000.100,750000.100,285789.300,323178.000,375386.200,337436.900,0.000
258897.000,296699.600,750000.100,750000.100,282919.400,319980.700,371949.800,334226.500,0.000
256172.600,293230.300,750000.100,750000.100,280237.800,316981.500,368715.800,331194.400,0.000
253600.100,289922.100,750000.100,750000.100,277685.000,314115.400,365630.800,328305.900,0.000
251125.400,286769.100,750000.100,750000.100,275270.700,311392.700,362720.400,325588.300,0.000
248738.400,283768.800,750000.100,750000.100,272983.800,308812.800,359975.800,323027.200,0.000
246493.000,280919.700,750000.100,750000.100,270804.600,306361.400,357362.600,320576.700,0.000
244476.600,278277.000,750000.100,750000.100,268757.800,304056.800,354891.900,318255.800,0.000
242574.500,275755.400,750000.100,750000.100,266802.800,301844.400,352527.200,316038.300,0.000
240719.700,273341.500,750000.100,750000.100,264960.500,299741.000,350301.600,313960.300,0.000
238911.300,271028.400,750000.100,750000.100,263217.400,297747.400,348204.300,312003.500,0.000
237214.700,268834.400,750000.100,750000.100,261549.900,295849.600,346204.800,310123.600,0.000
235675.800,266768.800,750000.100,750000.100,259951.800,294033.100,344279.800,308304.100,0.000
234264.800,264830.000,750000.100,750000.100,258457.100,292318.400,342463.600,306591.200,0.000
232858.300,262935.800,750000.100,750000.100,257015.800,290658.400,340723.800,304960.200,0.000
231453.000,261100.500,750000.100,750000.100,255637.000,289076.200,339078.300,303421.000,0.000
230146.200,259373.500,750000.100,750000.100,254322.300,287571.200,337506.800,301941.900,0.000
228993.200,257772.200,750000.100,750000.100,253094.500,286159.900,336020.600,300533.000,0.000
227928.700,256255.800,750000.100,750000.100,251928.400,284806.600,334602.800,299189.400,0.000
226845.500,254765.100,750000.100,750000.100,250803.000,283490.900,333246.900,297913.400,0.000
225740.100,253297.500,750000.100,750000.100,249710.900,282215.900,331945.600,296690.000,0.000
224718.600,251916.100,750000.100,750000.100,248672.900,281009.200,330705.400,295514.400,0.000
223840.900,250649.700,750000.100,750000.100,247703.100,279880.000,329532.400,294394.600,0.000
223027.300,249439.300,750000.100,750000.100,246779.200,278793.100,328409.600,293323.700,0.000
222193.300,248251.200,749699.700,750000.100,245890.500,277737.300,327338.000,292310.200,0.000
221327.300,247079.800,747751.600,748254.000,245024.700,276712.800,326312.300,291338.700,0.000
220527.100,245973.500,745904.800,746406.100,244200.800,275745.400,325334.900,290401.900,0.000
219855.700,244964.100,744155.700,744656.100,243434.200,274842.700,324409.200,289507.100,0.000
219235.600,243999.600,742491.600,742990.900,242700.400,273966.200,323513.800,288646.400,0.000
218589.300,243047.300,740910.800,741409.600,241999.000,273117.400,322665.900,287839.100,0.000
217892.500,242087.200,739409.500,739907.100,241303.500,272280.800,321841.500,287055.100,0.000
217250.200,241181.200,737983.300,738480.100,240632.900,271481.000,321048.500,286291.200,0.000
216719.700,240350.400,736629.800,737125.800,240002.800,270726.000,320289.300,285550.800,0.000
216259.700,239584.100,735348.100,735843.900,239425.000,270023.100,319585.700,284866.700,0.000
215750.600,238803.200,734129.600,734624.600,238858.400,269323.800,318905.000,284210.400,0.000
215191.400,238016.000,732973.900,733468.000,238299.000,268636.800,318248.000,283580.300,0.000
214684.300,237281.800,731879.100,732372.900,237768.600,267989.800,317623.600,282971.100,0.000
214269.200,236607.100,730836.300,731329.800,237258.400,267368.700,317008.500,282363.300,0.000
213912.400,235976.900,729849.700,730342.200,236788.400,266779.500,316429.200,281794.300,0.000
213514.800,235341.400,728913.100,729405.100,236333.700,266201.600,315879.600,281263.700,0.000
213061.100,234695.700,728024.900,728516.800,235882.000,265634.500,315351.600,280754.000,0.000
212645.400,234086.400,727183.100,727674.500,235444.200,265093.100,314842.700,280251.100,0.000
212332.300,233539.800,726385.600,726876.600,235040.400,264587.400,314354.100,279760.300,0.000
212070.100,233032.100,725629.800,726120.400,234663.000,264102.300,313884.800,279296.200,0.000
211755.300,232505.900,724911.300,725401.300,234290.000,263619.300,313435.100,278858.100,0.000
211387.200,231966.600,724232.100,724721.900,233921.100,263143.600,313001.500,278437.800,0.000
211066.000,231469.800,723592.400,724082.000,233573.500,262700.900,312590.200,278031.900,0.000
210839.200,231031.400,722983.500,723472.800,233249.700,262287.300,312196.800,277633.400,0.000
210642.800,230610.000,722406.700,722895.800,232939.300,261881.100,311810.100,277246.200,0.000
210395.800,230171.200,721857.800,722346.600,232637.800,261475.900,311440.800,276889.200,0.000
210094.000,229719.000,721339.100,721827.400,232335.500,261075.000,311085.400,276546.500,0.000
209843.200,229316.900,720855.800,721343.900,232062.900,260717.600,310764.200,276225.900,0.000
209658.700,228944.100,720391.100,720879.400,231787.700,260360.500,310428.800,275883.800,0.000
209517.900,228599.800,719949.100,720436.900,231534.100,260018.500,310106.200,275558.200,0.000
209326.800,228234.000,719533.800,720021.100,231287.600,259678.000,309803.100,275260.500,0.000
209074.000,227846.900,719139.200,719626.200,231036.600,259338.600,309510.800,274973.900,0.000
208857.700,227493.900,718768.800,719255.300,230798.700,259022.100,309230.800,274691.900,0.000
208716.600,227178.600,718413.400,718899.900,230565.400,258716.000,308944.800,274395.000,0.000
208617.200,226890.700,718076.100,718562.800,230353.300,258422.900,308669.500,274116.300,0.000
208473.300,226589.500,717761.100,718247.300,230154.800,258135.100,308417.100,273869.300,0.000
208270.600,226272.900,717467.400,717953.400,229956.400,257854.300,308181.000,273639.100,0.000
208073.500,225957.200,717181.900,717667.800,229741.200,257565.700,307925.400,273382.100,0.000
207973.500,225698.300,716912.800,717398.600,229553.700,257306.200,307685.100,273132.300,0.000
207906.400,225458.700,716658.600,717144.400,229378.300,257053.900,307454.700,272896.400,0.000
207789.300,225201.200,716418.700,716904.400,229210.300,256802.800,307240.700,272688.400,0.000
207602.700,224917.800,716193.000,716678.600,229034.700,256550.600,307030.700,272486.700,0.000
207433.000,224647.900,715975.300,716460.600,228851.500,256301.900,306813.400,272267.300,0.000
207362.600,224434.100,715773.100,716258.600,228699.400,256087.100,306615.300,272060.800,0.000
207319.800,224230.900,715582.300,716067.900,228555.500,255872.600,306419.500,271862.600,0.000
207228.900,224012.000,715402.300,715887.200,228414.700,255651.300,306234.800,271683.300,0.000
207058.700,223758.500,715227.300,715711.800,228255.700,255417.300,306047.100,271499.200,0.000
206913.600,223527.600,715063.400,715548.100,228099.500,255198.300,305864.100,271311.400,0.000
206863.000,223349.500,714911.600,715396.300,227969.800,255007.300,305692.100,271131.600,0.000
206844.300,223183.900,714768.100,715252.400,227851.000,254821.000,305526.500,270961.500,0.000
206764.400,222985.800,714629.400,715113.500,227725.200,254621.500,305363.100,270801.900,0.000
206620.100,222767.800,714498.700,714983.200,227591.000,254415.200,305199.900,270644.300,0.000
206482.300,222553.700,714372.400,714857.400,227449.100,254211.400,305026.800,270470.100,0.000
206431.600,222382.900,714252.100,714737.100,227319.400,254023.800,304853.800,270289.800,0.000
206476.800,222270.900,714145.700,714630.300,227251.900,253886.300,304746.800,270181.500,0.000
206447.000,222120.100,714038.100,714522.600,227170.700,253731.100,304636.700,270071.300,0.000
206279.400,221898.400,713933.900,714418.400,227027.200,253526.600,304461.300,269896.100,0.000
206132.900,221700.200,713839.900,714323.900,226877.000,253325.800,304273.500,269706.100,0.000
206118.500,221566.900,713752.800,714236.300,226776.200,253168.700,304132.400,269563.400,0.000
206190.700,221481.000,713673.700,714157.300,226738.200,253064.000,304063.700,269495.800,0.000
206162.200,221341.500,713590.900,714075.100,226662.800,252920.300,303966.000,269398.300,0.000
205980.900,221118.600,713502.300,713986.400,226502.100,252704.100,303777.600,269210.100,0.000
205844.300,220938.400,713428.000,713912.000,226365.100,252518.300,303602.300,269031.300,0.000
205865.900,220849.600,713368.400,713852.600,226304.500,252403.000,303502.800,268928.100,0.000
205942.800,220777.900,713307.800,713791.900,226273.600,252305.000,303442.900,268867.100,0.000
205917.200,220644.500,713241.800,713725.300,226206.000,252168.700,303352.400,268777.900,0.000
205763.700,220455.400,713176.100,713659.500,226077.400,251983.700,303199.000,268621.300,0.000
205630.300,220287.500,713118.400,713602.200,225950.000,251809.300,303040.800,268456.300,0.000
205628.800,220190.000,713067.100,713550.900,225874.600,251682.200,302929.800,268337.300,0.000
205684.600,220119.900,713019.900,713503.600,225829.900,251578.200,302847.800,268251.000,0.000
205658.900,220004.600,712973.200,713456.800,225768.300,251452.700,302754.600,268162.100,0.000
205561.500,219859.100,712929.100,713412.800,225690.600,251315.400,302656.700,268070.800,0.000
205487.300,219735.800,712886.400,713370.200,225610.800,251186.600,302556.400,267967.000,0.000
205477.900,219638.600,712843.500,713327.300,225534.300,251062.700,302447.000,267848.000,0.000
205502.700,219561.700,712801.600,713285.300,225467.400,250943.100,302340.200,267736.900,0.000
205461.700,219439.400,712759.700,713243.300,225389.500,250804.600,302228.000,267630.000,0.000
205362.400,219294.900,712720.600,713204.300,225308.400,250667.500,302126.500,267533.800,0.000
205291.500,219179.300,712689.000,713172.900,225234.100,250545.900,302030.500,267434.900,0.000
205294.100,219100.100,712657.300,713141.600,225173.500,250438.400,301937.600,267329.200,0.000
205332.900,219040.900,712628.400,713111.900,225128.900,250339.300,301855.200,267239.200,0.000
205304.000,218940.500,712597.100,713080.500,225069.900,250216.900,301766.000,267150.600,0.000
205199.100,218804.500,712565.400,713049.300,224993.500,250081.400,301669.800,267057.300,0.000
205129.400,218696.100,712541.400,713025.300,224930.600,249972.600,301585.000,266970.100,0.000
205151.500,218637.400,712518.500,713001.800,224883.100,249885.200,301504.100,266880.500,0.000
205192.300,218579.600,712492.600,712976.300,224832.200,249786.200,301410.500,266784.300,0.000
205170.300,218488.400,712465.800,712949.500,224776.100,249672.400,301320.500,266698.700,0.000
205073.500,218363.800,712441.900,712925.800,224704.400,249549.100,301229.000,266613.900,0.000
205002.000,218261.700,712423.400,712907.100,224641.700,249441.100,301144.300,266528.800,0.000
205020.100,218207.300,712406.800,712890.400,224602.900,249360.400,301073.600,266447.600,0.000
205052.400,218146.900,712381.000,712864.800,224550.400,249261.800,300983.800,266352.300,0.000
205037.700,218068.900,712360.700,712844.300,224500.800,249156.800,300903.000,266274.300,0.000
204954.200,217962.800,712345.300,712828.400,224445.000,249050.800,300827.400,266206.500,0.000
204885.100,217864.000,712329.100,712812.100,224380.000,248947.700,300742.800,266122.700,0.000
204890.700,217798.500,712312.300,712795.000,224319.800,248850.800,300652.100,266024.400,0.000
204929.500,217748.100,712294.900,712777.800,224274.300,248759.500,300563.800,265933.600,0.000
204909.100,217667.300,712276.600,712759.700,224226.100,248656.000,300482.500,265857.800,0.000
204820.400,217560.200,712259.200,712742.300,224164.000,248538.800,300394.200,265780.400,0.000
204747.400,217466.000,712245.300,712728.100,224101.500,248439.500,300306.300,265697.500,0.000
204767.700,217421.100,712233.200,712716.300,224059.400,248365.900,300225.000,265614.700,0.000
204819.700,217382.300,712220.300,712702.900,224018.000,248286.700,300139.200,265530.900,0.000
204815.600,217319.000,712207.600,712690.300,223976.800,248200.500,300065.800,265469.800,0.000
204738.800,217227.600,712198.900,712681.300,223930.000,248112.300,299995.600,265414.800,0.000
204690.800,217161.300,712193.600,712676.300,223887.300,248038.000,299928.700,265354.700,0.000
204715.400,217122.100,712186.200,712668.900,223850.400,247970.700,299856.100,265278.700,0.000
204740.100,217061.300,712169.400,712652.100,223789.200,247869.000,299755.500,265175.900,0.000
204728.800,216996.600,712157.300,712640.100,223747.000,247776.800,299684.400,265114.800,0.000
204649.900,216905.500,712148.400,712631.100,223702.700,247684.000,299622.800,265063.400,0.000
204574.900,216815.900,712138.800,712620.900,223651.100,247591.500,299552.000,264992.600,0.000
204606.000,216789.000,712130.400,712612.900,223622.300,247526.700,299494.300,264925.900,0.000
204655.700,216757.300,712120.900,712603.100,223590.400,247451.300,299425.300,264854.900,0.000
204648.800,216697.900,712111.400,712593.400,223553.800,247365.400,299354.800,264790.000,0.000
204586.500,216621.100,712107.300,712588.900,223519.500,247286.400,299297.800,264742.800,0.000
204513.600,216533.300,712095.900,712577.100,223457.800,247189.200,299214.600,264662.100,0.000
204522.900,216487.600,712085.600,712567.300,223411.100,247107.100,299131.500,264576.400,0.000
204565.800,216454.700,712074.600,712556.100,223373.000,247028.300,299047.800,264493.900,0.000
204563.500,216404.300,712065.900,712547.100,223342.800,246949.200,298980.400,264438.800,0.000
204475.600,216305.700,712054.000,712535.400,223288.000,246845.400,298898.200,264370.100,0.000
204432.300,216256.100,712055.400,712536.800,223266.100,246787.500,298850.300,264326.700,0.000
204463.100,216237.800,712053.400,712534.600,223243.300,246738.100,298793.100,264268.900,0.000
204508.900,216210.700,712043.600,712524.600,223207.900,246666.200,298713.700,264192.800,0.000
204517.000,216175.200,712038.400,712519.000,223190.500,246601.400,298659.800,264151.300,0.000
204434.200,216088.000,712031.600,712512.300,223144.700,246514.800,298590.300,264094.500,0.000
204352.000,215999.000,712021.400,712501.300,223082.000,246420.300,298505.400,264014.700,0.000
204363.000,215957.900,712015.100,712495.100,223040.100,246352.800,298429.000,263935.500,0.000
204432.000,215957.400,712013.100,712493.300,223027.900,246305.200,298366.700,263881.100,0.000
204450.000,215929.800,712013.700,712493.400,223018.800,246254.400,298320.000,263845.800,0.000
204349.100,215827.300,712001.700,712481.100,222955.900,246150.000,298231.400,263772.200,0.000
204287.800,215761.900,711997.700,712476.400,222913.900,246078.400,298161.900,263710.100,0.000
204320.300,215749.600,711997.300,712475.900,222890.000,246032.900,298099.700,263650.600,0.000
204372.500,215728.600,711989.900,712468.300,222857.400,245973.700,298020.600,263577.300,0.000
204365.200,215673.600,711981.900,712460.400,222825.400,245904.600,297947.500,263518.800,0.000
204296.700,215602.200,711979.000,712456.900,222785.200,245827.300,297877.200,263469.200,0.000
204233.900,215536.500,711975.800,712453.800,222736.800,245753.100,297798.900,263405.400,0.000
204252.800,215508.600,711972.200,712449.800,222703.300,245696.600,297725.800,263336.900,0.000
204318.600,215505.100,711969.700,712446.800,222687.100,245650.300,297665.200,263282.800,0.000
204318.100,215461.500,711963.600,712440.300,222659.700,245583.200,297599.700,263232.900,0.000
204245.400,215386.300,711959.000,712435.500,222619.700,245508.400,297535.400,263188.400,0.000
204177.300,215317.300,711953.700,712430.000,222570.900,245432.000,297461.500,263125.100,0.000
204191.100,215285.800,711950.100,712426.100,222536.000,245372.800,297390.500,263057.300,0.000
204259.500,215290.000,711948.100,712424.000,222523.400,245330.300,297338.000,263008.500,0.000
204271.100,215263.300,711944.500,712420.100,222505.300,245272.800,297289.900,262971.900,0.000
204210.300,215203.700,711942.000,712417.000,222480.400,245208.800,297243.400,262939.000,0.000
204129.200,215123.600,711934.300,712407.000,222425.900,245127.500,297169.400,262873.100,0.000
204153.000,215105.200,711929.400,712398.600,222396.800,245077.700,297108.600,262812.700,0.000
204227.400,215115.600,711927.500,712393.400,222388.400,245043.300,297061.900,262769.300,0.000
204236.500,215087.100,711921.300,712384.400,222368.100,244987.600,297009.800,262728.700,0.000
204169.200,215021.800,711918.100,712378.400,222338.600,244923.100,296958.200,262693.700,0.000
204106.700,214958.400,711913.600,712370.100,222302.100,244862.900,296901.600,262648.100,0.000
204135.100,214949.000,711908.900,712362.300,222277.500,244818.800,296847.500,262595.400,0.000
204199.800,214949.900,711906.700,712357.100,222265.000,244777.200,296798.600,262553.000,0.000
204217.400,214929.800,711905.400,712352.800,222258.700,244733.800,296763.000,262533.800,0.000
204140.800,214858.100,711900.700,712344.700,222222.000,244663.000,296710.200,262499.100,0.000
204088.600,214806.400,711896.300,712336.800,222186.700,244602.900,296658.300,262457.700,0.000
204119.800,214794.800,711892.900,712329.500,222171.700,244566.000,296615.200,262418.500,0.000
204166.500,214776.200,711881.900,712314.400,222139.800,244504.900,296547.000,262358.500,0.000
204181.900,214753.600,711878.100,712306.900,222130.100,244456.500,296508.800,262333.400,0.000
204109.100,214684.300,711872.200,712296.800,222094.900,244386.900,296457.600,262297.200,0.000
204057.700,214631.600,711868.100,712288.000,222063.200,244332.700,296410.200,262257.200,0.000
204103.300,214635.000,711868.500,712284.500,222057.800,244309.300,296379.800,262224.500,0.000
204166.500,214633.000,711860.100,712273.400,222046.600,244270.500,296333.300,262180.900,0.000
204170.800,214601.700,711848.400,712259.500,222029.200,244214.500,296286.200,262145.800,0.000
204105.800,214540.800,711840.000,712247.900,222000.000,244148.400,296239.200,262115.000,0.000
204041.400,214480.300,711831.100,712234.500,221962.100,244087.600,296184.600,262069.100,0.000
204069.400,214470.600,711825.700,712222.300,221952.800,244059.900,296144.000,262030.700,0.000
204129.400,214469.800,711815.600,712186.100,221939.600,244020.100,296090.500,261983.100,0.000
204138.800,214443.900,711794.400,711652.100,221923.000,243967.400,296043.400,261947.500,0.000
204074.700,214390.300,711774.800,709890.400,221897.200,243911.400,296002.600,261918.400,0.000
204002.400,214325.600,711760.400,707653.900,221856.500,243848.800,295941.600,261866.000,0.000
204034.900,214326.700,711754.300,705479.200,221849.700,243823.700,295899.800,261828.300,0.000
204103.900,214341.900,711744.900,703425.600,221846.700,243796.600,295854.300,261788.800,0.000
204111.500,214315.800,711734.800,701434.300,221832.500,243750.000,295806.000,261754.500,0.000
204035.900,214249.100,711720.000,699458.400,221798.800,243686.300,295748.700,261715.000,0.000
203974.600,214203.300,711712.300,697508.400,221767.900,243642.800,295699.000,261676.700,0.000
203987.100,214185.300,711701.800,695574.600,221735.800,243599.100,295632.800,261617.200,0.000
204061.300,214199.400,711694.000,693697.400,221736.000,243579.800,295589.100,261581.700,0.000
204086.100,214186.800,711686.000,691834.400,221731.000,243553.900,295547.800,261555.800,0.000
203998.000,214107.200,711669.200,689934.100,221678.400,243479.600,295467.100,261496.600,0.000
203928.500,214043.800,711656.000,688054.600,221635.600,243422.000,295401.200,261447.100,0.000
203953.300,214041.800,711640.500,686232.600,221625.300,243393.800,295358.000,261410.300,0.000
204005.600,214041.800,711563.600,684700.500,221614.900,243358.100,295308.000,261363.800,0.000
204000.300,214010.500,710628.100,683376.800,221602.600,243311.100,295261.100,261330.400,0.000
203924.600,213943.800,708245.600,681894.300,221571.000,243250.600,295210.900,261290.900,0.000
203867.000,213897.300,705612.500,680398.900,221538.300,243200.000,295159.800,261246.500,0.000
203892.700,213892.900,703178.900,678927.600,221525.300,243172.200,295112.000,261200.100,0.000
203968.700,213914.500,700890.300,677491.800,221532.500,243160.500,295073.600,261168.800,0.000
203976.300,213889.300,698611.300,676047.600,221519.000,243121.500,295020.800,261133.500,0.000
203894.300,213818.000,696303.600,674580.900,221476.400,243057.300,294952.100,261084.400,0.000
203831.600,213765.400,694019.100,673123.400,221439.500,243007.300,294889.900,261036.300,0.000
203859.100,213765.200,691794.500,671691.400,221421.800,242977.300,294835.300,260988.200,0.000
203925.300,213779.800,689614.600,670289.400,221417.900,242951.500,294788.300,260950.500,0.000
203929.200,213757.100,687383.100,668890.200,221406.000,242908.500,294742.500,260919.500,0.000
203848.200,213689.000,684992.800,667454.100,221368.900,242842.600,294682.900,260874.600,0.000
203786.600,213638.400,682961.000,666005.200,221337.300,242791.900,294626.000,260827.300,0.000
203808.200,213631.900,681099.000,664581.300,221321.000,242762.300,294572.700,260777.200,0.000
203880.800,213649.000,679270.000,663186.300,221316.000,242738.500,294518.300,260733.400,0.000
203902.700,213638.300,677433.100,661807.200,221310.700,242711.800,294476.600,260709.300,0.000
203825.000,213570.600,675538.600,660393.100,221265.200,242648.700,294408.800,260662.300,0.000
203761.000,213521.600,673654.600,658986.300,221228.900,242602.100,294347.500,260616.300,0.000
203787.900,213524.700,671825.800,657616.100,221220.000,242583.900,294300.600,260578.500,0.000
203843.100,213526.500,670018.600,656259.400,221208.900,242555.100,294245.200,260534.700,0.000
203849.600,213504.600,668200.800,654912.300,221195.200,242513.600,294197.500,260501.800,0.000
203784.000,213450.100,666357.100,653560.800,221172.000,242465.100,294155.300,260475.900,0.000
203720.600,213400.000,664511.300,652203.200,221139.800,242420.900,294104.500,260436.700,0.000
203736.900,213391.500,662709.400,650865.700,221120.700,242391.500,294049.400,260388.900,0.000
203806.200,213405.300,660954.300,649561.700,221118.600,242372.800,294004.000,260352.100,0.000
203833.300,213399.100,659198.300,648275.200,221119.900,242351.500,293972.800,260334.300,0.000
203774.500,213354.000,657404.600,646972.900,221101.800,242312.900,293934.200,260313.700,0.000
203715.500,213311.000,655608.700,645663.100,221075.400,242274.100,293886.900,260277.200,0.000
203722.700,213293.200,653845.800,644360.500,221046.900,242235.300,293824.500,260220.100,0.000
203787.300,213305.200,652133.600,643097.300,221040.100,242210.500,293776.500,260181.300,0.000
203802.100,213292.200,650410.900,641843.900,221032.500,242177.500,293732.300,260156.700,0.000
203733.800,213241.400,648654.400,640575.600,221007.700,242131.400,293681.300,260130.200,0.000
203667.700,213196.900,646900.600,639301.900,220977.600,242091.100,293624.900,260091.000,0.000
203697.500,213206.400,645206.300,638059.400,220967.700,242076.400,293577.200,260052.500,0.000
203758.300,213219.800,643538.100,636835.300,220960.000,242056.000,293523.500,260013.300,0.000
203760.900,213199.300,641854.000,635615.200,220944.200,242021.200,293470.300,259979.800,0.000
203690.500,213141.100,640140.400,634384.000,220914.300,241971.200,293415.400,259948.200,0.000
203639.300,213104.000,638442.400,633163.600,220894.600,241941.400,293369.300,259919.200,0.000
203668.400,213109.300,636790.100,631962.000,220885.800,241927.100,293322.200,259880.000,0.000
203731.800,213118.600,635167.100,630777.300,220880.800,241907.700,293269.000,259837.700,0.000
203747.600,213104.300,633539.800,629604.500,220875.600,241880.200,293223.100,259813.600,0.000
203668.000,213039.500,631865.200,628404.600,220839.200,241824.100,293159.300,259774.100,0.000
203598.700,212986.800,630198.400,627205.200,220803.800,241777.200,293093.700,259727.700,0.000
203645.700,213011.800,628616.600,626068.900,220818.200,241786.600,293070.800,259716.500,0.000
203710.800,213030.800,627043.200,624928.700,220813.300,241769.400,293023.100,259680.300,0.000
203726.600,213019.900,625459.100,623792.500,220805.100,241738.300,292978.000,259653.800,0.000
203666.100,212974.600,623845.400,622650.000,220786.000,241699.100,292937.200,259633.500,0.000
203602.100,212928.800,622233.400,621502.400,220760.500,241663.800,292889.500,259600.900,0.000
203626.900,212931.800,620673.800,620379.900,220752.900,241650.200,292846.200,259564.900,0.000
203676.100,212931.900,619129.100,619261.000,220734.200,241619.800,292783.900,259513.800,0.000
203695.600,212924.700,617598.300,618172.500,220733.000,241601.300,292748.400,259497.000,0.000
203628.800,212872.800,616026.600,617065.900,220710.000,241563.100,292704.100,259474.600,0.000
203570.500,212833.400,614463.500,615960.300,220688.200,241534.600,292661.600,259446.500,0.000
203599.600,212844.400,612952.200,614877.000,220681.900,241524.600,292623.100,259415.100,0.000
203661.300,212861.300,611464.200,613804.300,220672.400,241501.800,292572.100,259373.600,0.000
203671.100,212847.700,609968.100,612741.200,220662.100,241471.500,292528.100,259347.200,0.000
203606.500,212797.900,608442.600,611671.900,220640.400,241433.700,292487.300,259326.200,0.000
203537.000,212745.100,606910.300,610590.600,220608.400,241393.100,292435.600,259290.300,0.000
203563.100,212753.600,605435.500,609536.800,220597.300,241378.400,292392.800,259257.200,0.000
203635.800,212781.200,603995.800,608504.800,220595.500,241367.700,292348.800,259226.000,0.000
203655.800,212775.900,602547.700,607480.800,220589.000,241347.600,292310.400,259207.100,0.000
203584.600,212717.900,601057.900,606434.300,220560.000,241303.900,292262.300,259179.300,0.000
203524.500,212674.300,599576.800,605389.900,220534.100,241270.100,292216.800,259148.900,0.000
203550.500,212678.900,598144.300,604369.600,220526.000,241256.800,292176.300,259116.900,0.000
203609.000,212691.400,596740.100,603366.600,220521.700,241241.100,292132.500,259082.300,0.000
203626.900,212684.100,595330.200,602374.400,220517.200,241215.400,292097.500,259062.400,0.000
203570.800,212644.800,593889.600,601374.000,220501.400,241180.300,292063.200,259048.100,0.000
203530.600,212624.200,592467.200,600384.800,220499.300,241166.500,292042.400,259039.600,0.000
203544.000,212619.000,591066.300,599390.100,220481.000,241145.700,291998.000,259000.800,0.000
203588.000,212610.300,589690.100,598404.400,220460.700,241118.900,291943.700,258954.000,0.000
203611.300,212606.400,588322.700,597445.000,220458.200,241098.700,291911.700,258937.800,0.000
203550.900,212564.200,586917.900,596470.800,220437.200,241062.800,291875.000,258919.800,0.000
203491.400,212524.300,585516.100,595496.600,220416.200,241034.400,291838.300,258896.300,0.000
203508.600,212522.500,584154.400,594535.400,220404.800,241017.800,291799.300,258862.500,0.000
203576.700,212547.500,582835.300,593600.300,220407.500,241008.800,291764.600,258835.900,0.000
203601.100,212552.200,581509.200,592677.300,220408.600,240992.000,291737.500,258824.400,0.000
203536.900,212506.900,580139.400,591735.900,220387.400,240955.700,291702.300,258808.000,0.000
203473.000,212464.900,578773.600,590789.100,220362.800,240923.800,291664.000,258783.000,0.000
203491.000,212466.600,577458.500,589864.400,220355.200,240913.100,291631.500,258757.300,0.000
203570.900,212500.600,576189.900,588970.900,220368.400,240915.700,291610.900,258743.000,0.000
203588.100,212496.100,574893.100,588065.200,220361.300,240888.200,291575.500,258721.600,0.000
203508.600,212436.100,573548.300,587136.600,220327.100,240835.500,291527.400,258691.600,0.000
203452.900,212401.900,572223.800,586224.500,220308.200,240808.000,291498.800,258673.000,0.000
203476.800,212407.600,570944.300,585328.600,220301.800,240798.900,291466.800,258643.900,0.000
203550.700,212438.900,569705.300,584459.200,220312.800,240800.500,291441.300,258624.300,0.000
203576.700,212440.800,568454.000,583597.000,220317.700,240790.000,291419.600,258616.700,0.000
203526.400,212407.100,567171.000,582723.500,220311.200,240767.900,291400.500,258614.500,0.000
203472.200,212375.700,565884.000,581841.100,220298.200,240748.200,291374.900,258599.200,0.000
203495.100,212382.600,564635.100,580969.600,220288.800,240738.000,291341.200,258567.000,0.000
203551.800,212397.500,563410.700,580109.300,220278.200,240718.000,291296.400,258527.300,0.000
203571.000,212395.200,562190.600,579269.800,220280.100,240699.800,291270.600,258515.700,0.000
203506.200,212346.200,560925.800,578407.800,220260.000,240661.200,291234.400,258498.500,0.000
203446.500,212304.800,559662.500,577541.900,220237.200,240633.000,291196.900,258475.400,0.000
203462.700,212300.100,558443.400,576690.900,220226.300,240621.200,291158.800,258441.900,0.000
203537.100,212328.400,557270.500,575873.300,220235.100,240621.800,291130.800,258418.500,0.000
203561.100,212332.000,556081.800,575055.600,220232.600,240604.500,291098.800,258403.000,0.000
203502.300,212292.500,554858.800,574229.200,220218.800,240573.900,291068.800,258393.800,0.000
203452.500,212264.400,553642.800,573404.400,220208.300,240556.600,291043.100,258383.800,0.000
203472.000,212267.300,552461.200,572585.300,220199.500,240548.500,291009.100,258356.400,0.000
203517.700,212270.200,551295.600,571767.400,220180.700,240525.800,290957.100,258313.100,0.000
203535.300,212262.800,550139.700,570977.300,220183.400,240510.700,290930.300,258303.300,0.000
203489.500,212235.300,548954.900,570180.800,220175.800,240487.900,290908.000,258301.000,0.000
203427.100,212194.000,547755.200,569365.300,220149.500,240456.600,290870.400,258275.200,0.000
203450.600,212200.900,546606.500,568571.600,220144.000,240448.500,290839.000,258249.800,0.000
203527.500,212233.800,545499.600,567805.600,220153.800,240448.400,290811.200,258232.000,0.000
203541.800,212224.400,544370.600,567034.600,220150.100,240426.500,290775.800,258217.300,0.000
203475.400,212174.500,543206.800,566252.600,220133.500,240394.300,290742.600,258207.200,0.000
203409.500,212132.200,542037.700,565460.200,220105.400,240362.500,290702.700,258182.000,0.000
203427.900,212138.000,540915.600,564687.900,220093.300,240352.700,290667.300,258153.400,0.000
203520.200,212190.600,539856.800,563964.900,220122.000,240374.800,290661.500,258155.100,0.000
203523.200,212171.600,538743.900,563204.000,220105.100,240341.100,290616.300,258125.200,0.000
203451.300,212120.800,537601.100,562436.600,220079.100,240300.700,290577.400,258103.900,0.000
203392.300,212086.000,536464.800,561670.300,220055.600,240273.400,290541.400,258081.800,0.000
203413.800,212095.400,535374.900,560925.800,220048.700,240270.000,290509.400,258057.000,0.000
203488.600,212128.000,534328.900,560209.900,220060.400,240277.200,290486.900,258042.500,0.000
203506.300,212124.500,533263.400,559489.900,220059.500,240260.700,290459.400,258029.400,0.000
203442.800,212082.300,532159.300,558754.400,220043.100,240228.700,290427.900,258017.700,0.000
203387.800,212053.600,531060.400,558018.300,220028.900,240209.700,290400.800,258005.000,0.000
203395.200,212046.400,529986.100,557279.700,220007.900,240188.600,290356.900,257965.400,0.000
203470.700,212078.900,528968.300,556581.200,220016.500,240190.400,290332.000,257946.200,0.000
203492.800,212079.700,527935.400,555885.600,220018.400,240175.800,290306.900,257938.500,0.000
203429.300,212036.200,526858.700,555172.000,219998.800,240140.500,290275.300,257926.700,0.000
203367.500,211997.200,525779.100,554449.600,219975.100,240111.800,290240.800,257902.800,0.000
203390.000,212006.800,524745.500,553746.800,219965.900,240103.400,290210.900,257874.600,0.000
203469.500,212043.600,523756.900,553072.600,219978.000,240108.600,290190.800,257859.500,0.000
203500.000,212053.700,522758.300,552405.100,219991.500,240105.600,290179.500,257862.500,0.000
203441.500,212019.200,521707.700,551709.300,219974.800,240074.200,290151.800,257856.600,0.000
203383.700,211989.300,520660.800,551012.600,219959.700,240053.600,290124.300,257846.600,0.000
203381.500,211973.900,519636.600,550312.500,219938.500,240031.600,290076.800,257809.300,0.000
203452.900,212000.400,518668.200,549656.300,219947.100,240034.300,290052.200,257798.400,0.000
203485.500,212011.500,517693.200,549007.100,219954.200,240025.700,290035.200,257800.900,0.000
203421.200,211968.400,516669.400,548332.900,219938.000,239995.300,290008.500,257796.700,0.000
203353.100,211928.200,515643.900,547653.400,219917.400,239971.500,289979.800,257782.800,0.000
203367.500,211930.200,514660.800,546988.700,219909.300,239964.000,289950.800,257762.000,0.000
203446.400,211963.000,513724.200,546354.100,219921.400,239971.200,289932.400,257753.600,0.000
203482.600,211978.200,512783.100,545732.000,219936.600,239973.200,289923.700,257764.000,0.000
203410.500,211929.100,511779.100,545070.000,219913.900,239935.800,289889.200,257752.000,0.000
203346.900,211891.600,510779.200,544407.700,219891.800,239910.300,289858.100,257735.800,0.000
203360.500,211892.700,509820.300,543760.200,219881.000,239900.800,289825.500,257710.600,0.000
203428.900,211919.400,508903.000,543139.400,219887.800,239902.500,289802.100,257695.500,0.000
203449.200,211915.100,507973.600,542523.200,219889.700,239892.400,289782.900,257692.300,0.000
203398.600,211881.400,507009.700,541895.100,219882.100,239871.400,289762.800,257695.900,0.000
203349.800,211858.300,506046.000,541263.900,219873.900,239858.300,289743.700,257692.500,0.000
203348.200,211843.400,505096.200,540616.400,219849.000,239832.200,289698.300,257652.600,0.000
203405.200,211853.700,504191.500,540000.600,219843.500,239820.200,289663.200,257625.700,0.000
203442.300,211865.700,503300.100,539414.900,219860.100,239821.800,289657.000,257635.400,0.000
203384.300,211827.800,502354.500,538799.400,219849.700,239796.500,289633.400,257632.600,0.000
203319.100,211786.600,501399.600,538170.900,219826.800,239769.700,289599.100,257613.500,0.000
203340.000,211791.600,500494.300,537561.600,219820.900,239765.300,289570.900,257590.900,0.000
203418.400,211826.900,499629.300,536978.400,219831.500,239771.300,289549.200,257576.700,0.000
203438.500,211823.100,498741.600,536393.300,219832.600,239756.600,289524.900,257567.500,0.000
203372.800,211778.200,497809.400,535785.000,219811.700,239720.300,289490.100,257551.400,0.000
203318.600,211749.100,496887.200,535178.800,219796.100,239700.400,289462.800,257537.500,0.000
203344.000,211761.400,496007.100,534589.600,219792.600,239698.500,289438.000,257516.000,0.000
203414.800,211791.200,495159.800,534019.300,219800.500,239701.700,289414.800,257497.300,0.000
203438.300,211792.500,494301.300,533458.600,219810.500,239697.300,289398.900,257495.800,0.000
203374.800,211749.100,493395.400,532870.700,219794.700,239667.200,289370.700,257485.500,0.000
203313.800,211713.200,492490.300,532279.400,219778.400,239645.200,289346.600,257469.200,0.000
203327.300,211713.200,491626.100,531699.400,219768.400,239635.800,289318.500,257440.800,0.000
203402.300,211741.900,490802.600,531145.100,219775.100,239637.800,289296.100,257422.000,0.000
203440.000,211757.700,489973.300,530604.300,219786.900,239638.100,289283.900,257423.400,0.000
203379.800,211720.200,489094.500,530038.600,219776.600,239613.100,289260.900,257415.700,0.000
203322.300,211690.000,488216.200,529467.100,219765.800,239596.800,289239.500,257403.800,0.000
203341.300,211696.800,487377.900,528905.500,219761.900,239596.500,289214.300,257382.700,0.000
203403.600,211715.600,486563.800,528354.100,219755.800,239590.900,289177.800,257354.900,0.000
203426.700,211713.500,485746.700,527816.600,219757.000,239581.900,289154.000,257347.400,0.000
203367.500,211674.600,484890.200,527259.600,219739.900,239553.900,289125.300,257336.600,0.000
203300.000,211634.500,484026.800,526696.400,219718.200,239531.400,289096.600,257318.600,0.000
203319.900,211642.400,483212.300,526157.300,219717.800,239534.100,289076.800,257300.200,0.000
203395.300,211676.000,482434.800,525639.600,219729.800,239541.600,289060.000,257287.400,0.000
203421.100,211680.100,481643.000,525123.300,219736.500,239535.600,289044.900,257284.800,0.000
203377.100,211658.600,480821.700,524599.800,219736.000,239521.700,289034.800,257292.300,0.000
203311.300,211618.500,479974.100,524048.800,219712.400,239494.800,289002.300,257271.100,0.000
203332.600,211627.100,479170.100,523515.900,219704.800,239491.000,288973.000,257246.200,0.000
203401.800,211652.100,478401.500,522999.500,219704.600,239490.500,288944.200,257221.200,0.000
203443.300,211668.300,477638.400,522505.000,219720.600,239495.500,288936.800,257224.900,0.000
203380.900,211628.700,476819.600,521979.300,219703.700,239468.400,288908.000,257214.100,0.000
203310.800,211588.700,475992.100,521440.700,219681.500,239443.700,288874.400,257193.400,0.000
203316.000,211587.200,475205.300,520915.400,219670.800,239435.300,288841.300,257163.500,0.000
203391.200,211623.300,474467.900,520427.000,219684.000,239445.800,288823.300,257150.400,0.000
203423.300,211636.300,473717.200,519942.400,219692.500,239442.200,288806.600,257147.700,0.000
203365.200,211599.100,472921.900,519433.500,219681.300,239420.000,288785.800,257143.600,0.000
203298.200,211562.200,472117.900,518912.200,219662.000,239397.600,288759.800,257126.500,0.000
203318.500,211574.800,471359.500,518415.600,219663.900,239400.500,288738.400,257110.200,0.000
203398.800,211610.600,470641.400,517944.800,219681.500,239415.700,288723.800,257101.300,0.000
203428.600,211614.600,469908.400,517472.900,219689.100,239415.600,288708.200,257099.900,0.000
203366.100,211573.000,469122.300,516967.600,219665.700,239384.000,288674.200,257085.000,0.000
203297.400,211533.400,468332.900,516458.000,219643.700,239360.800,288642.500,257068.100,0.000
203315.200,211541.600,467591.400,515969.700,219640.200,239362.300,288620.100,257051.600,0.000
203389.300,211571.600,466885.500,515503.300,219650.900,239369.100,288602.900,257038.100,0.000
203412.700,211572.500,466164.300,515037.700,219656.200,239359.300,288585.200,257030.700,0.000
203346.700,211525.800,465401.200,514553.600,219642.000,239332.600,288563.300,257024.600,0.000
203291.200,211499.600,464638.200,514063.900,219627.300,239313.400,288542.200,257012.300,0.000
203327.500,211527.600,463931.600,513603.400,219639.100,239329.600,288536.500,257009.900,0.000
203394.000,211555.900,463240.900,513143.700,219641.100,239332.800,288513.500,256991.300,0.000
203407.100,211548.600,462528.800,512681.400,219632.300,239313.100,288484.200,256974.500,0.000
203352.800,211518.900,461795.200,512219.800,219627.000,239297.600,288471.100,256978.700,0.000
203272.200,211467.500,461033.700,511727.200,219598.800,239266.200,288435.300,256953.800,0.000
203290.700,211477.700,460326.300,511264.300,219595.300,239266.000,288413.400,256937.700,0.000
203379.600,211526.500,459669.000,510835.700,219617.400,239286.700,288409.100,256939.600,0.000
203415.500,211540.300,458994.600,510405.600,219629.700,239290.000,288401.700,256946.000,0.000
203354.300,211498.800,458265.800,509946.800,219613.900,239264.500,288377.700,256938.800,0.000
203283.500,211460.100,457530.900,509476.100,219591.700,239243.700,288350.800,256922.700,0.000
203290.800,211458.700,456836.000,509019.200,219581.100,239240.800,288323.500,256900.100,0.000
203370.300,211497.100,456192.200,508597.000,219599.100,239257.600,288313.300,256894.700,0.000
203400.500,211506.800,455531.700,508176.100,219608.000,239257.900,288301.500,256896.500,0.000
203333.700,211460.600,454812.300,507722.000,219586.800,239227.800,288272.100,256885.000,0.000
203272.900,211426.600,454095.900,507266.300,219568.900,239211.400,288249.300,256874.500,0.000
203289.200,211432.200,453419.100,506825.000,219561.900,239209.200,288225.800,256855.800,0.000
203362.700,211464.000,452780.500,506406.600,219572.100,239215.600,288207.300,256843.400,0.000
203393.800,211474.000,452134.800,505993.300,219582.300,239215.200,288195.400,256846.400,0.000
203329.700,211431.100,451435.100,505551.800,219562.300,239187.800,288166.600,256836.000,0.000
203264.800,211394.200,450732.300,505105.800,219540.700,239169.700,288139.100,256819.900,0.000
203282.200,211401.100,450074.900,504677.000,219537.600,239173.200,288116.900,256801.900,0.000
203356.800,211434.400,449455.900,504271.100,219548.600,239184.200,288098.900,256789.900,0.000
203383.400,211437.400,448821.800,503864.900,219553.500,239180.100,288078.000,256784.800,0.000
203319.300,211396.400,448142.500,503438.600,219539.300,239156.400,288051.900,256779.200,0.000
203251.000,211362.000,447458.000,503004.700,219520.400,239136.700,288029.400,256766.300,0.000
203266.600,211370.700,446815.200,502582.900,219512.600,239132.800,288008.400,256746.500,0.000
203338.600,211397.200,446212.700,502188.200,219523.400,239141.900,287995.600,256736.900,0.000
203368.900,211403.300,445594.400,501794.100,219526.700,239134.100,287977.500,256729.200,0.000
203307.500,211363.500,444929.600,501377.700,219512.800,239108.500,287954.800,256718.600,0.000
203249.700,211339.100,444268.500,500960.600,219503.200,239098.000,287939.500,256712.700,0.000
203264.500,211346.000,443638.600,500549.800,219497.500,239099.200,287916.200,256693.000,0.000
203341.300,211381.700,443049.700,500166.900,219509.500,239112.000,287901.600,256682.000,0.000
203376.300,211397.400,442450.300,499788.600,219520.700,239111.000,287891.500,256683.300,0.000
203312.000,211357.300,441800.400,499383.000,219508.500,239088.400,287870.900,256678.000,0.000
203238.700,211314.400,441139.900,498964.100,219488.200,239068.300,287844.200,256662.000,0.000
203269.200,211337.500,440538.000,498576.400,219494.600,239081.500,287833.100,256653.000,0.000
203344.600,211370.400,439963.800,498202.200,219504.600,239089.400,287816.400,256640.200,0.000
203375.500,211378.000,439376.800,497830.500,219514.100,239086.600,287802.300,256638.400,0.000
203315.400,211342.500,438741.300,497433.800,219498.400,239061.400,287778.600,256630.500,0.000
203248.100,211308.700,438103.400,497033.000,219484.400,239048.000,287760.000,256620.400,0.000
203277.000,211328.900,437516.600,496658.600,219494.900,239064.300,287755.400,256616.100,0.000
203345.100,211355.100,436946.100,496285.600,219496.300,239063.900,287729.600,256593.900,0.000
203372.500,211362.800,436372.400,495923.400,219504.200,239061.600,287714.900,256589.900,0.000
203322.200,211335.200,435761.100,495545.900,219498.800,239049.300,287701.100,256592.100,0.000
203243.000,211286.000,435120.600,495137.500,219467.700,239021.300,287665.900,256567.800,0.000
203254.300,211289.800,434533.800,494758.900,219462.500,239023.000,287645.400,256549.000,0.000
203335.200,211328.800,433991.300,494408.000,219478.000,239038.900,287634.300,256542.000,0.000
203355.800,211325.600,433421.700,494047.800,219478.900,239029.900,287613.400,256533.100,0.000
203297.200,211289.300,432814.700,493669.900,219464.800,239003.700,287587.500,256523.700,0.000
203237.200,211259.000,432205.200,493289.300,219452.800,238991.400,287569.300,256516.300,0.000
203254.700,211269.500,431636.300,492924.500,219454.500,239001.500,287555.700,256506.100,0.000
203327.200,211301.600,431104.100,492580.900,219467.900,239017.100,287544.500,256499.100,0.000
203355.600,211309.800,430556.100,492235.300,219475.700,239015.200,287531.400,256497.400,0.000
203302.600,211282.400,429968.800,491874.800,219469.900,239001.800,287516.600,256501.500,0.000
203235.100,211247.200,429366.400,491496.000,219450.300,238983.400,287492.600,256487.500,0.000
203241.500,211245.500,428800.800,491130.500,219439.900,238979.300,287467.600,256465.100,0.000
203313.500,211275.100,428273.900,490787.400,219442.400,238983.500,287446.400,256447.900,0.000
203347.300,211282.900,427738.700,490449.100,219447.300,238978.500,287430.600,256443.200,0.000
203282.700,211238.100,427154.000,490086.700,219428.300,238950.300,287405.400,256432.900,0.000
203215.000,211199.100,426560.600,489713.600,219403.800,238928.800,287377.200,256415.000,0.000
203236.700,211212.300,426017.400,489366.000,219404.600,238934.600,287359.800,256400.200,0.000
203305.500,211238.700,425502.800,489031.000,219411.500,238940.300,287338.500,256383.500,0.000
203329.500,211239.000,424970.500,488692.500,219408.800,238930.600,287314.100,256372.300,0.000
203294.900,211229.300,424424.600,488362.200,219415.500,238931.400,287315.100,256389.800,0.000
203220.200,211188.800,423846.100,487998.900,219394.500,238912.100,287291.200,256376.800,0.000
203213.800,211173.800,423291.900,487635.300,219372.500,238895.500,287253.400,256341.600,0.000
203298.100,211215.000,422801.300,487318.200,219387.800,238910.300,287242.500,256335.700,0.000
203344.500,211241.300,422302.800,487007.000,219402.600,238917.000,287236.500,256341.100,0.000
203272.000,211195.100,421735.500,486651.900,219377.100,238884.100,287202.800,256324.100,0.000
203206.500,211162.700,421173.700,486302.100,219365.200,238872.100,287183.400,256315.400,0.000
203219.100,211166.000,420651.000,485966.800,219367.300,238877.500,287166.400,256302.500,0.000
203294.500,211200.600,420167.300,485651.700,219376.900,238887.300,287151.200,256293.300,0.000
203332.800,211220.300,419674.500,485340.800,219384.700,238886.900,287138.500,256294.300,0.000
203271.000,211183.500,419128.400,485005.500,219370.000,238863.100,287116.700,256291.100,0.000
203202.900,211149.600,418578.300,484664.000,219354.500,238849.100,287097.400,256284.100,0.000
203222.400,211160.200,418075.000,484342.100,219356.200,238858.300,287084.800,256274.700,0.000
203301.100,211194.700,417604.700,484039.700,219369.300,238873.500,287071.500,256266.300,0.000
203326.800,211196.100,417113.700,483731.000,219371.200,238869.400,287051.900,256259.900,0.000
203255.200,211145.900,416568.200,483392.600,219346.000,238837.200,287020.700,256245.900,0.000
203193.100,211118.600,416032.100,483061.800,219332.600,238826.100,287004.300,256240.800,0.000
203210.900,211129.800,415535.200,482744.200,219332.200,238832.500,286990.300,256231.100,0.000
203276.600,211156.000,415063.900,482436.000,219332.800,238832.000,286967.400,256213.500,0.000
203314.700,211173.800,414596.000,482147.300,219343.800,238836.600,286961.800,256221.300,0.000
203251.500,211135.400,414074.300,481826.600,219329.300,238812.200,286941.000,256217.100,0.000
203175.300,211091.400,413539.500,481493.800,219311.100,238790.900,286916.500,256203.100,0.000
203190.400,211103.600,413049.300,481179.400,219309.000,238792.300,286897.700,256189.100,0.000
203276.400,211148.300,412609.100,480899.700,219329.500,238813.700,286893.300,256190.500,0.000
203317.000,211163.100,412151.900,480618.300,219343.100,238819.100,286888.400,256196.900,0.000
203248.400,211119.000,411630.900,480296.900,219320.800,238786.900,286859.200,256184.300,0.000
203174.600,211080.100,411107.400,479968.700,219298.500,238766.100,286834.100,256172.800,0.000
203189.300,211085.700,410628.500,479658.300,219294.000,238769.800,286814.800,256159.200,0.000
203270.800,211126.500,410193.100,479378.200,219309.000,238785.600,286803.100,256152.900,0.000
203298.200,211133.200,409735.100,479091.400,219312.500,238779.300,286785.500,256149.200,0.000
203235.700,211093.500,409229.900,478781.500,219297.100,238752.700,286763.000,256144.900,0.000
203165.600,211055.700,408715.000,478463.800,219278.100,238736.000,286741.500,256137.200,0.000
203180.000,211063.500,408244.600,478164.500,219276.800,238741.200,286726.300,256127.500,0.000
203256.900,211101.200,407818.000,477891.800,219290.900,238757.200,286720.200,256126.700,0.000
203290.600,211113.300,407375.800,477618.800,219300.600,238759.100,286711.800,256132.100,0.000
203228.200,211075.000,406878.800,477314.700,219285.000,238734.400,286687.900,256127.500,0.000
203157.300,211038.800,406374.600,477001.700,219267.400,238717.000,286664.900,256118.300,0.000
203171.200,211047.300,405914.000,476708.700,219266.300,238724.100,286649.800,256109.400,0.000
203249.300,211085.700,405495.500,476442.300,219281.600,238741.400,286640.900,256107.900,0.000
203282.200,211097.400,405063.700,476175.600,219291.700,238741.500,286632.000,256112.600,0.000
203222.800,211064.000,404585.900,475888.000,219283.400,238723.000,286619.200,256116.500,0.000
203147.700,211025.600,404091.900,475586.500,219265.300,238703.500,286600.400,256107.100,0.000
203158.900,211031.300,403638.000,475298.700,219260.100,238704.600,286582.700,256091.300,0.000
203232.100,211062.300,403224.200,475031.900,219267.000,238712.900,286568.700,256079.700,0.000
203264.800,211072.400,402802.100,474770.100,219273.900,238710.900,286556.900,256082.400,0.000
203216.400,211050.400,402341.900,474496.200,219273.800,238702.600,286551.500,256095.900,0.000
203144.100,211011.500,401857.800,474197.400,219255.700,238683.300,286529.800,256086.200,0.000
203147.600,211007.100,401408.100,473904.200,219242.100,238675.300,286505.400,256062.000,0.000
203233.000,211048.600,401014.500,473650.700,219260.200,238693.500,286501.400,256059.500,0.000
203259.900,211048.900,400597.700,473389.200,219264.500,238689.300,286488.000,256058.000,0.000
203197.500,211008.400,400134.200,473107.200,219249.500,238664.900,286468.700,256052.600,0.000
203132.200,210976.100,399662.700,472820.400,219236.900,238650.800,286452.200,256045.300,0.000
203152.900,210988.900,399236.300,472552.500,219241.000,238662.100,286441.500,256037.500,0.000
203226.500,211019.200,398840.300,472297.200,219249.400,238672.400,286426.700,256027.500,0.000
203259.300,211028.900,398433.400,472046.800,219257.200,238672.300,286416.400,256029.000,0.000
203196.000,210988.100,397975.600,471769.300,219241.100,238647.200,286394.600,256022.500,0.000
203131.100,210954.300,397517.500,471489.400,219232.300,238637.100,286382.500,256018.400,0.000
203148.100,210966.100,397098.900,471223.900,219234.700,238646.100,286371.600,256007.000,0.000
203230.200,211008.300,396719.700,470980.400,219250.400,238664.300,286364.200,256001.200,0.000
203254.600,211011.000,396315.600,470726.900,219249.000,238655.500,286344.700,255992.800,0.000
203198.600,210977.600,395876.100,470461.900,219238.700,238637.600,286330.300,255993.700,0.000
203141.800,210954.000,395432.800,470195.000,219236.300,238634.700,286325.200,255997.000,0.000
203146.000,210951.700,395009.000,469920.900,219225.600,238628.500,286302.500,255974.700,0.000
203224.000,210986.900,394635.600,469680.300,219238.400,238642.500,286295.900,255968.500,0.000
203261.000,210996.500,394250.600,469440.200,219247.600,238643.800,286287.500,255971.100,0.000
203202.000,210956.800,393811.400,469171.900,219231.600,238621.800,286265.000,255964.500,0.000
203139.500,210924.600,393367.500,468899.900,219217.800,238609.700,286250.000,255958.200,0.000
203162.100,210941.100,392968.500,468648.100,219220.500,238620.000,286241.000,255949.800,0.000
203243.500,210978.200,392605.800,468416.200,219232.500,238635.500,286233.900,255942.600,0.000
203283.600,210990.500,392233.600,468189.300,219245.000,238641.400,286231.000,255948.900,0.000
203236.500,210962.800,391817.400,467942.800,219245.200,238630.700,286224.800,255959.500,0.000
203185.100,210942.700,391393.700,467689.300,219243.300,238628.800,286222.300,255965.400,0.000
203198.700,210950.700,390992.700,467432.300,219237.800,238628.000,286204.600,255945.200,0.000
203266.200,210976.300,390625.600,467192.300,219241.000,238630.700,286186.400,255923.900,0.000
203310.500,210997.600,390262.700,466968.700,219256.900,238639.600,286183.300,255926.400,0.000
203266.000,210972.200,389853.600,466724.400,219256.000,238630.800,286175.100,255931.200,0.000
203207.900,210942.000,389431.400,466467.300,219246.900,238622.400,286165.700,255928.500,0.000
203224.500,210953.300,389047.200,466225.300,219250.400,238631.200,286157.900,255919.800,0.000
203302.700,210994.100,388701.900,466004.600,219266.900,238649.000,286153.100,255912.600,0.000
203334.500,211004.800,388335.600,465776.600,219270.100,238643.400,286140.900,255905.800,0.000
203270.600,210961.900,387922.400,465526.000,219252.600,238620.000,286120.500,255898.300,0.000
203199.800,210924.600,387501.800,465268.500,219236.300,238607.400,286102.900,255889.500,0.000
203223.500,210948.500,387132.100,465038.000,219244.000,238624.400,286101.300,255889.800,0.000
203296.800,210982.700,386791.200,464821.100,219258.200,238642.400,286096.000,255885.400,0.000
203324.600,210987.800,386434.600,464600.100,219266.100,238647.400,286087.300,255885.200,0.000
203268.100,210956.500,386036.400,464362.700,219255.900,238633.100,286074.900,255888.000,0.000
203185.600,210908.500,385616.700,464103.600,219229.000,238611.400,286050.000,255873.800,0.000
203194.300,210916.100,385241.500,463862.000,219220.600,238614.400,286032.300,255858.100,0.000
203271.900,210955.100,384913.800,463650.800,219238.200,238634.000,286028.000,255857.100,0.000
203308.300,210969.500,384572.200,463438.700,219250.000,238640.600,286024.100,255863.400,0.000
203236.700,210920.000,384169.600,463194.600,219230.500,238616.800,286003.000,255856.500,0.000
203162.200,210879.200,383759.300,462943.600,219210.600,238598.600,285983.800,255844.000,0.000
203189.500,210901.600,383408.500,462726.800,219223.800,238620.300,285987.800,255846.400,0.000
203275.100,210946.800,383092.600,462528.200,219246.200,238647.300,285993.600,255850.500,0.000
203308.300,210957.300,382755.800,462322.300,219256.500,238652.200,285989.300,255856.100,0.000
203244.900,210917.300,382366.700,462090.100,219244.200,238631.600,285972.800,255855.300,0.000
203172.800,210877.900,381965.700,461845.700,219226.300,238613.600,285955.500,255846.900,0.000
203198.500,210902.300,381621.600,461632.900,219239.000,238634.800,285960.100,255851.800,0.000
203284.400,210952.400,381314.000,461438.000,219260.900,238663.400,285966.300,255855.500,0.000
203298.500,210947.800,380965.100,461213.900,219250.200,238646.200,285940.600,255836.300,0.000
203232.800,210906.300,380583.300,460983.400,219236.700,238624.800,285921.400,255831.700,0.000
203171.300,210879.800,380201.200,460755.900,219231.800,238620.700,285914.800,255835.500,0.000
203198.500,210905.300,379864.900,460548.300,219243.400,238640.600,285918.100,255838.800,0.000
203265.500,210936.900,379547.900,460342.800,219251.000,238651.800,285905.500,255826.600,0.000
203279.500,210931.500,379205.900,460124.100,219240.600,238636.000,285880.400,255810.100,0.000
203225.800,210900.100,378838.800,459905.400,219231.600,238621.700,285870.700,255814.000,0.000
203162.600,210870.200,378464.000,459679.600,219222.000,238617.100,285862.700,255814.200,0.000
203167.900,210872.300,378119.500,459459.700,219219.800,238624.000,285852.100,255803.800,0.000
203242.100,210910.300,377812.800,459262.000,219231.200,238639.600,285844.800,255795.800,0.000
203278.500,210923.800,377497.500,459069.900,219240.600,238643.800,285840.300,255800.000,0.000
203225.500,210892.100,377135.200,458855.200,219232.500,238629.100,285831.500,255803.800,0.000
203158.100,210859.000,376759.600,458629.000,219218.800,238620.600,285821.500,255800.300,0.000
203171.800,210870.900,376428.100,458420.700,219222.200,238634.700,285818.100,255794.100,0.000
203248.600,210909.800,376137.300,458231.300,219240.000,238657.300,285815.700,255791.000,0.000
203283.400,210926.000,375829.100,458039.100,219249.500,238659.900,285806.700,255790.100,0.000
203222.300,210890.300,375469.200,457822.700,219236.100,238639.800,285789.600,255786.800,0.000
203153.100,210852.700,375099.600,457598.000,219218.200,238625.400,285775.000,255780.000,0.000
203171.800,210866.500,374776.500,457393.500,219220.100,238639.200,285772.200,255774.600,0.000
203246.500,210902.400,374485.300,457204.300,219232.400,238656.600,285766.700,255767.100,0.000
203276.000,210908.000,374175.400,457010.400,219235.600,238655.200,285755.600,255763.500,0.000
203228.700,210882.300,373830.500,456809.400,219230.300,238644.500,285748.100,255770.900,0.000
203157.300,210848.800,373465.200,456590.600,219212.600,238630.300,285731.800,255763.300,0.000
203162.000,210851.900,373137.400,456383.300,219206.800,238633.600,285717.500,255748.100,0.000
203226.000,210878.300,372843.300,456191.400,219209.500,238640.400,285700.100,255731.100,0.000
203262.000,210892.700,372547.900,456010.800,219218.800,238644.000,285693.200,255733.700,0.000
203218.800,210871.100,372217.000,455818.200,219219.000,238640.600,285692.700,255745.900,0.000
203126.900,210812.200,371840.000,455577.500,219180.700,238605.700,285656.300,255718.000,0.000
203129.600,210811.900,371512.400,455363.300,219168.300,238601.800,285634.000,255695.100,0.000
203204.400,210848.500,371236.100,455185.000,219181.800,238618.400,285628.800,255689.600,0.000
203237.800,210858.000,370951.000,455010.400,219193.200,238623.300,285626.900,255695.800,0.000
203182.500,210822.700,370615.500,454810.400,219181.100,238604.700,285614.300,255696.700,0.000
203121.100,210795.200,370273.600,454605.000,219173.500,238596.600,285607.400,255699.300,0.000
203135.200,210807.200,369965.000,454410.300,219176.100,238605.600,285600.300,255692.300,0.000
203208.600,210843.700,369691.200,454232.900,219188.200,238623.600,285591.400,255683.800,0.000
203240.800,210852.500,369405.300,454055.600,219194.100,238626.600,285580.000,255684.400,0.000
203184.400,210817.100,369073.000,453856.500,219180.600,238605.700,285562.000,255683.600,0.000
203110.600,210778.600,368724.600,453645.100,219162.100,238587.200,285542.400,255673.200,0.000
203115.300,210780.600,368413.400,453445.100,219156.400,238589.300,285524.300,255654.900,0.000
203193.600,210818.900,368149.300,453273.200,219171.800,238608.400,285518.600,255646.800,0.000
203235.000,210837.000,367875.400,453107.800,219187.500,238617.400,285516.600,255650.700,0.000
203188.500,210809.000,367556.500,452922.000,219183.700,238606.000,285508.100,255657.100,0.000
203120.400,210770.500,367216.400,452714.900,219164.400,238590.600,285490.800,255648.200,0.000
203114.100,210761.300,366899.300,452507.500,219145.500,238580.100,285461.400,255619.400,0.000
203188.000,210797.300,366639.000,452338.300,219157.500,238594.400,285454.400,255613.000,0.000
203222.900,210810.900,366370.500,452173.800,219170.000,238601.800,285450.900,255617.900,0.000
203165.700,210775.500,366050.300,451984.000,219159.900,238585.000,285434.100,255615.500,0.000
203098.500,210743.300,365715.700,451783.100,219145.500,238570.900,285418.300,255608.900,0.000
203119.300,210764.300,365430.800,451606.200,219152.100,238588.200,285419.400,255606.200,0.000
203191.500,210797.100,365172.300,451438.500,219160.400,238604.700,285411.800,255597.400,0.000
203217.000,210801.200,364897.000,451264.400,219159.400,238600.100,285396.100,255591.400,0.000
203142.100,210750.200,364569.400,451065.800,219138.100,238571.400,285371.800,255580.900,0.000
203078.200,210719.500,364245.100,450872.200,219126.500,238560.400,285362.200,255578.900,0.000
203096.300,210731.700,363961.400,450691.900,219127.400,238569.300,285357.000,255573.100,0.000
203170.900,210770.000,363709.800,450527.900,219137.800,238584.100,285349.100,255565.800,0.000
203201.200,210778.000,363443.800,450360.700,219142.100,238581.500,285334.000,255562.800,0.000
203138.800,210734.000,363125.000,450167.600,219122.600,238552.900,285309.500,255554.000,0.000
203075.700,210702.200,362806.200,449974.300,219108.600,238540.800,285296.600,255551.100,0.000
203088.100,210710.900,362525.300,449791.500,219108.100,238546.800,285285.100,255541.500,0.000
203162.100,210745.900,362280.200,449628.900,219119.800,238560.500,285273.900,255530.500,0.000
203205.000,210768.100,362028.400,449474.200,219133.100,238567.200,285265.800,255533.500,0.000
203148.600,210737.200,361723.500,449290.500,219120.300,238548.200,285247.300,255530.600,0.000
203078.200,210701.200,361403.100,449092.900,219100.200,238529.800,285227.000,255518.500,0.000
203095.700,210714.400,361127.300,448914.600,219098.800,238535.900,285216.500,255507.800,0.000
203171.600,210749.100,360887.200,448755.900,219110.700,238551.200,285207.900,255500.800,0.000
203204.100,210755.700,360634.000,448597.100,219117.400,238551.200,285197.200,255501.300,0.000
203136.300,210706.000,360322.800,448408.500,219094.800,238521.600,285169.300,255491.500,0.000
203078.800,210683.300,360019.400,448227.600,219084.400,238513.800,285162.300,255492.900,0.000
203082.200,210683.100,359740.300,448046.700,219076.600,238513.000,285146.700,255476.300,0.000
203156.900,210720.300,359503.300,447889.900,219084.900,238523.300,285134.600,255464.100,0.000
203198.900,210738.300,359263.500,447743.400,219099.700,238531.800,285131.900,255472.800,0.000
203131.300,210693.100,358959.800,447560.100,219083.700,238506.300,285107.800,255463.400,0.000
203062.800,210659.800,358651.500,447372.300,219067.800,238490.800,285088.300,255453.500,0.000
203077.400,210671.200,358383.400,447200.800,219067.300,238498.600,285077.300,255443.900,0.000
203145.200,210699.500,358148.900,447043.300,219074.500,238510.600,285064.300,255433.900,0.000
203182.500,210713.300,357914.400,446898.500,219086.700,238518.200,285059.200,255442.000,0.000
203138.800,210692.200,357635.000,446733.800,219080.600,238506.400,285048.700,255447.900,0.000
203064.100,210653.100,357330.300,446550.800,219061.800,238489.500,285030.800,255440.900,0.000
203075.400,210666.000,357068.100,446385.700,219064.900,238496.600,285022.300,255434.700,0.000
203151.100,210703.900,356840.400,446237.000,219078.000,238509.600,285014.200,255426.500,0.000
203184.200,210711.900,356600.100,446089.500,219083.000,238509.500,285003.300,255425.100,0.000
203125.900,210677.500,356313.000,445920.600,219068.200,238488.300,284985.000,255422.300,0.000
203054.100,210640.200,356011.300,445736.300,219047.600,238470.500,284964.700,255413.000,0.000
203065.300,210649.300,355752.500,445570.100,219046.000,238475.500,284954.400,255406.100,0.000
203137.800,210683.200,355533.700,445425.200,219057.100,238490.600,284948.600,255401.200,0.000
203184.400,210704.500,355309.000,445289.800,219070.800,238499.200,284948.600,255408.100,0.000
203140.400,210679.400,355039.400,445131.700,219070.200,238490.500,284943.900,255418.100,0.000
203059.900,210634.100,354737.000,444942.900,219046.000,238470.200,284920.800,255407.900,0.000
203070.100,210644.100,354481.300,444776.400,219044.000,238474.800,284908.400,255400.500,0.000
203152.200,210687.500,354273.800,444639.900,219064.800,238496.500,284908.400,255405.100,0.000
203187.400,210699.500,354048.100,444498.800,219075.100,238497.400,284901.100,255412.300,0.000
203124.900,210659.000,353763.600,444327.500,219056.100,238468.100,284877.400,255407.900,0.000
203048.500,210618.000,353474.800,444153.500,219038.700,238453.000,284863.400,255405.300,0.000
203058.500,210629.700,353229.000,443997.400,219040.900,238466.100,284859.100,255402.800,0.000
203135.200,210670.600,353021.300,443862.100,219055.500,238486.200,284857.400,255403.400,0.000
203170.600,210681.400,352799.600,443725.600,219064.800,238489.400,284853.400,255409.500,0.000
203117.800,210650.800,352532.400,443571.000,219057.700,238474.300,284845.500,255418.000,0.000
203036.600,210605.600,352240.600,443393.100,219032.200,238448.400,284823.700,255407.700,0.000
203042.400,210611.500,351989.800,443232.300,219025.200,238448.900,284812.300,255398.300,0.000
203121.600,210652.100,351788.300,443101.100,219043.000,238471.100,284815.200,255403.200,0.000
203162.100,210668.700,351571.200,442966.900,219049.600,238474.400,284813.400,255407.700,0.000
203114.000,210640.000,351310.700,442816.100,219042.100,238459.800,284806.000,255414.400,0.000
203041.100,210601.400,351027.200,442645.700,219022.600,238440.700,284791.100,255409.000,0.000
203048.500,210608.000,350785.300,442491.900,219020.400,238445.700,284785.600,255402.800,0.000
203126.200,210645.800,350590.600,442363.700,219038.400,238465.000,284787.900,255404.800,0.000
203161.500,210652.900,350376.800,442230.600,219046.000,238463.000,284781.400,255407.400,0.000
203116.400,210627.700,350120.700,442081.400,219039.400,238447.000,284772.400,255411.700,0.000
203046.700,210596.300,349848.000,441918.900,219026.000,238433.800,284761.900,255408.400,0.000
203056.800,210605.500,349613.500,441770.500,219025.600,238443.600,284757.300,255403.400,0.000
203125.300,210637.800,349411.300,441634.400,219034.300,238454.000,284747.600,255395.300,0.000
203157.100,210645.200,349196.800,441498.200,219038.000,238448.300,284736.100,255392.900,0.000
203103.100,210610.500,348941.500,441347.400,219030.200,238430.400,284727.100,255395.300,0.000
203030.700,210574.900,348668.100,441181.500,219013.000,238412.400,284711.000,255388.400,0.000
203036.500,210579.700,348435.000,441031.000,219011.400,238417.300,284699.600,255380.200,0.000
203116.000,210621.200,348248.200,440907.300,219029.700,238438.700,284698.900,255381.100,0.000
203157.100,210639.800,348046.300,440784.200,219041.400,238444.400,284697.800,255386.500,0.000
203101.200,210603.500,347791.600,440632.800,219028.000,238423.900,284682.600,255384.700,0.000
203029.900,210564.300,347526.400,440473.200,219013.500,238411.000,284670.800,255380.100,0.000
203038.300,210570.000,347296.700,440327.000,219011.800,238418.200,284662.800,255370.800,0.000
203113.300,210604.400,347106.200,440201.000,219021.100,238434.000,284657.900,255363.200,0.000
203151.300,210618.200,346907.100,440076.700,219029.400,238435.800,284654.300,255364.000,0.000
203105.100,210592.300,346666.100,439935.900,219025.500,238424.700,284650.100,255371.500,0.000
203040.800,210563.200,346410.100,439783.800,219017.500,238416.100,284646.500,255373.600,0.000
203049.900,210570.600,346189.500,439645.400,219022.100,238424.400,284645.400,255370.600,0.000
203124.700,210605.700,346009.000,439527.100,219037.500,238441.300,284647.800,255368.300,0.000
203171.500,210629.900,345822.800,439413.000,219052.400,238450.700,284652.300,255377.300,0.000
203118.000,210598.000,345581.100,439267.500,219042.200,238432.000,284642.400,255378.100,0.000
203045.000,210559.600,345320.100,439109.700,219025.200,238415.400,284630.300,255369.000,0.000
203060.600,210576.200,345110.700,438978.500,219035.400,238433.000,284635.300,255371.100,0.000
203128.900,210607.700,344925.800,438853.500,219042.100,238443.400,284629.000,255360.900,0.000
203164.200,210620.400,344732.900,438732.800,219049.700,238445.400,284625.700,255361.600,0.000
203109.500,210586.800,344491.400,438589.000,219040.000,238426.600,284614.400,255360.600,0.000
203034.400,210549.000,344236.600,438437.300,219028.900,238412.900,284607.800,255357.800,0.000
203039.300,210553.800,344019.700,438298.900,219031.600,238421.500,284606.400,255350.600,0.000
203118.700,210592.900,343847.600,438185.600,219048.600,238442.900,284610.200,255348.000,0.000
203174.700,210623.300,343677.800,438084.200,219074.300,238461.700,284623.100,255363.800,0.000
203125.400,210591.000,343443.800,437945.600,219065.800,238445.600,284613.900,255363.200,0.000
203048.300,210548.100,343186.100,437786.800,219043.900,238426.300,284598.600,255349.700,0.000
203063.200,210565.900,342983.800,437659.900,219052.800,238444.000,284607.800,255352.700,0.000
203131.700,210597.300,342805.900,437537.500,219060.800,238456.200,284601.900,255342.800,0.000
203164.500,210604.800,342617.200,437417.200,219067.100,238455.400,284593.300,255339.300,0.000
203121.600,210577.800,342394.200,437287.800,219065.300,238446.900,284592.400,255346.400,0.000
203055.100,210541.900,342149.600,437141.700,219051.400,238437.900,284585.700,255345.100,0.000
203060.800,210544.100,341937.100,437005.200,219049.500,238446.800,284580.300,255336.600,0.000
203141.900,210585.800,341773.000,436899.400,219069.300,238471.900,284586.700,255341.300,0.000
203188.700,210606.200,341599.300,436792.900,219086.400,238483.800,284593.300,255352.200,0.000
203142.000,210578.400,341380.600,436666.800,219084.100,238472.500,284592.600,255363.100,0.000
203066.900,210538.600,341139.500,436521.600,219070.500,238458.100,284582.700,255361.500,0.000
203071.900,210545.300,340933.500,436390.700,219072.600,238468.300,284581.000,255357.300,0.000
203148.000,210584.600,340772.100,436282.700,219092.600,238493.900,284589.000,255359.400,0.000
203173.500,210583.000,340588.800,436163.600,219095.700,238490.700,284584.000,255353.100,0.000
203127.200,210556.800,340368.400,436037.700,219091.200,238479.500,284585.000,255359.200,0.000
203061.500,210530.300,340137.100,435906.300,219086.600,238477.800,284592.600,255366.000,0.000
203062.800,210537.600,339938.000,435782.200,219093.200,238492.000,284598.200,255363.000,0.000
203145.500,210587.100,339785.000,435683.000,219119.400,238521.400,284609.400,255369.000,0.000
203193.200,210614.600,339620.800,435584.700,219139.000,238537.700,284619.800,255382.600,0.000
203146.300,210588.800,339407.500,435461.300,219135.700,238530.900,284622.400,255393.900,0.000
203075.700,210555.300,339176.900,435324.700,219124.800,238523.200,284622.600,255397.600,0.000
203093.200,210575.200,338994.900,435211.600,219139.400,238547.800,284637.400,255406.500,0.000
203167.200,210612.000,338838.300,435105.300,219156.800,238570.400,284643.100,255405.800,0.000
203205.700,210627.000,338668.300,434997.300,219166.700,238577.500,284645.500,255409.900,0.000
203158.400,210599.800,338458.100,434876.800,219165.100,238569.700,284648.800,255419.900,0.000
203095.800,210575.200,338239.400,434751.800,219162.400,238570.700,284660.200,255429.900,0.000
203096.300,210580.100,338050.800,434633.600,219169.100,238589.600,284671.800,255434.500,0.000
203180.400,210628.000,337905.900,434540.100,219195.900,238623.400,284691.700,255445.800,0.000
203227.500,210651.300,337748.500,434445.000,219214.600,238640.500,284705.400,255458.800,0.000
203167.600,210613.600,337531.800,434315.500,219202.400,238622.900,284698.200,255457.900,0.000
203095.400,210576.500,337309.100,434183.500,219194.300,238618.200,284703.400,255463.700,0.000
203095.700,210577.500,337120.500,434062.000,219198.100,238631.600,284710.600,255462.000,0.000
203175.900,210623.700,336974.900,433962.300,219216.900,238656.700,284720.700,255464.800,0.000
203212.000,210635.900,336812.100,433858.000,219225.600,238663.300,284722.200,255467.800,0.000
203162.200,210603.300,336607.000,433738.700,219218.400,238654.000,284720.800,255473.800,0.000
203096.400,210575.800,336387.300,433608.300,219211.000,238652.100,284723.000,255476.500,0.000
203103.600,210585.200,336199.400,433489.200,219213.900,238665.300,284728.300,255474.400,0.000
203172.700,210615.700,336050.200,433387.600,219227.200,238685.900,284734.700,255472.300,0.000
203223.000,210640.200,335905.200,433299.400,219247.000,238705.500,284748.400,255487.700,0.000
203180.400,210617.500,335705.000,433183.800,219242.200,238696.700,284748.900,255496.000,0.000
203097.500,210571.100,335474.000,433045.400,219220.400,238680.000,284739.800,255488.900,0.000
203095.200,210573.700,335285.400,432922.700,219219.400,238690.600,284740.100,255483.500,0.000
203177.000,210620.900,335149.400,432832.100,219243.800,238721.900,284755.300,255489.600,0.000
203227.200,210645.000,334999.800,432740.100,219257.600,238735.600,284764.400,255497.600,0.000
203175.100,210612.300,334798.800,432622.200,219250.400,238724.800,284762.500,255503.300,0.000
203103.900,210578.300,334585.600,432496.000,219241.700,238721.100,284765.100,255506.500,0.000
203104.400,210582.900,334397.600,432369.800,219234.700,238725.400,284758.900,255494.600,0.000
203173.900,210614.500,334255.900,432270.900,219248.400,238746.200,284763.200,255491.200,0.000
203208.800,210625.600,334099.400,432167.800,219252.600,238749.200,284759.000,255489.100,0.000
203168.400,210605.000,333912.200,432062.300,219254.400,238745.900,284764.900,255502.200,0.000
203111.600,210585.200,333709.900,431947.100,219253.000,238747.600,284775.500,255512.000,0.000
203111.000,210588.600,333527.900,431826.000,219249.000,238754.700,284773.500,255503.500,0.000
203180.900,210623.200,333387.100,431728.300,219262.800,238775.700,284776.300,255498.700,0.000
203222.300,210641.000,333242.900,431638.500,219277.200,238790.000,284784.200,255506.900,0.000
203175.000,210613.700,333052.700,431527.300,219273.200,238782.700,284784.500,255515.200,0.000
203105.200,210579.300,332845.300,431404.900,219265.300,238777.800,284784.400,255519.500,0.000
203112.000,210588.200,332669.300,431289.500,219264.700,238790.600,284786.100,255515.800,0.000
203179.600,210618.100,332526.400,431187.600,219271.600,238805.900,284785.400,255506.100,0.000
203213.700,210626.800,332374.400,431087.000,219275.300,238808.200,284780.700,255500.800,0.000
203164.100,210597.800,332183.300,430973.800,219268.100,238795.000,284777.000,255505.000,0.000
203094.800,210567.000,331977.900,430852.900,219258.800,238789.100,284775.900,255507.800,0.000
203091.300,210567.200,331803.400,430740.500,219257.800,238799.900,284775.500,255504.500,0.000
203173.300,210612.400,331675.800,430652.800,219275.700,238821.600,284783.300,255505.200,0.000
203227.300,210641.300,331543.300,430572.300,219297.700,238840.000,284798.000,255520.200,0.000
203181.300,210614.300,331359.200,430466.300,219293.500,238832.700,284800.900,255529.100,0.000
203118.600,210587.400,331164.600,430354.100,219289.900,238833.400,284810.200,255539.500,0.000
203129.400,210602.000,331004.000,430252.500,219301.100,238854.200,284822.700,255545.600,0.000
203192.800,210628.500,330866.600,430153.500,219308.100,238872.500,284823.300,255539.300,0.000
203228.200,210640.000,330720.000,430058.200,219310.500,238875.400,284821.100,255537.800,0.000
203178.400,210611.400,330532.900,429949.000,219301.700,238862.500,284820.500,255542.000,0.000
203101.500,210570.700,330325.200,429823.700,219285.000,238848.200,284815.700,255535.400,0.000
203105.700,210576.700,330160.800,429716.800,219289.500,238861.800,284822.800,255532.500,0.000
203184.800,210621.900,330041.700,429636.300,219313.500,238892.700,284838.700,255538.200,0.000
203232.500,210645.400,329914.300,429556.700,219333.800,238909.800,284852.200,255552.200,0.000
203183.300,210614.800,329730.800,429449.300,219327.000,238895.700,284851.800,255559.100,0.000
203117.100,210585.700,329534.300,429333.800,219317.400,238891.400,284858.300,255565.300,0.000
203121.800,210596.600,329372.600,429231.100,219322.800,238908.400,284869.500,255568.100,0.000
203193.200,210633.300,329248.700,429145.100,219339.000,238932.500,284879.800,255569.600,0.000
203235.100,210649.000,329120.000,429062.900,219354.300,238946.100,284889.400,255580.900,0.000
203188.900,210621.800,328942.700,428958.100,219349.300,238938.000,284890.200,255589.600,0.000
203125.800,210597.100,328754.500,428848.800,219345.500,238938.800,284899.600,255601.500,0.000
203121.100,210598.500,328588.500,428739.800,219341.300,238946.500,284902.600,255594.700,0.000
203188.500,210630.600,328462.200,428651.600,219351.700,238962.200,284905.700,255588.700,0.000
203231.300,210645.800,328330.800,428566.500,219361.500,238968.200,284908.900,255592.800,0.000
203188.100,210617.900,328157.300,428465.900,219357.600,238959.800,284909.900,255600.800,0.000
203105.900,210568.500,327951.200,428336.900,219333.500,238939.400,284895.700,255589.400,0.000
203096.300,210559.500,327776.000,428217.700,219318.800,238935.900,284881.800,255570.100,0.000
203175.000,210602.400,327659.500,428136.400,219336.300,238960.100,284889.100,255570.300,0.000
203219.500,210622.100,327533.400,428052.500,219348.000,238968.800,284891.200,255575.800,0.000
203176.400,210595.100,327362.200,427950.400,219344.800,238958.500,284890.300,255582.500,0.000
203097.000,210553.700,327163.500,427826.000,219324.700,238939.000,284878.600,255574.200,0.000
203094.800,210558.100,327001.200,427717.100,219319.400,238943.200,284873.500,255565.100,0.000
203164.800,210593.900,326885.000,427631.700,219333.800,238963.600,284877.800,255564.200,0.000
203207.900,210611.400,326759.500,427549.400,219341.600,238970.800,284881.000,255569.100,0.000
203158.500,210579.000,326584.300,427444.600,219330.300,238955.300,284873.400,255570.500,0.000
203081.200,210538.700,326389.900,427325.100,219313.500,238941.300,284864.200,255566.100,0.000
203078.600,210540.700,326226.800,427216.900,219307.300,238945.900,284858.300,255556.400,0.000
203150.900,210578.500,326109.400,427132.200,219317.400,238964.600,284857.500,255550.900,0.000
203204.500,210607.400,325994.500,427059.300,219334.700,238979.600,284862.300,255560.200,0.000
203153.600,210574.300,325819.900,426952.800,219320.100,238960.400,284847.300,255556.000,0.000
203055.600,210513.500,325604.400,426809.300,219275.300,238920.400,284810.200,255524.800,0.000
203052.800,210516.300,325445.100,426701.200,219268.700,238924.600,284800.500,255513.200,0.000
203134.700,210564.300,325338.800,426626.300,219288.400,238949.600,284803.800,255513.200,0.000
203168.300,210573.800,325209.300,426538.400,219289.900,238944.000,284790.200,255504.800,0.000
203118.500,210540.700,325040.600,426436.900,219278.800,238925.600,284775.900,255503.200,0.000
203049.900,210508.800,324855.000,426324.100,219262.800,238914.000,284763.100,255500.400,0.000
203040.400,210501.900,324688.500,426209.500,219246.700,238907.900,284740.900,255481.300,0.000
203105.600,210532.300,324571.100,426124.800,219251.500,238919.500,284731.600,255471.200,0.000
203155.500,210558.000,324455.500,426050.700,219260.300,238925.000,284727.500,255473.800,0.000
203106.100,210527.300,324287.100,425949.400,219245.200,238902.900,284711.300,255470.100,0.000
203020.500,210476.500,324089.900,425823.900,219216.300,238874.800,284684.900,255453.500,0.000
203017.200,210472.500,323934.800,425718.800,219210.400,238878.000,284673.400,255444.100,0.000
203083.600,210499.500,323817.400,425630.700,219215.500,238888.100,284663.000,255432.700,0.000
203131.300,210519.600,323698.700,425549.900,219220.900,238888.600,284654.500,255431.900,0.000
203087.500,210488.500,323531.700,425446.600,219204.900,238863.800,284634.200,255429.600,0.000
203013.400,210450.000,323345.500,425330.800,219180.700,238839.400,284614.200,255421.300,0.000
203011.400,210451.300,323193.000,425226.000,219171.600,238838.600,284599.500,255409.900,0.000
203079.900,210480.300,323080.900,425140.400,219175.700,238847.800,284588.600,255398.900,0.000
203130.700,210499.700,322968.700,425064.200,219185.400,238852.300,284582.300,255401.900,0.000
203090.700,210474.100,322805.100,424960.900,219171.000,238830.500,284562.800,255399.200,0.000
203015.800,210433.500,322619.900,424846.000,219152.000,238809.100,284543.800,255395.000,0.000
203002.800,210425.300,322458.300,424730.600,219134.100,238796.500,284516.500,255374.800,0.000
203073.500,210461.400,322348.900,424649.200,219143.200,238808.400,284506.700,255368.200,0.000
203112.900,210473.500,322227.700,424568.100,219147.300,238806.400,284492.800,255366.200,0.000
203073.100,210451.300,322070.900,424480.800,219147.400,238796.100,284486.800,255376.800,0.000
203002.500,210417.000,321891.300,424374.200,219135.700,238781.400,284476.800,255378.500,0.000
202990.500,210410.500,321733.700,424268.100,219121.400,238775.900,284458.900,255364.900,0.000
203074.500,210459.400,321642.500,424206.700,219146.300,238805.600,284469.700,255376.600,0.000
203134.800,210492.800,321546.000,424149.100,219168.300,238821.600,284480.400,255393.600,0.000
203057.400,210430.200,321357.100,424023.000,219127.300,238769.700,284438.500,255365.400,0.000
202970.900,210375.300,321170.900,423903.900,219100.100,238743.700,284418.200,255354.800,0.000
202966.200,210373.100,321024.200,423803.800,219093.700,238744.600,284406.400,255345.800,0.000
203043.500,210413.300,320924.200,423731.200,219108.500,238762.200,284404.900,255345.500,0.000
203090.400,210434.800,320813.100,423655.700,219114.100,238763.000,284397.600,255346.000,0.000
203049.000,210409.400,320662.500,423566.600,219106.100,238746.700,284389.900,255351.100,0.000
202982.100,210378.100,320492.300,423463.900,219092.200,238735.700,284382.900,255353.200,0.000
202979.200,210378.900,320346.800,423363.400,219082.600,238739.700,284369.800,255342.800,0.000
203055.600,210416.800,320250.800,423292.900,219097.000,238763.600,284369.000,255342.200,0.000
203095.300,210427.500,320133.200,423210.400,219095.500,238759.600,284352.200,255332.400,0.000
203043.900,210391.100,319966.200,423102.800,219072.500,238729.300,284323.700,255320.800,0.000
202970.100,210350.800,319785.400,422989.700,219051.000,238707.300,284301.500,255310.500,0.000
202963.100,210346.300,319638.100,422887.800,219042.000,238703.600,284285.100,255294.800,0.000
203032.900,210379.500,319539.300,422811.300,219053.500,238716.900,284276.600,255289.200,0.000
203093.100,210408.700,319450.700,422753.800,219076.900,238734.500,284280.400,255304.400,0.000
203043.800,210372.000,319295.300,422658.200,219060.600,238711.400,284260.200,255301.000,0.000
202958.400,210320.900,319108.000,422536.500,219025.500,238673.200,284225.900,255279.200,0.000
202957.100,210322.100,318970.500,422443.800,219021.700,238676.000,284214.300,255271.500,0.000
203039.900,210370.000,318886.000,422382.800,219045.300,238705.300,284218.500,255277.600,0.000
203085.700,210388.000,318780.300,422313.300,219053.100,238707.200,284208.800,255277.300,0.000
203040.000,210358.200,318629.200,422222.000,219043.000,238687.900,284191.800,255275.100,0.000
202954.100,210304.400,318450.100,422106.800,219016.700,238660.600,284165.200,255260.400,0.000
202948.900,210302.600,318306.800,422005.300,219005.900,238655.900,284144.400,255243.400,0.000
203031.900,210351.000,318223.400,421943.800,219026.200,238680.500,284145.300,255245.100,0.000
203072.000,210360.900,318111.800,421865.200,219023.200,238672.700,284124.600,255234.000,0.000
203024.400,210328.900,317959.300,421769.300,219006.300,238645.500,284101.100,255227.600,0.000
202954.400,210293.500,317794.900,421666.800,218989.600,238626.700,284084.900,255222.200,0.000
202944.500,210287.500,317652.500,421567.700,218977.500,238620.400,284062.300,255203.600,0.000
203020.300,210328.600,317561.800,421499.600,218990.400,238636.100,284052.800,255196.500,0.000
203066.500,210350.100,317463.000,421429.200,218998.000,238638.400,284035.300,255191.100,0.000
203017.200,210316.800,317310.700,421331.400,218978.000,238613.200,284002.600,255177.000,0.000
202947.700,210281.300,317144.800,421227.000,218959.800,238595.000,283978.200,255166.300,0.000
202931.200,210271.900,316995.000,421119.300,218942.800,238583.500,283942.600,255137.900,0.000
203001.100,210308.500,316903.800,421050.200,218954.100,238601.100,283927.300,255127.400,0.000
203056.800,210334.600,316815.700,420992.700,218971.100,238611.600,283920.700,255131.700,0.000
203023.200,210313.700,316674.400,420910.500,218967.800,238596.100,283903.600,255131.000,0.000
202934.700,210262.300,316493.500,420795.500,218940.100,238565.200,283868.700,255108.400,0.000
202932.500,210261.600,316362.100,420704.200,218932.900,238568.000,283851.900,255094.900,0.000
203004.600,210292.300,316270.700,420629.600,218933.500,238577.300,283834.100,255077.000,0.000
203040.400,210300.700,316167.100,420553.100,218927.800,238570.500,283810.600,255060.500,0.000
203000.800,210274.000,316031.300,420469.800,218921.000,238554.900,283789.300,255058.600,0.000
202939.200,210246.400,315876.800,420376.900,218910.900,238543.800,283770.800,255055.900,0.000
202927.800,210236.900,315733.900,420274.400,218892.000,238535.000,283737.900,255027.900,0.000
202989.000,210264.500,315635.500,420193.500,218892.000,238540.400,283711.100,255004.800,0.000
203034.400,210283.800,315540.100,420125.800,218899.900,238541.000,283692.900,255000.100,0.000
202995.800,210257.100,315404.900,420044.400,218893.300,238526.500,283672.500,255000.200,0.000
202911.000,210204.100,315236.200,419932.300,218858.000,238496.600,283635.500,254976.700,0.000
202907.200,210202.200,315111.100,419834.200,218841.700,238492.600,283606.800,254956.800,0.000
202991.200,210248.400,315034.900,419772.300,218859.000,238514.000,283597.700,254955.000,0.000
203061.500,210289.500,314964.500,419727.000,218886.700,238536.800,283598.000,254971.700,0.000
203015.200,210259.700,314821.600,419636.200,218870.000,238514.800,283568.200,254963.100,0.000
202916.000,210197.000,314635.100,419507.500,218824.700,238470.400,283517.100,254928.000,0.000
202882.200,210171.400,314474.500,419385.400,218789.900,238438.700,283467.600,254886.200,0.000
202953.800,210213.500,314391.900,419320.600,218806.600,238454.800,283458.800,254881.200,0.000
203014.900,210251.800,314317.900,419274.800,218830.600,238473.100,283460.300,254894.200,0.000
202963.500,210212.900,314167.700,419176.100,218804.300,238437.400,283417.200,254870.700,0.000
202882.100,210166.100,313998.500,419063.800,218770.800,238404.300,283374.900,254845.900,0.000
202905.200,210198.600,313899.800,419003.200,218788.200,238431.000,283379.500,254860.700,0.000
202959.900,210224.300,313800.800,418922.100,218781.200,238428.600,283349.300,254836.700,0.000
202989.400,210226.500,313692.900,418838.600,218770.000,238409.100,283309.700,254812.500,0.000
202945.300,210193.800,313553.700,418750.700,218755.500,238384.400,283277.900,254803.100,0.000
202867.800,210154.700,313389.000,418645.600,218728.400,238355.600,283241.700,254788.400,0.000
202865.500,210159.100,313263.400,418558.400,218720.000,238352.200,283218.300,254774.800,0.000
202940.800,210198.200,313185.300,418495.800,218731.400,238367.800,283205.200,254768.000,0.000
202971.200,210199.400,313081.200,418415.800,218720.400,238351.000,283169.600,254747.000,0.000
202931.800,210175.100,312946.300,418332.100,218707.300,238328.900,283143.400,254740.300,0.000
202860.400,210137.300,312793.300,418235.900,218689.500,238308.000,283120.500,254733.300,0.000
202855.500,210135.900,312669.300,418145.100,218678.200,238301.300,283097.400,254716.700,0.000
202921.500,210165.200,312585.200,418073.800,218681.200,238307.900,283079.000,254701.900,0.000
202967.400,210180.900,312493.000,418003.900,218678.700,238300.400,283053.400,254689.600,0.000
202940.300,210170.300,312371.500,417931.600,218673.700,238287.000,283036.800,254690.900,0.000
202852.200,210121.000,312205.900,417822.200,218640.300,238253.200,282999.300,254668.200,0.000
202832.200,210104.400,312068.200,417719.300,218618.700,238238.700,282964.300,254639.900,0.000
202893.000,210126.800,311982.100,417648.400,218623.200,238244.000,282942.800,254623.100,0.000
202953.700,210155.000,311905.800,417593.600,218637.200,238247.300,282933.300,254622.900,0.000
202912.700,210124.200,311769.800,417500.900,218616.300,238214.000,282901.700,254606.000,0.000
202841.900,210088.600,311619.200,417405.600,218597.200,238192.700,282879.600,254597.900,0.000
202829.100,210080.900,311488.500,417312.500,218580.900,238181.500,282850.200,254573.700,0.000
202904.600,210118.300,311415.500,417252.200,218596.300,238196.800,282838.800,254566.300,0.000
202944.300,210131.800,311320.700,417174.800,218587.600,238179.800,282806.000,254546.600,0.000
202898.800,210103.500,311188.300,417088.400,218571.700,238152.100,282776.900,254537.600,0.000
202830.800,210071.500,311043.400,417000.100,218558.300,238134.300,282757.100,254534.000,0.000
202825.600,210071.500,310929.200,416920.900,218554.600,238134.500,282741.000,254524.200,0.000
202893.600,210102.900,310852.900,416856.600,218561.700,238142.700,282723.800,254510.800,0.000
202938.600,210117.300,310763.400,416784.300,218557.000,238130.500,282695.400,254494.800,0.000
202894.100,210085.300,310631.000,416696.200,218537.200,238101.000,282660.300,254481.400,0.000
202807.800,210031.800,310468.400,416588.900,218505.100,238065.500,282621.600,254458.200,0.000
202809.400,210039.100,310355.200,416508.900,218501.600,238067.900,282606.700,254447.400,0.000
202885.800,210081.700,310287.700,416452.300,218516.800,238085.700,282597.200,254440.700,0.000
202934.000,210099.500,310211.400,416397.700,218528.300,238088.100,282584.200,254439.000,0.000
202899.800,210076.900,310087.000,416320.800,218518.300,238065.600,282563.600,254435.500,0.000
202821.800,210029.800,309932.600,416219.700,218491.400,238035.500,282533.800,254419.300,0.000
202820.400,210032.600,309816.700,416135.700,218482.800,238032.000,282513.500,254405.200,0.000
202885.500,210061.400,309736.100,416064.400,218482.600,238033.200,282491.300,254387.800,0.000
202931.400,210074.000,309651.500,415996.300,218481.600,238023.900,282465.100,254373.100,0.000
202899.000,210051.900,309533.800,415922.500,218476.300,238006.700,282447.500,254373.400,0.000
202824.800,210016.200,309387.700,415829.300,218456.000,237981.300,282424.100,254362.400,0.000
202795.000,209991.600,309249.200,415722.900,218423.100,237951.500,282380.900,254324.700,0.000
202883.800,210040.800,309195.500,415678.600,218448.700,237978.500,282383.100,254330.900,0.000
202948.100,210073.200,309131.400,415629.300,218464.900,237986.900,282375.500,254335.600,0.000
202900.100,210040.300,309004.300,415547.000,218446.700,237957.400,282348.200,254328.700,0.000
202807.500,209979.500,308841.800,415436.100,218405.400,237913.100,282306.800,254303.900,0.000
202817.100,209994.100,308736.800,415359.300,218401.100,237915.400,282296.100,254295.800,0.000
202897.900,210039.400,308676.800,415304.500,218416.700,237935.800,282290.600,254291.300,0.000
202936.300,210049.900,308594.500,415236.000,218415.600,237926.100,282264.000,254277.800,0.000
202896.900,210022.900,308472.700,415156.200,218401.900,237900.900,282238.900,254271.000,0.000
202812.800,209973.700,308318.500,415050.500,218367.000,237864.200,282202.500,254249.200,0.000
202814.400,209980.900,308215.000,414973.700,218363.600,237869.100,282189.700,254242.600,0.000
202889.800,210021.100,308153.900,414913.900,218373.300,237884.200,282178.200,254236.200,0.000
202944.400,210049.500,308087.300,414858.200,218381.100,237885.000,282161.600,254234.400,0.000
202896.700,210016.600,307960.700,414774.300,218359.500,237852.600,282128.500,254222.400,0.000
202812.200,209969.300,307808.200,414671.600,218327.000,237819.300,282092.800,254203.300,0.000
202800.500,209963.700,307694.400,414583.900,218311.600,237809.500,282067.800,254184.900,0.000
202861.900,209986.500,307620.600,414518.400,218310.800,237809.300,282046.300,254166.900,0.000
202917.700,210011.400,307558.700,414473.100,218324.600,237814.500,282038.300,254170.900,0.000
202895.700,210003.900,307459.300,414414.400,218326.600,237804.700,282029.900,254179.400,0.000
202820.200,209962.500,307315.600,414321.900,218301.000,237774.700,281999.700,254165.700,0.000
202804.200,209955.500,307198.200,414237.600,218285.600,237764.100,281973.300,254147.800,0.000
202888.400,210007.400,307148.500,414195.800,218309.600,237790.200,281975.300,254153.900,0.000
202941.600,210031.000,307080.100,414144.800,218318.800,237791.400,281961.100,254152.100,0.000
202899.000,210001.000,306962.200,414069.900,218306.700,237764.700,281936.700,254147.300,0.000
202828.000,209966.700,306827.900,413986.400,218293.800,237744.700,281918.600,254145.500,0.000
202810.400,209958.300,306708.500,413895.800,218276.400,237725.700,281890.700,254121.400,0.000
202865.600,209981.500,306631.000,413827.600,218276.500,237722.300,281867.500,254099.000,0.000
202923.900,210010.800,306570.100,413784.700,218293.900,237727.600,281860.000,254100.800,0.000
202900.600,210000.300,306471.600,413731.200,218299.700,237719.000,281854.500,254112.400,0.000
202802.700,209939.500,306313.500,413622.300,218259.100,237672.700,281810.900,254082.200,0.000
202786.700,209929.700,306203.100,413541.300,218247.600,237662.000,281789.300,254067.300,0.000
202882.500,209995.900,306166.100,413512.500,218282.300,237695.500,281802.600,254085.100,0.000
202938.900,210025.600,306112.100,413474.800,218303.000,237704.900,281800.200,254094.500,0.000
202888.000,209987.100,305991.200,413397.000,218286.100,237672.900,281772.100,254084.000,0.000
202827.700,209964.200,305868.500,413326.300,218283.900,237664.400,281766.700,254092.300,0.000
202827.700,209971.900,305772.700,413262.100,218292.000,237672.900,281761.100,254093.800,0.000
202889.300,210002.100,305703.200,413202.100,218295.800,237678.800,281745.900,254081.000,0.000
202924.700,210012.600,305628.000,413144.600,218293.800,237670.900,281726.000,254069.800,0.000
202902.800,210001.700,305535.600,413093.800,218299.000,237668.200,281726.200,254086.500,0.000
202832.100,209965.200,305404.700,413010.500,218283.500,237648.100,281710.200,254081.900,0.000
202833.200,209977.700,305313.400,412949.200,218290.500,237662.400,281711.200,254086.200,0.000
202909.500,210024.600,305265.200,412907.700,218314.200,237688.900,281716.800,254091.400,0.000
202922.400,210007.400,305165.300,412821.000,218286.900,237657.800,281672.000,254052.800,0.000
202896.500,209993.200,305068.500,412765.500,218288.100,237653.500,281671.200,254065.200,0.000
202845.200,209981.100,304963.700,412710.500,218295.900,237662.800,281685.800,254088.500,0.000
202827.000,209970.500,304856.000,412632.800,218287.000,237658.500,281673.500,254073.900,0.000
202899.100,210006.400,304801.900,412588.000,218305.800,237680.100,281677.400,254072.800,0.000
202960.100,210041.200,304752.300,412555.300,218328.000,237698.100,281686.500,254085.100,0.000
202904.400,209995.300,304626.800,412466.700,218299.500,237657.900,281653.200,254063.400,0.000
202811.700,209935.000,304474.500,412366.900,218265.600,237618.500,281620.200,254040.000,0.000
202808.500,209938.200,304379.500,412305.400,218273.500,237628.600,281619.600,254042.300,0.000
202927.300,210024.700,304372.100,412306.400,218335.500,237693.900,281666.900,254087.600,0.000
202992.600,210062.600,304331.200,412280.900,218363.700,237719.800,281681.100,254107.400,0.000
202919.600,210000.500,304193.500,412185.200,218322.500,237671.300,281636.500,254075.800,0.000
202842.900,209958.700,304058.000,412096.400,218296.800,237644.100,281616.500,254062.800,0.000
202853.900,209978.200,303980.100,412046.900,218311.600,237667.100,281633.500,254075.700,0.000
202938.700,210032.000,303942.700,412016.500,218342.000,237700.500,281653.600,254087.000,0.000
203000.300,210069.200,303901.600,411989.300,218371.900,237723.400,281671.600,254103.500,0.000
202974.500,210058.900,303813.700,411941.700,218381.700,237723.200,281682.000,254120.400,0.000
202886.100,210004.400,303672.300,411853.300,218359.400,237695.400,281664.700,254107.300,0.000
202866.000,209994.500,303561.600,411772.600,218349.700,237689.400,281650.900,254089.000,0.000
202929.200,210027.600,303502.300,411720.800,218360.500,237707.000,281650.900,254079.500,0.000
202995.500,210068.000,303465.300,411699.700,218392.000,237737.700,281673.500,254102.100,0.000
202993.700,210083.500,303403.200,411680.600,218425.600,237766.300,281710.000,254145.500,0.000
202919.500,210047.500,303281.300,411608.300,218416.600,237754.900,281708.300,254149.500,0.000
202901.200,210035.100,303181.000,411536.700,218409.500,237756.700,281704.500,254140.700,0.000
202958.000,210054.900,303113.100,411471.300,218406.100,237759.100,281689.900,254119.000,0.000
203023.400,210093.200,303075.000,411444.500,218435.800,237787.100,281708.100,254135.700,0.000
202985.700,210066.700,302976.700,411384.300,218430.400,237775.500,281702.900,254139.100,0.000
202930.700,210047.200,302874.100,411330.100,218437.400,237782.500,281718.700,254161.500,0.000
202919.100,210051.300,302786.300,411271.600,218443.300,237799.500,281729.300,254167.900,0.000
202976.900,210078.900,302727.900,411221.100,218450.200,237814.800,281729.300,254161.700,0.000
203041.700,210110.800,302687.100,411194.100,218474.300,237837.900,281747.600,254179.000,0.000
203010.700,210091.800,302597.300,411144.500,218478.100,237836.300,281756.100,254194.200,0.000
202922.000,210042.800,302460.800,411055.700,218451.800,237809.500,281740.300,254181.700,0.000
202922.500,210052.600,302382.200,411007.100,218466.500,237832.000,281758.700,254195.800,0.000
202990.200,210089.100,302334.800,410966.000,218482.300,237854.500,281768.600,254197.900,0.000
203038.600,210108.500,302286.000,410929.300,218497.300,237868.000,281774.600,254205.900,0.000
203022.200,210105.000,302211.600,410891.100,218513.600,237876.900,281792.800,254234.400,0.000
202938.100,210056.900,302084.500,410812.100,218498.000,237858.400,281787.100,254236.900,0.000
202924.600,210056.400,301992.000,410748.300,218499.700,237869.200,281794.100,254241.200,0.000
202986.100,210088.200,301942.300,410705.600,218514.200,237891.500,281804.000,254246.000,0.000
203043.800,210114.400,301896.900,410673.300,218533.200,237908.200,281815.500,254262.100,0.000
203026.000,210115.100,301828.200,410645.400,218558.300,237928.000,281845.500,254303.600,0.000
202960.300,210094.300,301720.700,410585.300,218556.200,237930.000,281859.800,254323.300,0.000
202938.800,210084.400,301619.800,410514.200,218544.500,237931.400,281856.700,254316.900,0.000
203010.600,210127.500,301581.800,410482.300,218569.800,237965.700,281877.900,254332.300,0.000
203051.000,210140.200,301528.300,410442.500,218583.000,237974.800,281884.100,254339.300,0.000
203003.100,210102.700,301420.300,410373.300,218568.300,237950.600,281872.500,254338.400,0.000
202961.200,210098.600,301332.700,410335.900,218591.000,237972.800,281907.900,254378.500,0.000
202963.100,210114.300,301256.200,410289.700,218604.800,237999.500,281931.200,254396.100,0.000
203013.700,210132.700,301195.300,410234.200,218605.800,238007.800,281927.400,254382.900,0.000
203056.800,210146.900,301143.200,410193.000,218617.400,238015.100,281932.200,254385.500,0.000
203039.900,210142.400,301071.700,410158.700,218634.800,238025.900,281956.900,254412.800,0.000
202975.000,210115.200,300965.100,410101.000,218635.200,238030.100,281973.900,254431.200,0.000
202976.800,210131.400,300893.200,410056.400,218650.900,238056.700,281998.900,254450.800,0.000
203032.400,210154.600,300838.200,410005.600,218656.900,238072.500,282002.400,254446.300,0.000
203059.600,210147.200,300764.500,409943.800,218645.000,238059.400,281983.700,254428.900,0.000
203038.200,210136.000,300689.100,409905.400,218656.700,238067.200,282001.100,254449.900,0.000
202986.100,210123.100,300595.900,409857.600,218666.000,238078.500,282024.400,254473.500,0.000
202970.200,210117.900,300505.900,409794.100,218661.800,238084.400,282029.100,254470.400,0.000
203028.600,210143.600,300452.300,409746.900,218669.800,238099.600,282030.300,254463.300,0.000
203092.200,210175.300,300417.900,409721.600,218695.500,238123.600,282047.600,254481.200,0.000
203059.000,210149.900,300330.000,409669.000,218692.300,238114.800,282051.000,254491.500,0.000
202975.100,210099.000,300207.600,409592.800,218672.000,238097.000,282045.000,254489.300,0.000
202979.200,210112.900,300137.300,409550.800,218686.400,238123.300,282067.500,254507.200,0.000
203066.100,210172.800,300114.500,409534.300,218724.200,238168.400,282100.600,254527.700,0.000
203111.000,210190.700,300062.900,409493.900,218735.300,238173.900,282102.800,254525.200,0.000
203052.200,210143.600,299951.800,409420.200,218713.400,238143.900,282083.400,254509.900,0.000
202977.800,210106.000,299838.800,409354.300,218702.100,238136.700,282087.400,254515.100,0.000
202965.800,210104.300,299756.800,409298.200,218706.100,238150.300,282096.700,254515.800,0.000
203029.900,210134.700,299712.000,409254.000,218719.300,238169.600,282100.400,254510.700,0.000
203094.900,210168.300,299678.800,409227.300,218741.600,238189.600,282114.600,254524.300,0.000
203061.400,210146.000,299594.700,409177.200,218739.300,238181.200,282118.200,254534.600,0.000
202986.000,210109.500,299484.400,409110.100,218728.000,238172.300,282120.300,254539.500,0.000
202976.400,210113.800,299405.300,409054.900,218733.500,238187.200,282129.700,254543.800,0.000
203050.000,210155.700,299368.600,409021.100,218753.900,238216.300,282141.400,254548.000,0.000
203101.000,210175.600,299322.600,408983.800,218765.700,238227.300,282144.700,254550.400,0.000
203068.600,210155.000,299234.400,408928.000,218759.900,238215.000,282142.200,254555.000,0.000
202992.900,210117.300,299124.000,408859.600,218748.600,238205.900,282142.200,254559.800,0.000
202981.400,210116.100,299041.900,408799.900,218746.600,238219.600,282147.400,254559.700,0.000
203046.300,210147.200,298999.400,408755.000,218756.400,238239.800,282150.500,254554.500,0.000
203095.500,210162.200,298954.200,408711.800,218763.400,238244.500,282145.900,254550.900,0.000
203065.700,210140.700,298875.900,408664.600,218762.600,238241.300,282148.700,254561.800,0.000
202987.500,210100.900,298759.600,408592.700,218743.400,238225.200,282142.800,254558.500,0.000
202968.000,210094.300,298669.600,408529.200,218737.400,238226.800,282139.000,254549.100,0.000
203033.300,210128.200,298629.400,408491.800,218749.200,238246.200,282142.400,254545.600,0.000
203085.200,210148.000,298586.100,408453.300,218756.900,238255.200,282141.500,254544.400,0.000
203056.600,210126.700,298505.500,408401.100,218752.900,238250.000,282141.300,254550.300,0.000
202971.800,210072.700,298386.100,408320.300,218730.500,238230.600,282129.900,254540.400,0.000
202957.900,210070.800,298305.100,408260.900,218729.400,238240.500,282133.200,254540.800,0.000
203027.100,210111.600,298272.700,408228.500,218748.100,238264.100,282145.400,254544.400,0.000
203081.800,210139.400,298241.700,408200.400,218767.600,238277.500,282157.000,254552.300,0.000
203048.000,210118.800,298163.600,408153.300,218768.700,238270.400,282161.100,254560.200,0.000
202975.300,210082.900,298057.300,408090.600,218759.100,238260.800,282164.500,254563.000,0.000
202956.800,210075.000,297969.400,408027.300,218752.200,238261.100,282165.000,254553.800,0.000
203022.600,210109.500,297929.800,407989.900,218764.500,238280.100,282173.200,254550.700,0.000
203076.400,210133.300,297893.300,407957.400,218776.500,238288.700,282178.600,254553.600,0.000
203046.500,210114.100,297816.700,407912.300,218772.200,238276.700,282181.000,254562.500,0.000
202973.600,210078.900,297712.600,407850.500,218760.800,238265.200,282184.300,254568.800,0.000
202954.200,210070.300,297625.000,407787.700,218753.400,238266.100,282182.600,254561.300,0.000
203014.500,210100.100,297585.300,407745.400,218760.200,238281.600,282184.800,254552.500,0.000
203071.200,210124.000,297551.900,407715.900,218773.500,238293.900,282191.200,254557.100,0.000
203034.400,210094.800,297466.300,407662.400,218764.600,238279.400,282185.300,254558.300,0.000
202961.100,210057.300,297362.300,407597.800,218752.900,238268.100,282183.200,254559.900,0.000
202940.600,210052.500,297278.600,407534.500,218746.300,238270.600,282179.400,254550.100,0.000
203009.200,210092.600,297245.000,407497.700,218760.900,238290.000,282184.800,254547.200,0.000
203059.700,210110.900,297203.600,407462.000,218767.500,238292.900,282181.200,254543.700,0.000
203027.700,210087.300,297120.500,407411.000,218757.700,238276.600,282174.600,254545.500,0.000
202964.400,210060.000,297021.800,407354.600,218751.400,238269.400,282179.300,254557.400,0.000
202938.300,210046.400,296933.400,407288.200,218743.800,238268.600,282174.200,254548.600,0.000
203003.000,210080.300,296899.300,407250.500,218755.500,238287.000,282178.200,254545.200,0.000
203063.200,210109.500,296869.300,407225.400,218771.600,238301.300,282186.100,254552.400,0.000
203028.400,210081.700,296785.700,407171.800,218763.200,238285.300,282182.700,254553.800,0.000
202952.200,210042.000,296676.200,407103.300,218748.700,238266.800,282179.700,254553.200,0.000
202930.100,210032.900,296595.300,407043.400,218745.900,238270.100,282180.300,254549.600,0.000
202997.200,210071.700,296564.700,407011.300,218762.300,238294.900,282187.800,254547.800,0.000
203056.300,210101.100,296533.800,406983.300,218776.500,238306.800,282191.300,254550.100,0.000
203031.700,210084.800,296462.700,406940.600,218778.300,238300.400,282194.400,254560.100,0.000
202954.200,210042.800,296352.800,406872.700,218763.500,238284.800,282189.500,254558.700,0.000
202934.400,210033.500,296264.600,406807.700,218753.700,238282.300,282184.200,254547.800,0.000
202992.100,210062.500,296220.600,406763.800,218760.600,238293.800,282181.100,254536.300,0.000
203046.900,210088.000,296184.000,406728.200,218769.400,238301.300,282175.800,254532.100,0.000
203027.500,210075.200,296113.300,406679.900,218764.200,238291.100,282170.800,254534.100,0.000
202952.300,210029.100,296009.400,406609.500,218745.600,238273.500,282161.800,254529.300,0.000
202933.100,210021.400,295927.400,406547.700,218743.600,238276.700,282159.100,254524.800,0.000
203003.600,210070.200,295895.300,406512.200,218764.500,238297.800,282164.200,254525.600,0.000
203056.700,210096.500,295863.800,406484.100,218782.100,238308.800,282167.700,254529.700,0.000
203020.200,210067.400,295784.100,406434.300,218775.400,238293.100,282163.700,254529.800,0.000
202944.200,210024.600,295678.000,406366.400,218757.300,238277.300,282157.000,254524.200,0.000
202930.700,210025.100,295597.400,406304.900,218747.800,238281.100,282152.300,254513.100,0.000
202997.300,210062.000,295564.100,406268.100,218760.600,238303.000,282154.400,254507.800,0.000
203046.700,210079.300,295528.900,406231.400,218768.300,238311.000,282148.200,254502.500,0.000
203022.100,210062.700,295459.900,406188.300,218765.600,238304.700,282147.900,254508.900,0.000
202955.500,210034.100,295363.500,406131.200,218756.900,238296.300,282149.100,254514.300,0.000
202936.800,210027.200,295284.500,406072.700,218750.500,238301.300,282145.800,254506.100,0.000
203012.000,210070.000,295258.200,406040.700,218764.200,238326.000,282152.400,254503.600,0.000
203068.700,210093.500,295228.900,406008.800,218773.300,238336.800,282151.100,254502.900,0.000
203026.500,210057.800,295145.700,405950.500,218758.100,238315.000,282133.800,254495.500,0.000
202946.800,210014.000,295038.000,405880.200,218738.000,238293.800,282121.800,254488.400,0.000
202925.500,210005.200,294956.100,405816.300,218728.500,238293.400,282115.000,254477.600,0.000
202992.600,210040.700,294927.200,405784.400,218743.400,238317.100,282120.300,254475.300,0.000
203049.000,210065.200,294897.000,405753.900,218753.300,238326.200,282118.100,254475.400,0.000
203017.200,210044.500,294824.700,405705.300,218748.000,238316.000,282111.500,254479.200,0.000
202945.400,210010.100,294723.600,405642.100,218733.600,238304.800,282105.300,254479.200,0.000
202928.000,210006.200,294643.900,405584.000,218725.600,238309.900,282101.900,254473.100,0.000
202995.300,210046.300,294614.000,405549.300,218736.800,238330.800,282105.300,254469.500,0.000
203046.500,210066.300,294579.100,405513.300,218740.500,238333.300,282097.400,254462.800,0.000
203012.600,210040.300,294504.200,405462.300,218731.400,238315.600,282084.700,254462.200,0.000
202939.600,210004.300,294403.100,405397.900,218716.800,238300.900,282076.700,254460.900,0.000
202922.100,209997.900,294325.500,405338.000,218713.200,238306.300,282072.200,254453.900,0.000
203001.100,210045.500,294306.500,405314.900,218737.900,238339.700,282085.300,254461.300,0.000
203061.300,210074.500,294278.900,405288.500,218749.900,238351.200,282084.500,254462.200,0.000
203025.400,210046.300,294198.500,405234.400,218733.500,238331.700,282069.100,254454.400,0.000
202946.500,210004.100,294095.000,405169.500,218714.400,238316.300,282060.600,254451.900,0.000
202922.700,209992.700,294015.500,405108.500,218706.800,238317.600,282054.800,254443.700,0.000
202999.300,210038.100,293991.200,405075.700,218722.600,238342.100,282056.500,254440.400,0.000
203057.700,210064.800,293962.800,405045.700,218733.600,238355.600,282053.200,254440.400,0.000
203023.600,210044.800,293888.400,404997.700,218724.000,238343.100,282041.700,254441.000,0.000
202960.900,210020.600,293802.300,404948.400,218721.800,238340.300,282044.900,254453.700,0.000
202944.500,210013.800,293729.100,404892.700,218718.700,238343.100,282041.700,254445.900,0.000
202992.100,210027.000,293685.500,404845.000,218716.100,238348.500,282030.400,254425.200,0.000
203050.700,210052.900,293655.900,404813.200,218722.400,238355.700,282025.300,254421.300,0.000
203018.900,210030.500,293582.400,404764.300,218714.300,238340.300,282014.400,254421.100,0.000
202932.900,209983.700,293474.100,404693.200,218692.300,238315.900,281997.900,254410.300,0.000
202913.200,209978.100,293397.900,404635.800,218685.400,238317.800,281993.900,254400.800,0.000
202986.300,210020.800,293376.800,404608.800,218704.000,238343.800,282002.500,254401.200,0.000
203037.800,210037.100,293344.800,404575.000,218710.900,238349.800,281995.300,254396.100,0.000
203008.600,210018.600,293271.500,404526.000,218702.000,238336.600,281982.700,254395.700,0.000
202940.300,209988.000,293178.900,404469.000,218692.300,238327.500,281978.700,254400.500,0.000
202918.600,209978.600,293099.900,404408.100,218681.300,238326.200,281970.000,254388.400,0.000
202979.500,210011.400,293067.900,404371.100,218690.200,238341.000,281966.000,254378.600,0.000
203037.700,210040.300,293042.300,404342.200,218704.200,238352.500,281961.700,254378.000,0.000
203000.600,210014.400,292966.900,404289.800,218693.700,238333.800,281945.900,254372.900,0.000
202927.800,209982.200,292872.300,404232.300,218682.600,238322.500,281939.700,254374.400,0.000
202919.000,209986.000,292810.200,404186.400,218686.300,238336.800,281944.300,254377.700,0.000
202987.200,210026.500,292788.500,404156.600,218704.500,238361.800,281948.000,254378.000,0.000
203045.300,210056.200,292764.400,404128.600,218716.600,238372.700,281944.800,254376.400,0.000
203021.200,210039.700,292702.900,404089.900,218712.600,238367.600,281940.100,254382.000,0.000
202946.100,209999.200,292603.900,404027.400,218695.500,238353.900,281929.800,254381.700,0.000
202919.900,209983.500,292521.400,403961.400,218681.300,238349.500,281915.900,254366.300,0.000
202984.300,210014.100,292488.900,403921.400,218688.400,238364.700,281911.100,254355.200,0.000
203043.600,210037.700,292463.800,403892.800,218698.700,238372.700,281907.200,254354.200,0.000
203041.100,210041.700,292418.300,403870.400,218716.400,238379.200,281920.400,254378.300,0.000
202953.700,209992.100,292307.500,403796.300,218689.700,238351.100,281898.700,254362.300,0.000
202913.200,209963.500,292210.400,403717.600,218660.300,238331.300,281871.100,254330.100,0.000
202981.800,209996.100,292183.000,403684.000,218671.200,238349.100,281867.800,254322.300,0.000
203042.500,210020.000,292159.300,403656.900,218682.400,238355.900,281861.800,254319.600,0.000
203012.500,209994.900,292092.300,403614.500,218680.000,238344.400,281853.200,254324.500,0.000
202936.600,209955.000,291994.700,403552.400,218663.200,238326.700,281840.000,254322.000,0.000
202922.600,209949.700,291922.700,403498.500,218658.900,238330.800,281831.900,254315.100,0.000
203000.300,209992.900,291904.100,403472.500,218677.300,238356.500,281836.800,254317.400,0.000
203071.800,210027.600,291885.700,403447.900,218690.700,238369.100,281832.000,254319.000,0.000
203043.900,210004.800,291818.000,403401.100,218682.200,238353.700,281815.500,254317.200,0.000
202956.600,209955.200,291710.500,403327.800,218655.000,238326.500,281793.500,254304.100,0.000
202944.300,209953.800,291643.200,403275.000,218651.100,238333.300,281790.800,254299.900,0.000
203020.300,209995.600,291625.600,403246.200,218667.200,238358.400,281796.400,254299.000,0.000
203081.300,210020.900,291601.000,403217.800,218676.900,238366.700,281789.500,254295.300,0.000
203051.600,209999.200,291532.800,403171.500,218667.100,238350.900,281772.800,254292.600,0.000
202972.700,209960.300,291436.600,403108.800,218649.600,238334.500,281759.300,254288.800,0.000
202958.000,209958.300,291370.400,403060.800,218649.300,238345.300,281759.800,254287.600,0.000
203034.000,210002.500,291352.400,403037.400,218669.500,238378.000,281768.400,254288.600,0.000
203094.900,210030.000,291331.800,403012.100,218680.800,238391.700,281763.800,254289.500,0.000
203061.000,210002.000,291259.900,402960.200,218665.300,238373.200,281744.700,254285.500,0.000
202985.000,209961.700,291164.900,402899.000,218648.200,238356.900,281732.800,254284.200,0.000
202965.200,209954.300,291096.700,402847.800,218642.300,238359.900,281729.200,254279.500,0.000
203029.200,209988.500,291073.600,402819.200,218654.900,238379.900,281731.900,254275.300,0.000
203078.400,210004.600,291046.400,402789.000,218661.000,238383.900,281723.000,254269.200,0.000
203048.800,209985.200,290980.100,402746.300,218654.200,238368.200,281711.700,254268.200,0.000
202979.300,209957.300,290895.800,402697.900,218646.200,238357.500,281709.500,254273.700,0.000
202958.900,209953.400,290828.500,402648.500,218643.800,238361.700,281708.100,254270.300,0.000
203017.700,209984.300,290798.300,402610.700,218648.900,238373.900,281701.900,254258.300,0.000
203080.100,210014.700,290780.900,402587.800,218659.400,238385.700,281700.800,254260.000,0.000
203052.300,209996.900,290720.400,402547.700,218651.700,238373.000,281692.900,254264.400,0.000
202970.300,209952.500,290625.000,402486.600,218630.200,238352.600,281680.600,254261.800,0.000
202946.500,209944.100,290551.800,402431.800,218621.300,238352.100,281672.800,254253.200,0.000
203015.200,209982.000,290533.700,402406.400,218638.600,238376.700,281678.000,254253.600,0.000
203075.900,210011.500,290514.700,402384.600,218654.700,238389.800,281678.100,254257.500,0.000
203031.500,209976.400,290435.800,402328.100,218635.800,238362.900,281652.400,254246.300,0.000
202939.400,209923.300,290337.800,402263.600,218616.500,238341.700,281638.300,254244.900,0.000
202926.700,209926.400,290280.100,402221.100,218622.200,238356.300,281644.800,254255.900,0.000
203005.300,209975.600,290273.400,402206.300,218646.500,238391.000,281661.900,254271.000,0.000
203068.600,210006.800,290260.100,402188.700,218662.100,238405.900,281664.500,254279.400,0.000
203045.400,209993.200,290202.600,402151.300,218658.000,238395.400,281659.800,254287.800,0.000
202957.300,209946.000,290104.300,402088.800,218636.600,238373.900,281648.400,254285.400,0.000
202929.800,209936.400,290033.200,402038.900,218630.800,238377.400,281647.100,254285.200,0.000
202990.600,209969.300,290005.300,402001.700,218633.500,238389.000,281643.100,254278.600,0.000
203051.200,209997.200,289991.600,401979.400,218645.700,238399.400,281643.100,254285.800,0.000
203028.400,209980.500,289939.100,401946.600,218648.700,238394.000,281644.800,254300.800,0.000
202932.000,209920.400,289831.800,401875.800,218617.700,238362.900,281622.700,254290.300,0.000
202920.400,209923.600,289772.800,401834.100,218618.000,238373.600,281628.900,254297.000,0.000
202980.900,209954.300,289748.100,401800.000,218624.900,238386.500,281627.900,254291.200,0.000
203036.700,209974.600,289730.100,401777.600,218633.900,238394.200,281626.000,254294.700,0.000
203010.800,209953.800,289673.300,401745.200,218632.100,238387.000,281621.700,254305.000,0.000
202931.400,209910.100,289579.800,401691.900,218618.000,238374.900,281613.400,254308.400,0.000
202918.900,209912.900,289517.100,401646.100,218616.700,238382.200,281614.400,254308.300,0.000
202976.000,209942.100,289488.700,401609.400,218617.300,238392.100,281607.400,254294.700,0.000
203032.300,209965.600,289471.000,401586.900,218623.200,238398.900,281603.200,254294.200,0.000
203003.400,209943.200,289413.200,401551.100,218619.500,238387.000,281597.300,254301.900,0.000
202921.600,209899.500,289319.000,401492.300,218600.800,238364.200,281584.900,254301.100,0.000
202898.200,209892.400,289253.000,401444.600,218595.800,238365.500,281581.800,254299.500,0.000
202971.000,209937.300,289242.300,401425.800,218615.100,238391.900,281591.700,254305.300,0.000
203020.100,209954.200,289214.200,401391.000,218613.100,238387.700,281577.500,254293.000,0.000
202994.700,209933.300,289157.500,401352.900,218608.900,238375.200,281569.500,254295.900,0.000
202917.100,209893.200,289070.800,401299.100,218593.300,238359.600,281563.600,254299.300,0.000
202896.600,209889.200,289008.500,401254.700,218591.600,238365.600,281566.200,254299.000,0.000
202963.100,209928.800,288994.800,401234.000,218608.900,238390.000,281575.600,254301.500,0.000
203024.100,209956.900,288981.300,401215.700,218621.300,238402.200,281578.300,254306.500,0.000
202999.100,209937.500,288926.200,401178.500,218618.000,238392.400,281572.800,254311.800,0.000
202931.200,209909.700,288845.100,401127.900,218607.700,238380.800,281569.100,254318.100,0.000
202902.800,209896.700,288773.400,401069.100,218593.800,238375.700,281560.000,254307.400,0.000
202959.800,209923.100,288745.000,401032.000,218596.200,238386.500,281554.800,254295.600,0.000
203022.200,209950.500,288730.200,401011.100,218606.800,238395.900,281553.500,254296.200,0.000
203002.000,209935.500,288680.000,400979.400,218606.000,238389.100,281550.300,254302.900,0.000
202924.400,209893.400,288596.000,400927.100,218595.100,238375.900,281546.100,254306.500,0.000
202896.700,209884.700,288526.100,400871.500,218582.500,238369.600,281537.200,254295.700,0.000
202961.700,209921.700,288509.000,400845.900,218594.200,238386.600,281542.100,254291.200,0.000
203023.900,209948.300,288497.900,400827.400,218608.900,238398.700,281543.700,254294.100,0.000
203000.600,209929.700,288444.000,400791.300,218606.000,238390.000,281536.900,254298.300,0.000
202923.400,209889.800,288357.500,400734.900,218591.800,238374.200,281526.400,254298.300,0.000
202895.500,209877.400,288289.900,400682.800,218585.100,238374.900,281522.100,254293.500,0.000
202963.100,209917.800,288276.400,400660.300,218599.700,238396.800,281530.900,254294.800,0.000
203024.100,209950.300,288264.100,400641.100,218612.000,238406.300,281530.500,254294.400,0.000
202990.400,209925.200,288203.900,400597.900,218603.500,238387.500,281518.500,254290.800,0.000
202910.600,209883.300,288115.400,400541.100,218587.600,238369.100,281509.300,254286.300,0.000
202888.900,209873.900,288049.100,400488.300,218580.000,238369.200,281504.400,254278.500,0.000
202952.900,209905.700,288033.200,400462.200,218591.300,238390.700,281507.800,254274.900,0.000
203017.200,209933.800,288023.800,400446.000,218606.500,238406.800,281511.200,254277.800,0.000
202995.300,209917.500,287967.800,400405.900,218600.000,238394.600,281501.900,254276.900,0.000
202903.700,209861.800,287868.900,400336.800,218571.100,238364.700,281480.100,254264.300,0.000
202880.800,209852.000,287806.600,400287.800,218565.500,238369.300,281478.800,254259.400,0.000
202950.000,209891.700,287794.800,400269.300,218584.700,238398.400,281488.300,254261.800,0.000
203003.000,209910.600,287776.800,400245.700,218591.000,238405.500,281483.400,254258.700,0.000
202976.400,209889.000,287722.800,400207.900,218582.800,238390.600,281474.600,254261.600,0.000
