EEG 1, EEG 2, EEG 3, EEG 4, EEG 5, EEG 6, EEG 7, EEG 8, TRIG
707774.600,736800.600,750000.100,750000.100,750000.100,636284.200,616644.700,683131.900,0.000
604525.900,628233.600,750000.100,750000.100,750000.100,542508.500,525773.300,584347.800,0.000
517095.400,536103.600,750000.100,750000.100,750000.100,462948.600,448485.400,501058.500,0.000
442780.400,459045.600,750000.100,750000.100,750000.100,396298.700,383788.900,429632.500,0.000
393885.200,409120.000,750000.100,750000.100,750000.100,352831.300,341846.200,381865.800,0.000
373487.400,388713.500,750000.100,750000.100,750000.100,334964.700,324780.600,361603.700,0.000
361869.700,375790.300,750000.100,750000.100,750000.100,323800.500,314157.400,350495.800,0.000
352083.700,364714.600,750000.100,750000.100,750000.100,314241.700,304901.600,341558.500,0.000
341681.600,353956.200,750000.100,750000.100,750000.100,304867.500,295744.800,331581.300,0.000
330827.200,343424.300,750000.100,750000.100,750000.100,295610.700,286801.300,320628.600,0.000
320934.100,333788.800,750000.100,721809.300,750000.100,287175.100,278811.700,310522.400,0.000
314554.100,326447.600,750000.100,688901.000,750000.100,280889.800,272867.800,304378.600,0.000
309179.100,320064.800,750000.100,659720.000,750000.100,275467.400,267571.900,299613.200,0.000
302752.100,313431.900,750000.100,632377.800,750000.100,269722.900,261912.700,293476.800,0.000
295460.200,306543.600,750000.100,606758.900,750000.100,263659.000,256035.600,286038.300,0.000
288729.400,300150.500,750000.100,583722.800,750000.100,258060.700,250750.000,279062.100,0.000
284858.700,295509.400,750000.100,564483.800,750000.100,254119.700,247041.000,275369.200,0.000
281682.900,291502.800,750000.100,547105.800,750000.100,250766.300,243737.300,272726.400,0.000
277363.900,287065.500,727678.800,530107.900,750000.100,246921.900,239912.500,268637.600,0.000
272116.900,282243.400,699723.600,513656.400,750000.100,242674.200,235777.000,263229.500,0.000
267204.700,277700.000,673942.300,498646.800,750000.100,238690.700,232032.800,258068.600,0.000
264771.200,274601.900,651521.300,486358.400,750000.100,236083.300,229602.600,255783.000,0.000
262884.300,271982.100,631014.400,475140.300,750000.100,233923.800,227452.800,254375.800,0.000
259889.500,268912.300,611170.100,463756.300,750000.100,231269.700,224779.800,251572.300,0.000
255855.600,265314.600,591883.900,452324.500,750000.100,228080.300,221669.100,247371.500,0.000
252022.100,261862.800,573891.000,441794.600,750000.100,225039.900,218829.200,243292.800,0.000
250525.800,259772.900,558493.300,433517.400,750000.100,223302.500,217233.800,241918.500,0.000
249483.000,258070.900,544343.300,425929.000,750000.100,221930.800,215845.100,241317.700,0.000
247273.600,255823.800,530276.600,417837.000,750000.100,219987.900,213865.200,239294.500,0.000
244083.500,253075.900,516339.700,409488.300,750000.100,217541.300,211470.200,235932.000,0.000
241029.300,250415.000,503224.800,401759.000,750000.100,215186.500,209286.400,232622.500,0.000
240141.400,248984.000,492217.400,395960.300,750000.100,214011.800,208228.600,231842.700,0.000
239673.800,247902.600,482108.500,390655.900,750000.100,213172.900,207358.100,231791.700,0.000
238047.300,246253.700,471782.100,384710.300,750000.100,211752.300,205884.300,230336.000,0.000
235419.400,244066.300,461300.800,378341.800,750000.100,209790.900,203958.100,227533.800,0.000
232926.100,241970.500,451412.600,372468.900,750000.100,207932.200,202250.300,224786.000,0.000
232463.400,240999.200,443311.900,368305.300,750000.100,207157.300,201575.900,224414.200,0.000
232365.000,240321.500,435868.500,364493.700,750000.100,206657.200,201034.000,224704.800,0.000
231153.700,239106.800,428067.800,359982.000,750000.100,205601.900,199914.100,223641.500,0.000
228941.700,237338.900,419947.000,354963.000,750000.100,204003.200,198343.000,221252.200,0.000
226814.700,235608.700,412229.500,350319.500,749480.500,202456.700,196936.000,218863.500,0.000
226680.400,234990.300,406157.800,347300.500,746530.900,201986.200,196554.600,218806.700,0.000
226873.800,234629.000,400590.700,344544.600,744447.100,201764.700,196282.800,219377.800,0.000
225943.400,233700.400,394540.000,341023.300,741716.100,200966.600,195414.700,218594.800,0.000
224032.400,232233.700,388079.800,336951.300,737933.800,199622.000,194089.500,216496.100,0.000
222194.100,230796.600,381927.800,333205.200,734176.300,198326.900,192928.700,214397.000,0.000
222276.000,230416.500,377277.400,330982.700,732032.000,198054.200,192743.900,214553.900,0.000
222681.500,230285.800,373049.800,328977.100,730679.100,198022.100,192661.600,215321.000,0.000
221989.000,229601.900,368282.800,326190.600,728673.300,197432.000,191997.300,214763.400,0.000
220313.900,228367.100,363038.000,322824.300,725599.300,196293.400,190873.000,212901.300,0.000
218681.100,227138.500,358012.500,319716.100,722494.400,195177.000,189880.800,211001.300,0.000
218933.200,226943.800,354412.800,318079.700,720950.900,195067.000,189849.400,211317.700,0.000
219504.000,226990.300,351180.600,316636.200,720165.600,195190.900,189914.800,212241.300,0.000
218974.000,226468.700,347350.900,314382.600,718689.600,194741.600,189391.100,211838.800,0.000
217477.800,225410.000,343011.600,311537.400,716162.800,193760.500,188420.800,210157.600,0.000
215992.400,224332.000,338824.600,308906.400,713616.100,192778.400,187559.300,208414.400,0.000
216355.400,224261.800,335989.900,307692.000,712506.100,192771.600,187627.100,208839.300,0.000
217051.800,224445.000,333505.300,306668.400,712134.100,193013.500,187805.700,209886.100,0.000
216650.500,224060.100,330392.600,304820.100,711080.600,192681.500,187394.000,209612.300,0.000
215265.100,223115.000,326714.800,302344.200,708947.900,191791.900,186509.900,208038.000,0.000
213903.400,222159.000,323172.500,300081.700,706812.400,190911.400,185745.200,206409.300,0.000
214377.400,222206.000,320953.300,299219.100,706050.100,191004.000,185910.500,206933.000,0.000
215180.200,222500.500,319048.200,298524.100,705991.900,191338.000,186184.600,208073.700,0.000
214880.200,222213.700,316479.200,296984.400,705246.800,191088.700,185853.100,207893.900,0.000
213607.800,221378.800,313335.500,294821.400,703435.600,190301.100,185062.900,206434.500,0.000
212347.700,220525.700,310298.400,292847.800,701602.800,189513.500,184387.700,204908.500,0.000
212890.900,220650.000,308539.800,292236.800,701091.400,189671.800,184616.300,205503.600,0.000
213766.200,221022.000,307079.700,291791.800,701299.500,190075.400,184954.600,206711.700,0.000
213551.100,220824.400,304945.700,290503.000,700819.700,189903.400,184700.900,206610.100,0.000
212354.400,220066.300,302215.300,288575.900,699245.400,189180.600,183978.200,205222.500,0.000
211160.800,219282.700,299564.600,286820.600,697615.900,188450.300,183357.200,203763.600,0.000
211749.600,219460.200,298154.200,286399.900,697310.300,188647.300,183622.700,204398.000,0.000
212677.200,219888.100,297035.300,286147.000,697711.100,189096.000,184003.500,205650.700,0.000
212518.500,219750.200,295239.200,285050.300,697423.300,188976.800,183798.300,205611.100,0.000
211377.800,219045.700,292827.800,283300.400,696036.800,188302.100,183122.000,204284.900,0.000
210235.800,218314.100,290484.100,281715.600,694604.000,187616.900,182544.400,202872.700,0.000
210894.200,218568.400,289393.500,281481.400,694487.100,187886.100,182877.200,203575.000,0.000
211870.800,219045.400,288557.900,281388.000,695036.400,188380.700,183301.500,204875.700,0.000
211762.100,218955.500,287032.400,280446.200,694896.600,188302.300,183134.900,204882.000,0.000
210679.200,218309.600,284894.900,278859.100,693661.500,187680.600,182506.100,203609.500,0.000
209574.600,217617.800,282792.000,277405.600,692341.900,187031.000,181962.100,202235.200,0.000
210234.500,217872.400,281899.400,277267.300,692321.700,187301.100,182298.400,202937.800,0.000
211242.700,218388.500,281288.800,277297.800,692993.300,187824.300,182756.000,204274.700,0.000
211175.100,218346.400,279993.400,276485.200,692978.700,187788.500,182631.900,204326.200,0.000
210132.400,217745.200,278073.500,275017.200,691854.800,187202.000,182041.600,203098.600,0.000
209056.400,217082.500,276169.300,273674.700,690600.400,186572.800,181518.900,201749.500,0.000
209747.100,217368.800,275473.900,273648.700,690690.200,186870.100,181878.600,202477.800,0.000
210782.900,217913.700,275047.900,273782.400,691466.400,187420.200,182361.500,203839.100,0.000
210735.400,217892.100,273923.100,273064.800,691534.500,187401.400,182255.300,203912.100,0.000
209709.300,217304.300,272159.700,271682.100,690484.600,186826.300,181674.200,202697.300,0.000
208655.600,216665.400,270420.900,270430.100,689315.700,186218.500,181170.500,201370.400,0.000
209376.200,216987.800,269889.600,270496.700,689478.800,186542.000,181556.500,202122.700,0.000
210429.600,217548.100,269610.600,270714.900,690320.400,187108.100,182053.200,203498.100,0.000
210405.500,217546.900,268634.800,270081.800,690459.200,187107.200,181965.900,203591.600,0.000
209414.400,216995.300,267030.100,268789.100,689483.100,186565.300,181416.500,202415.200,0.000
208357.000,216354.200,265404.100,267584.500,688336.900,185955.200,180911.700,201091.900,0.000
209074.800,216675.900,264992.700,267712.300,688541.500,186285.900,181308.200,201852.500,0.000
210163.500,217272.100,264865.200,268018.100,689457.600,186884.500,181841.900,203266.100,0.000
210144.900,217273.700,263999.800,267434.600,689628.300,186878.400,181751.300,203359.800,0.000
209147.800,216708.600,262490.500,266182.800,688670.100,186318.900,181187.400,202168.300,0.000
208121.600,216099.700,261000.800,265061.600,687582.800,185739.300,180710.100,200871.700,0.000
208863.500,216452.400,260713.700,265259.400,687840.000,186095.400,181127.200,201654.400,0.000
209957.500,217056.800,260688.900,265615.300,688788.600,186700.900,181663.500,203074.800,0.000
209953.900,217070.300,259926.800,265089.900,688998.100,186713.000,181588.500,203185.300,0.000
208976.000,216524.100,258522.400,263902.800,688088.400,186177.400,181045.000,202019.100,0.000
207966.100,215930.000,257128.900,262838.100,687041.300,185610.600,180579.800,200738.300,0.000
208713.300,216284.800,256919.100,263072.300,687314.800,185958.700,180991.000,201513.300,0.000
209807.900,216890.900,256965.000,263466.600,688282.900,186561.200,181525.200,202929.300,0.000
209818.900,216924.100,256289.300,262994.000,688532.900,186586.900,181462.700,203055.100,0.000
208852.800,216393.600,254962.800,261852.600,687653.500,186058.900,180930.000,201900.000,0.000
207847.500,215809.400,253640.500,260827.100,686621.400,185497.800,180476.100,200624.400,0.000
208587.000,216162.500,253501.000,261098.700,686927.700,185852.600,180898.800,201404.700,0.000
209679.400,216764.300,253609.700,261521.600,687904.600,186450.600,181427.200,202818.500,0.000
209698.700,216803.700,253012.600,261091.300,688173.600,186484.400,181372.400,202956.100,0.000
208743.100,216283.000,251765.600,259989.000,687318.600,185966.400,180846.100,201811.500,0.000
207750.600,215704.700,250516.500,259003.800,686296.700,185414.300,180395.500,200541.100,0.000
208515.500,216083.500,250461.900,259327.000,686624.100,185787.800,180833.400,201337.500,0.000
209628.300,216704.600,250651.000,259797.600,687640.600,186401.000,181378.500,202766.100,0.000
209628.200,216724.600,250088.000,259374.300,687906.200,186414.200,181301.100,202882.600,0.000
208677.100,216208.100,248902.400,258307.300,687069.500,185901.200,180780.700,201744.900,0.000
207687.000,215635.300,247714.300,257355.400,686072.800,185350.400,180335.900,200478.000,0.000
208441.200,216004.300,247699.200,257696.600,686408.700,185715.200,180766.700,201261.700,0.000
209530.600,216605.500,247921.800,258175.500,687402.800,186311.300,181297.500,202674.300,0.000
209562.400,216658.400,247439.000,257805.400,687701.800,186356.300,181253.500,202822.400,0.000
208638.900,216165.400,246325.400,256788.000,686890.100,185868.100,180756.200,201711.500,0.000
207630.900,215574.400,245168.300,255842.000,685873.300,185298.500,180291.500,200429.200,0.000
208369.300,215928.000,245189.400,256190.600,686213.300,185647.700,180707.900,201198.600,0.000
209481.800,216549.000,245481.900,256713.000,687242.100,186261.200,181256.700,202634.800,0.000
209514.200,216599.200,245045.100,256367.500,687551.500,186301.000,181207.800,202787.900,0.000
208565.800,216080.800,243947.300,255341.500,686724.700,185782.200,180680.000,201650.400,0.000
207572.400,215508.200,242848.000,254425.700,685714.400,185230.100,180230.400,200379.700,0.000
208331.500,215887.100,242935.700,254817.100,686067.000,185607.500,180673.700,201173.100,0.000
209440.900,216504.300,243265.600,255357.000,687100.700,186224.700,181225.500,202607.300,0.000
209480.500,216557.700,242878.100,255037.800,687413.200,186272.400,181183.600,202764.400,0.000
208557.300,216061.500,241843.400,254056.700,686611.400,185774.800,180676.400,201647.200,0.000
207558.800,215484.800,240774.600,253159.700,685638.000,185219.100,180223.100,200367.600,0.000
208290.800,215842.000,240872.000,253546.000,685966.900,185571.600,180644.400,201133.400,0.000
209406.700,216467.800,241235.900,254108.300,686998.100,186193.800,181201.400,202577.700,0.000
209443.300,216518.900,240871.300,253803.400,687319.800,186237.700,181158.100,202735.100,0.000
208506.800,216009.100,239856.200,252829.200,686513.100,185727.500,180641.500,201606.000,0.000
207508.400,215430.900,238820.200,251945.100,685507.800,185170.600,180189.000,200330.200,0.000
208247.600,215796.200,238956.600,252357.200,685854.800,185533.400,180619.100,201105.600,0.000
209355.800,216415.700,239348.800,252931.000,686894.600,186147.400,181167.400,202540.900,0.000
209409.000,216487.000,239033.100,252658.200,687231.800,186209.400,181137.800,202713.200,0.000
208483.100,215990.200,238056.700,251706.000,686437.800,185712.400,180627.300,201596.600,0.000
207471.000,215401.400,237040.400,250826.200,685469.800,185146.400,180163.200,200309.600,0.000
208224.200,215777.000,237221.700,251271.500,685807.500,185523.400,180604.900,201094.900,0.000
209349.300,216407.500,237654.100,251881.200,686851.400,186152.300,181163.000,202543.500,0.000
209385.000,216456.300,237349.900,251607.300,687176.800,186193.900,181113.900,202701.600,0.000
208451.900,215947.800,236394.200,250659.500,686381.500,185688.500,180595.500,201579.800,0.000
207457.500,215374.600,235413.800,249802.000,685419.800,185134.400,180139.500,200296.600,0.000
208196.100,215739.800,235602.500,250244.000,685749.400,185489.500,180564.000,201057.400,0.000
209324.300,216373.800,236062.800,250869.800,686790.800,186116.600,181129.000,202511.300,0.000
209387.800,216449.300,235805.900,250629.800,687140.800,186184.100,181105.500,202694.900,0.000
208467.000,215954.000,234885.400,249705.500,686347.300,185688.000,180601.900,201582.300,0.000
207468.100,215379.900,233930.100,248865.300,685352.400,185133.800,180153.600,200301.300,0.000
208195.800,215738.700,234132.100,249308.100,685688.600,185487.200,180574.100,201054.200,0.000
209304.700,216355.200,234597.200,249926.100,686727.300,186100.000,181120.500,202491.400,0.000
209360.800,216421.500,234355.900,249693.200,687068.500,186158.800,181086.300,202669.200,0.000
208454.300,215938.800,233469.600,248792.300,686289.700,185675.800,180591.000,201572.300,0.000
207433.100,215346.700,232514.900,247941.600,685321.500,185099.100,180116.300,200271.700,0.000
208155.200,215701.400,232740.600,248399.700,685656.600,185450.700,180534.900,201026.100,0.000
209292.500,216341.100,233249.600,249052.500,686692.200,186082.000,181100.600,202483.400,0.000
209353.300,216408.800,233027.300,248831.600,687036.400,186138.900,181070.100,202661.300,0.000
208432.700,215910.900,232142.000,247926.700,686254.400,185641.000,180561.700,201549.900,0.000
207430.000,215336.500,231223.600,247103.400,685269.300,185087.800,180106.200,200266.900,0.000
208170.200,215710.300,231481.500,247588.300,685616.200,185458.800,180543.200,201038.600,0.000
209293.200,216336.800,231996.300,248239.400,686665.800,186080.200,181101.400,202490.900,0.000
209351.900,216405.100,231797.900,248032.500,687019.600,186142.800,181073.500,202675.400,0.000
208434.900,215910.700,230938.300,247142.900,686235.400,185646.800,180568.400,201564.500,0.000
207427.200,215331.100,230026.200,246314.500,685257.300,185082.200,180102.100,200266.200,0.000
208161.400,215701.800,230294.600,246797.000,685596.300,185449.600,180532.900,201030.200,0.000
209280.800,216328.300,230824.300,247453.700,686647.400,186072.100,181087.400,202481.000,0.000
209325.800,216377.900,230623.000,247238.100,686986.800,186114.200,181040.400,202649.700,0.000
208412.400,215884.200,229778.500,246357.600,686205.100,185622.800,180535.400,201545.600,0.000
207406.400,215307.800,228886.300,245543.800,685209.800,185067.800,180074.300,200252.800,0.000
208129.700,215668.500,229162.600,246030.000,685546.000,185426.700,180498.200,201003.300,0.000
209284.700,216326.700,229742.800,246736.100,686632.600,186082.900,181090.700,202488.800,0.000
209337.500,216384.800,229564.800,246535.700,686977.400,186132.700,181052.500,202665.100,0.000
208412.700,215880.000,228719.300,245644.200,686183.000,185623.600,180529.600,201543.800,0.000
207409.200,215305.700,227842.800,244837.900,685189.600,185069.100,180072.500,200252.700,0.000
208157.000,215690.300,228152.100,245349.400,685549.900,185448.900,180516.600,201021.000,0.000
209274.700,216313.700,228710.000,246026.800,686602.400,186070.100,181074.500,202471.000,0.000
209343.500,216391.200,228558.500,245850.300,686968.600,186138.500,181052.500,202666.600,0.000
208430.400,215900.300,227742.800,244986.400,686193.800,185644.800,180547.500,201564.700,0.000
207405.500,215307.000,226864.100,244174.400,685194.600,185071.400,180074.600,200256.300,0.000
208123.700,215665.100,227161.600,244670.200,685518.900,185426.900,180495.600,201001.000,0.000
209261.500,216303.900,227748.900,245371.100,686579.600,186062.600,181068.300,202467.100,0.000
209338.200,216384.800,227619.800,245207.800,686951.800,186137.200,181053.200,202672.000,0.000
208430.900,215892.300,226817.300,244348.300,686175.500,185642.700,180547.500,201573.500,0.000
207412.800,215304.600,225955.000,243545.800,685151.600,185075.800,180077.800,200269.200,0.000
208123.100,215655.800,226257.600,244043.000,685469.600,185423.100,180494.200,200998.600,0.000
209264.300,216300.400,226860.400,244753.700,686547.300,186062.000,181071.200,202468.200,0.000
209340.500,216378.600,226740.200,244595.000,686923.900,186135.100,181053.900,202673.700,0.000
208428.700,215884.200,225944.800,243741.000,686147.700,185637.400,180544.700,201566.400,0.000
207404.700,215294.500,225088.300,242939.600,685155.300,185062.600,180071.000,200251.700,0.000
208099.400,215630.300,225390.200,243430.800,685453.500,185395.800,180473.000,200969.200,0.000
209249.400,216282.400,226010.600,244152.900,686530.600,186042.900,181055.100,202451.700,0.000
209325.100,216361.600,225899.300,243998.300,686907.300,186112.300,181034.900,202657.500,0.000
208426.600,215880.800,225126.000,243164.500,686148.200,185627.900,180537.600,201571.400,0.000
207412.600,215298.800,224292.300,242381.300,685141.800,185068.500,180076.800,200272.700,0.000
208114.500,215640.300,224611.400,242885.200,685466.900,185412.700,180488.400,200997.900,0.000
209257.300,216282.400,225235.100,243610.700,686541.400,186054.200,181067.200,202473.500,0.000
209320.600,216348.700,225118.600,243446.800,686900.900,186108.000,181032.200,202663.200,0.000
208421.500,215866.100,224354.200,242612.600,686129.800,185619.000,180532.600,201571.700,0.000
207409.400,215291.400,223532.000,241837.800,685114.800,185060.700,180071.600,200272.600,0.000
208108.200,215637.200,223860.100,242348.200,685444.700,185403.800,180485.700,200993.000,0.000
209233.600,216259.800,224475.500,243063.100,686508.100,186024.100,181047.300,202452.600,0.000
209311.100,216340.200,224378.900,242918.000,686882.600,186091.300,181023.900,202656.300,0.000
208422.100,215867.600,223626.400,242097.700,686126.900,185612.100,180530.100,201577.300,0.000
207397.100,215277.600,222797.200,241313.700,685100.300,185045.100,180059.900,200269.500,0.000
208089.500,215617.800,223127.000,241822.100,685415.900,185383.000,180467.300,200979.800,0.000
209234.900,216262.800,223768.200,242560.800,686500.900,186023.800,181044.100,202454.400,0.000
209328.000,216356.800,223697.100,242442.000,686895.300,186111.500,181039.200,202679.100,0.000
208436.300,215881.100,222955.700,241627.600,686153.500,185638.400,180549.500,201607.400,0.000
207408.800,215295.000,222132.800,240846.300,685124.400,185069.900,180075.300,200294.700,0.000
208102.400,215640.300,222469.800,241357.800,685431.600,185411.000,180482.400,201006.400,0.000
209247.800,216284.500,223118.900,242094.300,686528.600,186049.200,181058.200,202480.300,0.000
209336.400,216369.200,223049.300,241967.800,686923.400,186125.300,181047.900,202696.900,0.000
208454.300,215900.300,222320.500,241160.300,686174.600,185652.300,180563.600,201628.800,0.000
207406.600,215287.400,221484.500,240362.100,685122.500,185062.400,180072.700,200296.500,0.000
208092.000,215622.900,221824.000,240870.500,685429.300,185395.200,180476.800,201002.500,0.000
209240.300,216269.100,222481.900,241613.700,686523.900,186033.800,181053.000,202478.700,0.000
209334.900,216361.000,222427.000,241500.000,686924.600,186116.800,181043.200,202701.300,0.000
208440.100,215879.700,221691.400,240686.900,686161.800,185628.800,180540.500,201617.000,0.000
207428.500,215303.000,220895.100,239925.700,685144.300,185071.500,180080.500,200318.900,0.000
208106.000,215632.800,221236.100,240434.200,685447.200,185402.300,180480.200,201019.300,0.000
209248.500,216273.300,221895.700,241181.000,686538.900,186036.600,181056.400,202488.800,0.000
209342.500,216364.700,221842.200,241068.000,686939.700,186115.600,181046.500,202706.500,0.000
208453.100,215883.400,221117.900,240263.400,686179.900,185632.900,180549.300,201627.300,0.000
207417.100,215283.000,220306.900,239486.800,685137.700,185053.300,180066.600,200305.400,0.000
208097.800,215615.800,220658.000,240004.600,685440.600,185385.900,180468.100,201007.400,0.000
209249.800,216265.600,221334.400,240767.500,686543.500,186032.900,181051.400,202490.500,0.000
209340.000,216352.500,221283.900,240659.500,686941.400,186109.000,181038.400,202711.000,0.000
208440.000,215864.000,220552.200,239847.500,686170.300,185613.400,180533.100,201621.700,0.000
207412.600,215279.800,219759.500,239082.100,685142.700,185047.500,180067.800,200314.700,0.000
208100.700,215622.500,220122.500,239609.200,685451.400,185385.600,180478.400,201022.800,0.000
209238.500,216256.300,220785.000,240355.100,686535.200,186012.900,181043.200,202487.400,0.000
209323.000,216336.300,220734.000,240246.100,686928.300,186083.500,181024.600,202703.200,0.000
208436.800,215859.400,220024.900,239453.300,686171.400,185602.800,180532.000,201624.300,0.000
207419.500,215281.100,219244.300,238701.300,685150.800,185046.200,180071.200,200318.500,0.000
208098.900,215616.900,219604.900,239225.000,685449.100,185379.600,180473.900,201013.700,0.000
209233.200,216246.900,220271.000,239971.500,686519.600,185999.900,181034.000,202470.800,0.000
209321.800,216329.800,220227.700,239865.100,686908.400,186071.500,181017.300,202687.100,0.000
208440.100,215855.600,219523.500,239075.300,686157.600,185595.100,180523.100,201614.000,0.000
207415.900,215270.700,218740.400,238316.300,685128.900,185032.500,180053.300,200300.800,0.000
208092.300,215605.200,219104.600,238841.700,685423.300,185366.400,180456.400,200992.000,0.000
209231.700,216239.100,219778.700,239598.700,686497.400,185993.900,181026.900,202457.300,0.000
209324.000,216325.100,219745.700,239500.700,686891.900,186074.200,181019.500,202680.800,0.000
208434.200,215845.700,219042.100,238709.600,686133.300,185592.000,180522.400,201605.000,0.000
207403.400,215257.100,218256.100,237948.900,685099.900,185024.700,180051.300,200289.600,0.000
208073.000,215586.200,218616.100,238470.200,685387.400,185353.500,180451.700,200976.500,0.000
209213.000,216223.000,219297.300,239230.600,686465.400,185985.600,181022.500,202444.300,0.000
209306.000,216311.800,219267.700,239134.700,686860.100,186065.500,181010.600,202668.900,0.000
208417.100,215829.400,218566.500,238343.300,686098.300,185578.200,180509.100,201593.700,0.000
207386.500,215240.100,217787.700,237589.500,685065.300,185011.000,180036.300,200279.200,0.000
208057.600,215573.500,218156.300,238117.900,685369.300,185342.700,180438.000,200963.200,0.000
209205.300,216216.800,218844.900,238887.200,686441.300,185977.300,181012.000,202436.300,0.000
209304.500,216310.000,218820.400,238799.900,686837.800,186058.900,181002.800,202667.800,0.000
208424.000,215833.000,218135.300,238024.300,686093.700,185585.700,180516.800,201601.800,0.000
207379.800,215230.600,217346.000,237255.800,685053.600,185003.400,180027.900,200265.900,0.000
208034.800,215548.400,217708.500,237770.500,685339.100,185322.200,180418.900,200934.600,0.000
209184.600,216196.500,218405.300,238543.700,686407.400,185958.500,180998.000,202407.300,0.000
209286.600,216294.200,218391.000,238461.300,686805.600,186044.000,180994.100,202644.900,0.000
208402.700,215817.400,217702.300,237678.300,686054.900,185562.900,180498.900,201573.600,0.000
207371.800,215229.600,216933.200,236925.800,685046.900,184997.200,180027.600,200253.000,0.000
208053.800,215574.000,217324.800,237474.400,685351.100,185340.100,180443.800,200944.500,0.000
209199.300,216208.900,218022.100,238250.300,686403.700,185973.500,181017.200,202415.100,0.000
209274.300,216274.900,217985.100,238140.100,686770.700,186029.100,180982.900,202622.700,0.000
208399.100,215804.600,217306.800,237367.000,686028.400,185554.600,180492.200,201561.700,0.000
207375.500,215221.800,216549.100,236628.500,685053.900,184996.600,180031.300,200252.600,0.000
208037.200,215548.100,216923.900,237155.700,685344.800,185319.000,180428.300,200927.300,0.000
209187.800,216192.000,217627.900,237933.300,686393.800,185954.200,181005.800,202403.700,0.000
209280.200,216274.600,217608.800,237846.100,686774.300,186022.800,180988.200,202629.800,0.000
208411.800,215810.900,216938.500,237080.500,686043.800,185552.900,180503.300,201575.300,0.000
207378.100,215220.600,216172.900,236333.000,685062.100,184983.100,180031.200,200253.900,0.000
208043.300,215552.300,216551.300,236864.400,685333.600,185310.400,180433.100,200928.200,0.000
209185.300,216184.700,217248.600,237634.400,686378.300,185940.100,181004.400,202397.600,0.000
209286.500,216276.300,217242.500,237555.000,686779.800,186020.400,180996.800,202634.100,0.000
208410.300,215805.800,216568.400,236784.000,686045.100,185544.000,180505.400,201573.100,0.000
207370.900,215207.400,215798.100,236029.000,685045.900,184966.300,180022.100,200240.700,0.000
208029.300,215533.400,216180.300,236563.300,685324.400,185292.900,180420.100,200908.800,0.000
209184.600,216178.800,216893.600,237351.800,686381.300,185933.700,181001.000,202391.300,0.000
209299.800,216280.200,216901.000,237287.600,686788.500,186024.300,181003.500,202640.900,0.000
208427.400,215808.100,216236.700,236523.800,686052.400,185552.300,180516.400,201582.200,0.000
207382.500,215209.300,215469.000,235768.800,685041.600,184973.500,180035.800,200247.900,0.000
208042.700,215543.300,215854.000,236303.900,685337.900,185302.000,180436.000,200919.400,0.000
209189.200,216182.400,216560.600,237087.000,686391.800,185937.600,181006.800,202392.900,0.000
209293.700,216272.900,216560.600,237014.700,686793.600,186021.400,180998.200,202635.800,0.000
208421.400,215801.900,215896.600,236251.000,686059.800,185546.600,180508.500,201578.200,0.000
207380.300,215210.100,215133.900,235499.900,685023.700,184974.900,180032.400,200248.300,0.000
208028.600,215526.300,215510.900,236023.300,685301.500,185290.500,180422.100,200903.100,0.000
209182.800,216170.200,216228.300,236810.800,686370.900,185925.500,180998.900,202383.600,0.000
209280.200,216253.900,216226.400,236736.300,686767.800,186005.100,180988.000,202625.100,0.000
208403.700,215777.000,215561.800,235975.700,686034.400,185530.700,180496.300,201570.400,0.000
207365.500,215185.900,214801.000,235227.400,685062.300,184956.800,180015.700,200239.800,0.000
208022.200,215518.400,215185.300,235760.300,685340.100,185278.600,180408.900,200895.100,0.000
209193.200,216177.000,215923.200,236568.500,686397.800,185932.900,181000.100,202386.700,0.000
209319.500,216288.500,215949.300,236517.600,686818.700,186036.200,181009.800,202648.700,0.000
208437.900,215805.800,215281.200,235747.200,686079.400,185554.600,180509.800,201586.500,0.000
207384.300,215202.900,214513.200,234985.500,685029.800,184969.900,180020.200,200247.600,0.000
208029.800,215522.300,214893.100,235513.000,685303.300,185286.400,180410.500,200898.600,0.000
209192.300,216173.800,215622.500,236315.800,686383.700,185929.900,180993.300,202386.600,0.000
209296.900,216264.100,215630.500,236247.800,686788.700,186009.800,180983.200,202632.200,0.000
208434.200,215802.300,214982.200,235495.700,686065.600,185546.100,180502.700,201590.500,0.000
207387.000,215202.600,214223.400,234745.600,685048.200,184972.200,180023.100,200255.700,0.000
208004.100,215492.000,214577.500,235246.700,685303.400,185264.300,180387.000,200878.400,0.000
209179.200,216152.800,215321.000,236059.400,686378.200,185917.600,180982.800,202377.500,0.000
209300.300,216255.900,215347.700,236009.500,686793.300,186013.200,180991.700,202639.500,0.000
208438.000,215796.400,214700.900,235263.700,686069.100,185550.200,180514.000,201597.300,0.000
207390.300,215197.400,213940.000,234516.600,685038.300,184972.500,180027.500,200255.900,0.000
208025.300,215507.800,214316.300,235040.800,685297.600,185285.100,180411.400,200894.300,0.000
209184.000,216154.300,215051.200,235843.800,686369.200,185928.400,180995.100,202383.100,0.000
209297.200,216248.800,215068.700,235784.900,686774.900,186011.700,180987.300,202632.400,0.000
208443.600,215793.200,214430.000,235044.300,686057.900,185552.600,180510.800,201597.200,0.000
207402.600,215200.600,213679.800,234303.900,685045.300,184980.500,180032.400,200266.700,0.000
208030.200,215505.900,214053.500,234822.300,685308.600,185286.200,180410.200,200898.000,0.000
209194.500,216154.900,214793.600,235631.100,686378.400,185934.200,180999.000,202391.400,0.000
209307.000,216251.000,214814.700,235577.500,686788.600,186021.000,180999.700,202645.600,0.000
208439.800,215783.700,214161.700,234823.100,686055.800,185545.500,180508.900,201594.900,0.000
207397.500,215192.200,213415.500,234082.000,685027.400,184977.100,180035.500,200264.800,0.000
208019.100,215493.300,213785.900,234597.900,685289.900,185281.700,180412.400,200896.600,0.000
209184.100,216145.200,214525.000,235406.900,686367.300,185928.500,180998.100,202387.800,0.000
209289.100,216232.500,214541.400,235343.600,686769.800,186007.400,180984.400,202634.600,0.000
208429.100,215770.400,213902.300,234599.700,686051.800,185546.000,180502.700,201598.200,0.000
207382.100,215173.600,213148.800,233853.200,685026.600,184974.400,180021.200,200258.400,0.000
208001.000,215473.800,213519.800,234366.200,685267.800,185274.300,180393.400,200878.200,0.000
209160.900,216119.400,214258.000,235174.000,686334.100,185915.500,180976.400,202364.600,0.000
209285.200,216224.800,214293.700,235132.800,686757.800,186014.000,180984.000,202634.900,0.000
208431.100,215765.000,213662.800,234395.500,686044.300,185556.500,180506.300,201601.500,0.000
207371.200,215155.800,212903.400,233642.300,685049.400,184969.600,180011.500,200251.300,0.000
208002.500,215468.000,213286.500,234169.000,685314.500,185282.800,180397.700,200885.800,0.000
209167.200,216116.200,214022.700,234978.900,686357.600,185921.100,180979.000,202368.300,0.000
209297.800,216226.600,214059.900,234941.300,686785.900,186019.500,180986.800,202639.300,0.000
208439.100,215765.900,213421.500,234197.700,686066.400,185554.000,180502.900,201601.800,0.000
207385.400,215168.900,212671.900,233452.600,685029.400,184976.200,180022.400,200263.700,0.000
207986.900,215459.000,213032.800,233961.200,685270.200,185264.200,180384.800,200870.800,0.000
209158.400,216114.800,213783.000,234781.000,686350.900,185913.400,180975.300,202365.600,0.000
209293.300,216223.800,213829.200,234752.100,686778.500,186014.500,180988.900,202643.200,0.000
208444.100,215771.600,213206.300,234023.200,686069.700,185560.300,180516.300,201617.400,0.000
207376.800,215160.900,212444.000,233266.000,685018.900,184969.500,180018.400,200259.800,0.000
207984.500,215455.500,212806.300,233769.300,685260.200,185260.500,180378.000,200864.400,0.000
209151.900,216107.600,213553.300,234585.500,686338.100,185905.800,180963.900,202355.500,0.000
209282.500,216214.900,213597.700,234555.400,686764.100,186004.200,180975.000,202630.700,0.000
208415.400,215740.100,212955.900,233816.400,686042.700,185527.500,180487.500,201595.700,0.000
207349.400,215125.800,212194.600,233066.700,685053.200,184936.100,179994.400,200243.500,0.000
207985.000,215456.600,212585.100,233590.000,685299.300,185258.200,180375.600,200854.400,0.000
209182.100,216144.400,213361.800,234427.100,686390.100,185937.700,180981.700,202367.200,0.000
209300.400,216233.500,213398.100,234394.400,686819.800,186024.100,180985.600,202646.200,0.000
208417.000,215735.700,212744.700,233648.700,686074.400,185529.200,180489.400,201604.600,0.000
207359.300,215134.500,211995.800,232904.700,685056.100,184947.500,180008.400,200254.700,0.000
207983.100,215460.000,212377.200,233415.400,685305.400,185262.100,180382.300,200854.400,0.000
209186.800,216156.300,213158.000,234258.000,686413.100,185943.500,180994.900,202372.300,0.000
209313.300,216252.200,213202.700,234234.600,686849.100,186034.700,181006.800,202661.100,0.000
208416.100,215740.500,212539.100,233478.500,686091.700,185530.700,180502.700,201608.800,0.000
207337.600,215119.100,211773.000,232723.000,685015.400,184928.900,180004.700,200243.800,0.000
207962.900,215445.100,212160.700,233238.700,685269.900,185246.400,180381.600,200844.200,0.000
209158.100,216127.800,212933.400,234071.800,686378.600,185919.400,180981.500,202351.700,0.000
209286.800,216228.800,212979.700,234048.100,686821.600,186015.900,180992.500,202644.800,0.000
208411.100,215742.200,212339.900,233314.600,686083.400,185532.000,180506.400,201610.700,0.000
207336.000,215124.100,211582.000,232559.500,685031.400,184937.700,180010.100,200244.300,0.000
207973.900,215459.900,211982.100,233087.900,685285.100,185262.800,180396.300,200853.000,0.000
209174.400,216147.400,212758.100,233923.400,686391.600,185939.600,181001.000,202367.500,0.000
209295.100,216237.500,212795.000,233889.500,686828.600,186028.600,181004.200,202655.400,0.000
208411.600,215737.100,212144.600,233148.600,686081.800,185532.800,180508.000,201617.900,0.000
207337.100,215117.600,211382.600,232395.500,685034.500,184934.300,180013.000,200252.300,0.000
207974.800,215456.700,211782.600,232924.500,685292.600,185265.000,180405.800,200859.800,0.000
209161.700,216127.300,212547.300,233749.500,686386.400,185926.400,180999.200,202360.700,0.000
209274.200,216205.800,212579.900,233713.500,686816.800,186002.800,180992.900,202639.500,0.000
208402.600,215721.400,211944.400,232979.200,686080.800,185517.100,180502.700,201609.200,0.000
207336.400,215114.500,211196.100,232230.700,685023.300,184935.900,180017.000,200253.200,0.000
207963.100,215447.200,211588.200,232749.200,685269.500,185254.900,180393.900,200847.600,0.000
209169.200,216140.100,212373.200,233596.000,686386.600,185931.100,181000.700,202365.500,0.000
209291.300,216232.000,212420.300,233570.700,686827.500,186019.200,181004.700,202655.700,0.000
208402.700,215725.500,211763.100,232819.200,686076.600,185513.300,180497.400,201606.000,0.000
207311.400,215091.200,210987.900,232047.500,685025.200,184900.900,179986.900,200223.800,0.000
207936.800,215421.800,211381.500,232569.500,685275.600,185223.100,180370.000,200820.900,0.000
209151.900,216122.400,212177.600,233426.000,686392.300,185915.100,180988.300,202349.900,0.000
209290.400,216226.000,212237.700,233414.500,686847.100,186017.500,181003.600,202657.300,0.000
208418.900,215738.300,211604.300,232686.200,686112.900,185536.500,180516.700,201634.500,0.000
207342.200,215120.400,210843.600,231929.000,685033.500,184943.800,180020.700,200261.900,0.000
207951.300,215439.200,211220.100,232433.100,685263.100,185250.900,180388.800,200836.700,0.000
209146.200,216119.100,211996.300,233271.000,686376.100,185921.000,180988.600,202344.600,0.000
209277.400,216213.000,212050.700,233255.000,686823.600,186014.400,180998.100,202643.100,0.000
208399.700,215714.100,211410.000,232517.300,686080.800,185516.700,180499.200,201610.100,0.000
207333.800,215105.900,210664.300,231771.500,685007.300,184929.700,180010.900,200252.200,0.000
207949.100,215428.500,211052.600,232280.500,685256.400,185243.000,180384.800,200831.100,0.000
209143.800,216105.100,211830.500,233118.300,686368.400,185909.600,180983.300,202336.400,0.000
209277.300,216203.100,211886.400,233102.200,686811.400,186003.500,180994.400,202637.700,0.000
208405.100,215713.800,211251.800,232373.200,686079.900,185515.600,180504.700,201611.900,0.000
207329.700,215099.100,210492.200,231614.700,685026.300,184916.300,180004.800,200238.800,0.000
207947.000,215425.800,210878.900,232129.000,685251.500,185230.300,180383.400,200821.000,0.000
209156.300,216117.400,211667.500,232980.600,686363.400,185912.300,180994.100,202342.000,0.000
209312.000,216234.800,211745.300,232988.600,686836.900,186031.000,181025.400,202667.500,0.000
208442.200,215742.600,211114.600,232258.600,686102.500,185543.000,180534.000,201644.400,0.000
207340.500,215101.800,210336.100,231479.700,685035.900,184921.000,180008.100,200248.700,0.000
207941.100,215414.500,210711.600,231982.400,685254.800,185219.300,180368.100,200810.200,0.000
209158.600,216115.800,211514.500,232846.900,686367.600,185910.900,180990.000,202341.600,0.000
209289.500,216209.500,211569.400,232832.100,686816.400,186003.700,180999.900,202643.900,0.000
208428.600,215727.800,210942.500,232110.500,686089.900,185521.500,180513.000,201628.000,0.000
207350.700,215109.100,210187.000,231357.000,685013.500,184927.600,180015.200,200258.300,0.000
207957.400,215426.600,210573.500,231864.100,685242.000,185239.700,180389.700,200831.300,0.000
209173.400,216125.500,211372.900,232724.500,686371.800,185929.200,181009.900,202359.400,0.000
209300.700,216212.400,211421.100,232704.100,686820.600,186018.600,181013.300,202657.300,0.000
208425.600,215715.200,210784.400,231972.100,686083.600,185526.500,180514.800,201630.200,0.000
207351.700,215102.500,210029.400,231220.100,685024.100,184931.100,180015.200,200257.900,0.000
207958.100,215420.100,210415.100,231734.500,685263.800,185243.900,180387.400,200827.200,0.000
209167.500,216110.800,211209.600,232587.200,686372.700,185925.800,180998.100,202350.700,0.000
209300.500,216204.400,211266.400,232570.000,686817.800,186016.400,181000.900,202653.300,0.000
208428.900,215711.000,210634.300,231837.600,686086.800,185526.500,180505.400,201629.700,0.000
207326.700,215070.600,209862.800,231067.900,685037.000,184913.000,179992.900,200239.200,0.000
207929.500,215390.300,210245.700,231578.500,685263.700,185216.400,180361.000,200799.500,0.000
209154.800,216098.000,211053.400,232450.400,686375.400,185910.200,180983.900,202336.800,0.000
209301.500,216205.000,211123.000,232450.300,686837.300,186015.000,181006.500,202657.500,0.000
208441.200,215721.300,210500.000,231731.200,686114.400,185533.000,180522.900,201646.100,0.000
207362.200,215109.300,209751.400,230981.500,685039.100,184942.200,180030.400,200279.600,0.000
207948.100,215410.800,210125.900,231477.200,685253.000,185236.700,180389.100,200828.000,0.000
209160.800,216104.200,210923.700,232335.500,686378.800,185915.500,180999.400,202349.500,0.000
209295.400,216199.800,210983.400,232323.900,686833.200,186009.800,181007.900,202655.900,0.000
208432.800,215711.700,210362.000,231603.600,686107.400,185526.200,180519.200,201639.700,0.000
207336.700,215081.200,209598.600,230839.400,685037.600,184921.900,180013.100,200259.700,0.000
207916.400,215378.600,209965.000,231330.500,685242.600,185215.500,180367.700,200808.800,0.000
209146.400,216091.500,210777.100,232200.900,686370.300,185909.100,180993.500,202346.200,0.000
209276.000,216182.100,210832.300,232185.900,686816.200,185991.800,180995.400,202647.100,0.000
208429.700,215711.900,210226.800,231482.500,686109.600,185525.700,180523.000,201647.200,0.000
207346.500,215093.400,209474.800,230727.000,685032.100,184930.600,180023.500,200271.500,0.000
207919.800,215384.200,209835.100,231210.300,685240.900,185214.900,180366.200,200805.600,0.000
209127.200,216071.300,210630.700,232067.400,686354.000,185894.600,180973.400,202326.700,0.000
209279.800,216183.800,210707.500,232073.200,686816.100,186001.800,180996.700,202648.500,0.000
208426.300,215707.700,210090.100,231360.800,686102.500,185526.700,180517.400,201643.500,0.000
207328.800,215072.400,209326.300,230596.800,685030.700,184916.300,180007.200,200258.300,0.000
207915.100,215376.300,209703.000,231095.500,685254.800,185212.000,180365.700,200804.900,0.000
209144.300,216079.600,210515.400,231968.000,686368.300,185903.000,180987.400,202337.400,0.000
209286.900,216175.900,210578.200,231962.800,686815.800,185997.300,180994.300,202645.900,0.000
208431.300,215692.300,209958.200,231246.000,686097.000,185517.300,180509.900,201637.100,0.000
207336.300,215063.000,209196.000,230480.700,685027.600,184910.900,180004.000,200253.000,0.000
207918.100,215368.600,209574.100,230978.700,685249.900,185206.400,180364.400,200796.600,0.000
209161.800,216089.700,210404.700,231868.200,686381.900,185912.300,181002.500,202348.000,0.000
209303.400,216181.300,210464.300,231856.700,686828.800,186000.900,181004.700,202659.600,0.000
208440.700,215685.400,209835.100,231131.400,686103.600,185515.500,180509.400,201643.200,0.000
207349.000,215059.000,209074.900,230369.000,685037.600,184914.900,180005.100,200260.500,0.000
207930.100,215365.300,209446.900,230866.700,685257.100,185210.400,180362.800,200798.000,0.000
209154.800,216067.000,210259.100,231737.000,686367.800,185897.200,180983.300,202327.900,0.000
209295.800,216165.800,210325.500,231732.900,686819.800,185991.500,180994.000,202641.300,0.000
208451.000,215694.000,209717.800,231028.900,686114.400,185522.300,180520.900,201648.400,0.000
207342.500,215050.000,208943.600,230252.200,685019.100,184902.800,179999.900,200249.900,0.000
207917.100,215350.800,209313.600,230743.400,685231.600,185192.100,180351.400,200780.100,0.000
209156.800,216070.100,210142.100,231630.600,686363.400,185894.800,180985.600,202328.700,0.000
209303.800,216172.600,210214.400,231630.000,686822.900,185989.900,180995.800,202654.000,0.000
208468.200,215706.900,209614.400,230932.100,686123.100,185526.900,180524.800,201670.400,0.000
207368.200,215074.200,208850.300,230166.600,685039.300,184920.000,180014.700,200283.500,0.000
207933.700,215371.600,209213.200,230653.000,685243.600,185204.300,180363.500,200803.700,0.000
209153.700,216071.500,210024.400,231524.100,686360.700,185893.000,180982.800,202334.500,0.000
209312.300,216182.700,210106.900,231535.400,686831.100,185999.200,181006.500,202666.600,0.000
208478.700,215720.800,209510.600,230840.400,686138.000,185538.800,180537.200,201685.000,0.000
207381.600,215091.200,208749.800,230073.800,685042.800,184936.700,180024.700,200297.200,0.000
207936.000,215371.200,209100.300,230549.100,685231.000,185211.300,180358.200,200802.900,0.000
209151.900,216060.800,209899.500,231409.800,686343.300,185883.400,180964.100,202322.700,0.000
209307.400,216168.500,209978.200,231419.000,686814.000,185987.600,180984.000,202655.900,0.000
208456.900,215689.100,209367.400,230711.000,686104.800,185510.600,180501.600,201660.600,0.000
207357.800,215061.300,208611.400,229950.400,685010.200,184906.900,179996.000,200275.000,0.000
207928.100,215364.300,208987.000,230447.600,685220.300,185203.100,180355.500,200804.100,0.000
209153.200,216063.600,209800.000,231324.200,686341.600,185889.000,180973.100,202334.000,0.000
209319.100,216181.600,209889.100,231341.000,686818.600,185999.600,181000.500,202674.800,0.000
208474.200,215706.100,209279.000,230632.700,686111.500,185523.200,180519.200,201683.500,0.000
207363.800,215067.100,208511.800,229859.600,685013.800,184909.600,180002.900,200288.300,0.000
207904.800,215340.600,208861.300,230328.800,685200.900,185179.300,180336.800,200787.900,0.000
209130.500,216041.500,209677.500,231204.900,686321.300,185869.700,180959.000,202322.800,0.000
209306.600,216168.200,209774.300,231228.600,686803.800,185989.300,180993.200,202670.400,0.000
208464.500,215693.000,209170.600,230523.500,686102.400,185517.600,180513.400,201680.800,0.000
207368.500,215066.300,208414.300,229763.700,685026.600,184915.800,180008.900,200295.900,0.000
207922.000,215352.000,208773.700,230246.500,685222.100,185199.100,180355.000,200805.000,0.000
209149.600,216054.800,209587.700,231122.800,686332.600,185887.400,180978.800,202337.700,0.000
209321.200,216175.500,209679.000,231144.000,686817.100,186003.500,181009.400,202684.600,0.000
208472.900,215692.600,209069.100,230436.300,686113.000,185526.200,180524.200,201691.800,0.000
207376.600,215070.700,208307.500,229669.700,685040.400,184918.600,180015.000,200301.500,0.000
207926.000,215354.800,208659.700,230144.200,685219.500,185191.900,180354.700,200799.400,0.000
209153.600,216055.000,209475.000,231020.700,686327.700,185879.700,180973.000,202331.200,0.000
209324.600,216176.200,209572.500,231047.000,686818.900,186000.000,181004.600,202682.300,0.000
208486.400,215703.900,208971.400,230346.300,686124.600,185533.800,180528.000,201699.700,0.000
207383.900,215074.100,208207.000,229578.800,685023.400,184926.100,180010.900,200300.300,0.000
207917.600,215350.500,208552.000,230045.800,685189.600,185190.100,180338.700,200783.200,0.000
209148.300,216053.000,209370.000,230930.500,686311.900,185879.500,180962.400,202318.700,0.000
209323.500,216171.900,209464.200,230955.800,686794.400,185995.800,180994.400,202667.100,0.000
208496.300,215709.600,208875.800,230267.400,686106.900,185535.800,180527.700,201692.000,0.000
207391.900,215079.800,208116.100,229500.800,685057.700,184929.400,180015.900,200300.400,0.000
207934.100,215360.900,208468.100,229976.600,685250.300,185201.600,180353.900,200795.400,0.000
209165.500,216062.200,209284.800,230859.800,686343.800,185890.600,180976.900,202331.200,0.000
209331.000,216170.700,209371.600,230876.900,686820.700,186000.000,181001.200,202676.700,0.000
208497.600,215700.800,208773.700,230175.600,686128.400,185534.000,180525.600,201697.100,0.000
207393.900,215069.500,208013.600,229406.400,685031.800,184927.500,180015.600,200303.000,0.000
207930.400,215346.900,208364.800,229878.600,685205.400,185201.900,180357.500,200794.200,0.000
209150.000,216039.500,209172.000,230748.100,686320.300,185884.400,180969.900,202322.500,0.000
209336.100,216171.000,209276.100,230783.500,686814.900,186011.000,181009.800,202683.700,0.000
208495.400,215693.200,208672.900,230081.500,686116.600,185537.000,180526.600,201699.100,0.000
207373.000,215044.200,207893.700,229297.400,685034.300,184914.100,179996.000,200286.500,0.000
207917.500,215331.600,208250.900,229775.100,685216.800,185192.300,180338.900,200778.000,0.000
209148.500,216034.500,209073.800,230659.100,686325.800,185882.200,180964.500,202316.600,0.000
209324.500,216156.400,209174.300,230687.700,686810.100,185993.800,180994.300,202671.200,0.000
208512.500,215710.300,208599.500,230009.600,686145.300,185547.700,180538.900,201718.700,0.000
207374.900,215047.500,207807.200,229208.800,685036.300,184911.200,179998.000,200295.600,0.000
207893.000,215307.800,208142.500,229668.600,685195.400,185169.400,180326.800,200766.900,0.000
209136.100,216024.500,208972.400,230561.700,686315.400,185864.400,180957.900,202307.500,0.000
209320.300,216150.600,209077.700,230598.300,686810.500,185986.700,180995.100,202671.000,0.000
208496.700,215688.400,208488.400,229910.400,686133.800,185531.500,180528.500,201706.800,0.000
207383.300,215050.000,207720.300,229135.000,685040.300,184917.000,180009.900,200303.600,0.000
207899.000,215308.900,208054.800,229591.100,685198.700,185167.500,180331.600,200769.700,0.000
209119.600,216002.300,208867.400,230465.200,686303.400,185845.900,180945.100,202300.900,0.000
209319.300,216144.300,208983.500,230509.400,686806.900,185981.700,180992.000,202675.300,0.000
208511.300,215697.000,208413.700,229838.300,686140.600,185538.200,180536.100,201720.800,0.000
207399.100,215063.400,207654.500,229069.000,685041.800,184928.700,180019.700,200320.200,0.000
207920.200,215332.100,207995.000,229528.100,685196.900,185191.900,180344.700,200787.600,0.000
209147.800,216029.200,208812.900,230410.500,686314.200,185880.300,180965.700,202321.200,0.000
209325.500,216147.000,208910.600,230441.300,686804.500,185996.500,180998.300,202680.000,0.000
208494.100,215674.400,208311.700,229741.600,686115.400,185523.800,180516.200,201699.400,0.000
207391.900,215048.600,207552.800,228976.000,685022.700,184919.200,180004.800,200303.200,0.000
207907.000,215311.600,207884.500,229432.400,685170.300,185174.400,180327.300,200762.600,0.000
209149.100,216022.900,208713.600,230326.100,686297.900,185871.800,180960.100,202308.600,0.000
209341.900,216157.300,208827.600,230370.800,686802.900,185999.700,181003.200,202682.700,0.000
208503.900,215678.400,208229.600,229672.400,686113.100,185528.300,180520.100,201705.600,0.000
207394.100,215044.300,207465.900,228905.300,685015.800,184919.900,180005.500,200307.400,0.000
207919.400,215321.300,207811.200,229372.700,685177.500,185191.500,180340.900,200781.100,0.000
209143.100,216017.600,208622.100,230249.000,686292.800,185875.200,180956.500,202314.000,0.000
209332.000,216147.500,208728.600,230286.700,686802.400,185998.400,180993.600,202687.100,0.000
208509.700,215683.900,208142.500,229598.300,686126.800,185535.000,180521.000,201721.200,0.000
207391.000,215042.500,207372.700,228820.800,685030.100,184916.700,179998.700,200314.600,0.000
207901.900,215305.700,207706.700,229272.100,685185.400,185171.600,180322.900,200771.300,0.000
209143.800,216014.500,208534.700,230163.900,686302.100,185864.500,180955.100,202315.800,0.000
209337.000,216147.500,208649.900,230205.000,686805.900,185993.600,181000.200,202691.700,0.000
208518.600,215688.200,208068.300,229521.500,686135.400,185536.800,180535.600,201731.800,0.000
207398.400,215044.800,207299.100,228743.700,685029.300,184918.000,180013.300,200323.100,0.000
207904.200,215304.000,207629.800,229194.400,685170.800,185173.300,180337.500,200777.300,0.000
209137.100,216004.700,208452.200,230080.800,686285.600,185861.300,180962.000,202314.700,0.000
209327.500,216134.800,208564.600,230122.000,686791.600,185988.300,181006.800,202693.200,0.000
208508.500,215675.600,207980.500,229439.800,686121.500,185531.900,180537.800,201736.100,0.000
207389.600,215033.900,207204.400,228658.500,685025.400,184910.300,180007.800,200323.000,0.000
207889.700,215288.300,207531.000,229106.500,685160.400,185158.500,180323.400,200766.600,0.000
209130.800,215993.900,208360.700,229999.500,686268.300,185850.800,180949.100,202303.500,0.000
209340.900,216138.400,208489.700,230058.400,686792.500,185991.900,181003.800,202695.400,0.000
208532.900,215688.600,207919.300,229386.100,686134.900,185543.300,180548.100,201750.500,0.000
207394.500,215026.900,207131.200,228590.200,685050.300,184906.900,180007.000,200322.100,0.000
207894.400,215280.800,207457.200,229035.100,685180.300,185154.000,180323.200,200759.000,0.000
209160.100,216010.500,208309.800,229950.200,686291.400,185864.700,180969.900,202320.900,0.000
209365.300,216155.100,208437.500,230007.200,686815.600,186003.300,181024.400,202714.600,0.000
208538.100,215685.000,207846.600,229316.500,686140.300,185537.600,180551.100,201750.500,0.000
207411.600,215039.700,207067.100,228529.300,685040.800,184912.400,180021.200,200330.900,0.000
207905.800,215292.500,207391.400,228974.600,685168.300,185157.400,180333.400,200765.100,0.000
209150.600,216002.300,208226.100,229871.400,686279.400,185852.000,180963.700,202309.300,0.000
209348.600,216138.000,208341.400,229918.500,686789.700,185982.300,181005.300,202691.700,0.000
208543.900,215694.000,207775.000,229251.400,686136.600,185538.500,180552.700,201754.100,0.000
207424.600,215057.300,207009.600,228479.400,685051.100,184925.900,180034.600,200346.400,0.000
207900.100,215292.400,207318.300,228909.500,685185.900,185156.600,180331.100,200761.100,0.000
209151.800,216012.300,208156.500,229813.300,686291.400,185856.200,180964.000,202311.300,0.000
209352.600,216149.900,208275.700,229864.900,686801.800,185988.700,181006.800,202697.500,0.000
208541.300,215694.400,207697.300,229188.600,686139.900,185535.000,180540.300,201748.900,0.000
207411.800,215046.900,206925.200,228406.000,685042.300,184915.600,180011.200,200335.200,0.000
207893.000,215290.900,207241.000,228843.800,685172.800,185155.700,180320.100,200758.600,0.000
209137.800,216002.000,208074.300,229745.700,686284.700,185852.600,180954.300,202305.900,0.000
209346.100,216145.000,208198.300,229804.500,686805.900,185990.800,181007.100,202702.700,0.000
208531.200,215688.800,207618.000,229126.100,686145.800,185538.400,180542.800,201757.200,0.000
207391.200,215034.300,206834.100,228332.300,685049.600,184905.800,180005.700,200329.800,0.000
207875.200,215283.800,207151.800,228768.500,685183.800,185145.600,180317.300,200751.600,0.000
209123.800,215995.300,207985.100,229668.100,686285.900,185842.200,180949.500,202297.700,0.000
209337.000,216139.500,208115.700,229731.700,686811.800,185983.600,181003.200,202696.100,0.000
208526.800,215685.900,207537.700,229054.100,686150.100,185528.800,180535.900,201750.200,0.000
207391.100,215036.400,206762.800,228268.000,685041.600,184908.000,180007.800,200333.000,0.000
207875.100,215282.000,207082.700,228705.800,685157.800,185149.300,180317.900,200752.900,0.000
209129.600,215997.600,207920.200,229611.900,686277.600,185849.600,180956.700,202305.700,0.000
209326.500,216125.900,208031.100,229655.400,686790.200,185972.500,180996.700,202693.000,0.000
208523.800,215679.300,207464.500,228985.700,686141.600,185528.900,180541.000,201762.400,0.000
207395.000,215037.800,206691.800,228201.400,685034.300,184911.000,180016.800,200349.500,0.000
207856.900,215268.900,206996.200,228624.700,685145.600,185140.900,180316.800,200753.400,0.000
209103.300,215978.600,207830.200,229524.400,686260.000,185834.900,180946.100,202295.200,0.000
209314.600,216121.700,207958.700,229581.600,686778.900,185972.600,180997.300,202693.100,0.000
208519.100,215677.900,207396.800,228916.600,686132.800,185532.800,180545.600,201762.500,0.000
207378.900,215016.700,206610.700,228121.100,685055.900,184901.500,180005.000,200330.800,0.000
207856.800,215260.200,206924.000,228555.200,685191.400,185142.200,180312.700,200741.700,0.000
209109.800,215975.200,207761.600,229460.600,686279.900,185843.000,180946.600,202293.500,0.000
209327.100,216123.400,207896.500,229529.700,686810.100,185989.600,181006.200,202705.200,0.000
208526.300,215676.100,207328.500,228862.700,686165.300,185546.800,180549.500,201773.600,0.000
207376.000,215018.000,206537.700,228061.200,685046.300,184914.100,180008.500,200339.500,0.000
207852.400,215268.100,206857.100,228500.500,685180.700,185162.400,180325.900,200755.300,0.000
209092.400,215969.700,207682.900,229391.600,686281.800,185847.200,180948.000,202292.000,0.000
209309.200,216114.400,207815.300,229454.500,686805.800,185986.700,181003.400,202697.100,0.000
208506.900,215663.500,207243.900,228781.100,686155.300,185536.400,180542.200,201762.300,0.000
207381.200,215022.800,206475.600,228000.500,685049.500,184919.300,180016.400,200344.000,0.000
207848.700,215260.300,206785.400,228424.000,685158.400,185148.300,180318.600,200740.000,0.000
209097.600,215970.100,207622.900,229329.600,686267.900,185845.200,180954.000,202290.500,0.000
209320.800,216121.600,207758.800,229398.200,686796.600,185990.500,181011.000,202704.300,0.000
208520.400,215672.800,207191.700,228728.400,686151.100,185543.000,180551.700,201773.000,0.000
207384.700,215023.600,206411.400,227938.900,685047.900,184918.600,180017.700,200346.800,0.000
207851.800,215263.000,206719.300,228364.300,685155.800,185151.100,180318.300,200745.000,0.000
209116.400,215987.500,207572.200,229283.600,686277.900,185861.200,180964.300,202307.100,0.000
209330.100,216126.900,207702.300,229345.700,686805.500,185999.300,181015.300,202713.300,0.000
208528.000,215676.100,207134.800,228677.000,686156.500,185550.900,180556.500,201780.200,0.000
207393.500,215027.700,206359.300,227891.400,685066.600,184926.600,180028.500,200355.800,0.000
207843.800,215251.000,206652.300,228303.700,685181.900,185143.400,180318.100,200738.400,0.000
209101.900,215969.600,207496.500,229216.300,686283.200,185845.900,180959.200,202295.500,0.000
209326.600,216119.000,207634.100,229284.600,686810.900,185989.700,181017.600,202709.700,0.000
208542.300,215682.100,207078.100,228629.100,686181.000,185555.300,180570.700,201792.500,0.000
207391.500,215018.900,206286.300,227826.800,685055.200,184915.100,180027.800,200353.200,0.000
207846.000,215254.300,206586.500,228244.800,685160.800,185140.800,180325.100,200739.000,0.000
209105.000,215972.000,207432.500,229158.200,686280.100,185843.900,180967.900,202297.200,0.000
209330.400,216120.100,207570.600,229229.900,686815.900,185988.300,181027.200,202713.000,0.000
208550.000,215686.700,207019.300,228579.800,686184.200,185558.300,180580.100,201797.300,0.000
207402.800,215024.200,206233.400,227778.300,685047.800,184921.600,180032.800,200357.300,0.000
207846.000,215244.300,206525.800,228185.700,685141.600,185136.200,180321.200,200731.300,0.000
209102.500,215961.600,207367.800,229098.500,686258.400,185835.400,180957.600,202286.200,0.000
209335.200,216119.100,207513.700,229177.900,686803.300,185989.100,181025.500,202713.700,0.000
208556.600,215685.500,206965.400,228524.800,686176.100,185559.100,180583.200,201801.400,0.000
207414.000,215027.600,206181.100,227726.300,685053.800,184929.400,180045.000,200368.100,0.000
207847.400,215238.300,206459.000,228121.700,685127.900,185136.200,180323.400,200726.600,0.000
209107.400,215955.200,207307.100,229040.200,686244.900,185841.900,180967.600,202285.200,0.000
209345.300,216116.500,207458.500,229125.300,686798.100,185999.500,181037.400,202717.900,0.000
208558.000,215674.600,206900.200,228463.800,686165.400,185559.000,180581.500,201796.900,0.000
207401.500,215004.900,206103.900,227654.100,685056.300,184914.100,180029.200,200351.000,0.000
207842.000,215224.900,206393.600,228060.300,685141.400,185130.000,180319.500,200718.500,0.000
209102.800,215943.800,207239.200,228976.300,686243.100,185832.100,180959.100,202275.700,0.000
209336.100,216099.600,207386.000,229055.800,686790.800,185985.100,181023.500,202706.500,0.000
208559.600,215668.700,206838.900,228406.200,686164.200,185556.500,180578.500,201798.100,0.000
207414.200,215012.600,206053.900,227609.700,685034.600,184924.200,180037.800,200361.100,0.000
207849.700,215233.900,206340.600,228017.100,685124.600,185140.200,180323.300,200726.000,0.000
209107.700,215951.000,207183.500,228931.900,686241.900,185839.400,180960.000,202280.100,0.000
209324.500,216091.400,207312.400,228996.000,686766.700,185972.900,181009.900,202691.800,0.000
208548.200,215661.600,206767.500,228348.400,686143.000,185546.400,180569.300,201789.100,0.000
207413.100,215019.000,205994.000,227555.800,685070.300,184926.800,180039.000,200364.800,0.000
207839.600,215232.200,206274.500,227952.000,685157.600,185133.600,180318.100,200718.800,0.000
209097.500,215946.900,207119.800,228867.800,686246.900,185837.600,180960.400,202277.800,0.000
209337.800,216107.000,207270.200,228954.300,686798.000,185992.700,181032.000,202714.000,0.000
208568.800,215682.900,206733.800,228312.900,686182.400,185569.500,180593.100,201817.300,0.000
207400.000,215004.800,205928.300,227494.100,685054.400,184917.200,180029.100,200359.300,0.000
207815.200,215205.600,206196.100,227883.000,685137.600,185114.200,180297.400,200699.500,0.000
209079.100,215923.900,207045.500,228802.800,686235.900,185816.000,180939.600,202255.600,0.000
209334.100,216098.100,207208.900,228900.300,686793.800,185983.600,181018.300,202704.700,0.000
208559.500,215667.500,206661.400,228249.200,686170.900,185550.300,180573.100,201801.500,0.000
207414.500,215011.000,205879.200,227452.200,685076.200,184923.000,180036.700,200368.300,0.000
207845.700,215229.700,206168.300,227857.100,685164.500,185140.600,180324.600,200723.100,0.000
209096.600,215935.100,207005.000,228762.700,686248.000,185827.600,180951.500,202266.400,0.000
209336.400,216093.300,207151.800,228845.300,686795.200,185977.300,181014.100,202700.100,0.000
208573.200,215673.000,206613.400,228207.600,686185.400,185556.700,180576.300,201807.600,0.000
207421.300,215012.900,205826.900,227404.300,685055.300,184920.700,180031.200,200367.800,0.000
207834.800,215219.100,206100.000,227790.500,685117.500,185122.600,180307.000,200707.000,0.000
209097.500,215933.200,206946.700,228707.300,686233.800,185822.400,180948.800,202264.000,0.000
209345.900,216096.200,207103.200,228800.600,686788.400,185978.400,181020.800,202708.800,0.000
208580.800,215674.000,206562.700,228157.100,686177.700,185556.600,180582.500,201817.300,0.000
207434.800,215019.100,205780.500,227360.600,685074.200,184927.800,180043.800,200383.500,0.000
207835.300,215212.000,206043.000,227738.700,685125.600,185117.300,180307.000,200707.600,0.000
209097.000,215929.000,206888.700,228655.300,686224.000,185819.700,180948.500,202264.400,0.000
209352.700,216099.200,207048.600,228753.200,686792.100,185985.200,181027.600,202716.700,0.000
208580.200,215666.600,206503.100,228105.500,686178.900,185554.700,180584.800,201820.400,0.000
207418.500,214998.100,205704.700,227292.200,685064.800,184909.600,180033.700,200372.000,0.000
207811.400,215183.700,205962.200,227664.700,685122.800,185094.300,180293.500,200689.300,0.000
209083.200,215911.300,206822.400,228593.900,686229.100,185804.600,180945.100,202256.300,0.000
209349.200,216092.100,206996.200,228699.800,686797.800,185978.800,181031.500,202718.500,0.000
208585.200,215668.700,206459.900,228060.400,686197.600,185561.500,180600.700,201834.600,0.000
207416.200,214992.400,205657.700,227243.400,685063.600,184913.700,180045.000,200380.500,0.000
207816.800,215191.500,205920.600,227621.600,685119.400,185104.700,180310.500,200698.800,0.000
209086.400,215914.800,206774.100,228546.500,686227.000,185809.500,180954.500,202256.200,0.000
209350.600,216091.000,206946.500,228653.800,686798.900,185984.700,181040.300,202720.700,0.000
208578.000,215657.800,206403.100,228006.000,686187.400,185555.200,180593.700,201825.300,0.000
207430.600,215005.800,205618.000,227202.200,685072.500,184919.100,180047.800,200383.000,0.000
207835.800,215209.600,205885.100,227585.100,685124.600,185115.000,180314.800,200705.500,0.000
209105.900,215933.300,206741.600,228511.900,686234.100,185822.300,180962.000,202268.900,0.000
209353.900,216092.000,206900.200,228605.100,686793.300,185979.200,181033.300,202720.900,0.000
208587.700,215660.500,206358.400,227958.800,686182.900,185547.900,180586.500,201828.100,0.000
207434.100,215000.600,205564.100,227149.300,685064.600,184905.500,180036.100,200381.800,0.000
207836.000,215202.000,205831.100,227533.700,685122.900,185101.400,180306.700,200704.400,0.000
209105.700,215923.100,206690.900,228464.900,686232.600,185813.300,180959.000,202270.700,0.000
209355.000,216085.900,206847.300,228556.000,686791.700,185965.800,181025.500,202717.000,0.000
208594.600,215660.700,206309.700,227919.000,686184.600,185538.200,180581.900,201827.700,0.000
207453.300,215011.500,205532.400,227122.600,685074.500,184911.500,180045.200,200396.800,0.000
207842.000,215204.000,205788.600,227492.900,685122.200,185098.700,180307.000,200705.200,0.000
209102.200,215919.100,206635.000,228411.900,686225.700,185800.000,180947.500,202260.000,0.000
209355.500,216080.500,206796.300,228505.900,686786.400,185962.100,181019.100,202715.500,0.000
208604.000,215665.200,206267.400,227872.100,686194.800,185548.200,180584.700,201836.700,0.000
207444.800,215003.300,205477.600,227063.400,685073.800,184911.300,180037.400,200389.500,0.000
207827.300,215190.500,205731.100,227433.500,685119.000,185095.600,180296.700,200690.400,0.000
209103.100,215918.600,206594.000,228368.900,686234.600,185808.500,180949.300,202260.100,0.000
209362.900,216087.700,206759.500,228471.500,686798.100,185971.300,181025.500,202723.100,0.000
208599.700,215657.200,206221.800,227830.500,686191.000,185541.900,180583.700,201839.200,0.000
207455.400,215006.700,205442.000,227033.000,685069.300,184916.500,180049.400,200405.700,0.000
207824.300,215181.100,205679.500,227387.700,685099.900,185087.000,180295.300,200690.600,0.000
209085.900,215897.900,206528.800,228310.800,686208.100,185786.500,180935.900,202247.400,0.000
209351.100,216071.500,206699.300,228418.100,686780.900,185956.800,181018.700,202717.600,0.000
208597.100,215651.800,206167.000,227782.900,686183.200,185538.100,180581.000,201843.000,0.000
207454.900,215003.400,205390.900,226989.100,685069.600,184916.600,180046.800,200413.600,0.000
207832.700,215186.300,205638.200,227352.800,685101.800,185097.400,180300.500,200705.200,0.000
209093.500,215895.800,206482.100,228268.100,686196.500,185791.500,180933.500,202253.200,0.000
209360.700,216068.000,206653.000,228375.100,686770.000,185959.300,181013.600,202719.700,0.000
208601.200,215638.900,206113.800,227733.500,686167.500,185531.800,180571.200,201838.300,0.000
207444.900,214976.700,205323.300,226923.100,685076.400,184896.400,180024.400,200392.200,0.000
207811.400,215151.300,205563.000,227277.800,685101.800,185070.400,180271.500,200671.600,0.000
209091.600,215881.100,206428.100,228216.300,686198.100,185786.300,180929.300,202243.800,0.000
209368.700,216063.400,206608.500,228330.400,686779.200,185961.200,181017.200,202721.800,0.000
208631.500,215655.300,206093.800,227711.900,686200.600,185554.500,180589.700,201858.700,0.000
207467.700,214986.800,205298.100,226895.700,685099.500,184908.400,180033.400,200401.200,0.000
207833.700,215165.600,205541.600,227252.800,685146.600,185081.300,180286.900,200681.400,0.000
209112.900,215898.500,206409.000,228195.200,686228.400,185797.200,180943.200,202250.800,0.000
209385.300,216078.600,206587.300,228306.800,686803.300,185974.500,181027.800,202726.000,0.000
208632.200,215656.600,206058.600,227668.700,686210.100,185554.900,180589.400,201851.800,0.000
207469.800,214995.500,205267.100,226854.000,685080.900,184916.900,180039.600,200401.400,0.000
207829.800,215170.300,205502.200,227204.000,685095.800,185088.000,180283.700,200672.700,0.000
209101.000,215892.500,206359.700,228136.500,686201.700,185798.500,180935.100,202236.400,0.000
209378.200,216074.200,206539.200,228255.800,686794.500,185979.600,181027.300,202722.500,0.000
208625.700,215652.700,206004.000,227622.200,686202.900,185559.100,180586.600,201851.500,0.000
207461.700,214986.200,205207.300,226806.200,685082.000,184919.000,180032.600,200397.300,0.000
207818.300,215160.500,205441.400,227155.400,685117.200,185091.100,180279.700,200668.100,0.000
209091.300,215887.300,206300.300,228090.800,686212.300,185801.900,180933.500,202235.500,0.000
209376.400,216080.200,206488.400,228217.000,686808.200,185991.900,181036.500,202732.900,0.000
208631.100,215664.400,205961.400,227585.000,686225.100,185577.200,180605.500,201870.800,0.000
207468.800,214999.300,205167.700,226772.000,685090.000,184936.400,180056.400,200422.700,0.000
207813.900,215162.500,205394.800,227114.100,685097.900,185096.700,180293.700,200685.100,0.000
209070.700,215867.300,206237.600,228033.800,686189.900,185788.200,180929.000,202233.500,0.000
209348.300,216046.400,206417.300,228152.400,686775.200,185966.300,181020.200,202721.900,0.000
208603.300,215630.200,205892.800,227523.500,686196.200,185555.300,180589.900,201862.800,0.000
207445.200,214970.700,205105.300,226714.700,685075.400,184921.000,180041.200,200415.000,0.000
207792.800,215143.200,205338.200,227063.900,685093.900,185087.200,180284.600,200674.500,0.000
209066.500,215869.000,206200.300,228001.000,686199.800,185795.800,180935.400,202239.500,0.000
209350.000,216052.600,206385.400,228123.300,686788.600,185975.600,181024.600,202730.500,0.000
208606.400,215637.500,205861.200,227492.000,686206.400,185558.100,180589.900,201867.200,0.000
207443.500,214971.400,205065.400,226673.300,685073.600,184913.900,180034.900,200409.600,0.000
207810.300,215158.900,205314.500,227036.100,685106.800,185098.700,180294.100,200681.900,0.000
209081.100,215878.500,206170.500,227968.400,686202.000,185803.500,180941.700,202241.200,0.000
209360.200,216055.000,206347.100,228084.600,686780.800,185975.400,181027.500,202725.700,0.000
208623.500,215643.000,205825.600,227459.600,686200.600,185563.000,180599.700,201866.000,0.000
207459.600,214979.000,205034.900,226644.100,685077.100,184922.100,180051.100,200411.100,0.000
207795.800,215139.600,205257.200,226979.300,685086.200,185081.800,180288.500,200658.100,0.000
209066.500,215856.500,206113.800,227913.200,686176.700,185787.400,180937.600,202218.300,0.000
209366.000,216057.500,206309.200,228045.600,686779.200,185977.100,181040.600,202722.500,0.000
208639.000,215658.500,205796.600,227428.800,686214.700,185572.100,180620.000,201876.700,0.000
207468.000,214986.500,204995.600,226606.800,685084.100,184923.900,180062.300,200416.600,0.000
207805.300,215144.800,205222.800,226947.500,685084.100,185082.600,180302.700,200664.000,0.000
209083.500,215866.300,206085.800,227885.800,686178.800,185790.700,180955.500,202229.300,0.000
209362.100,216041.100,206261.500,228001.200,686767.100,185967.900,181036.800,202716.000,0.000
208635.800,215637.200,205747.100,227382.300,686196.600,185562.600,180607.300,201865.900,0.000
207475.500,214976.900,204956.500,226572.800,685093.800,184925.500,180055.500,200413.000,0.000
207806.500,215132.300,205177.100,226904.700,685086.900,185081.500,180289.100,200649.500,0.000
209097.300,215869.400,206052.700,227855.800,686183.900,185804.900,180954.200,202228.800,0.000
209390.800,216063.400,206241.100,227983.200,686781.400,185991.200,181049.000,202728.500,0.000
208656.900,215651.500,205719.500,227360.800,686208.900,185579.000,180617.400,201874.800,0.000
207488.800,214981.500,204926.000,226550.500,685106.100,184936.500,180066.000,200418.800,0.000
207809.100,215130.500,205138.300,226875.800,685099.800,185082.100,180293.700,200646.100,0.000
209093.800,215861.500,206008.300,227819.500,686186.300,185797.200,180952.500,202218.200,0.000
209397.300,216063.500,206209.300,227959.100,686796.600,185993.300,181060.900,202734.500,0.000
208658.100,215648.100,205685.500,227331.700,686222.600,185577.600,180629.500,201883.600,0.000
207474.200,214964.400,204873.900,226499.300,685084.900,184919.800,180059.600,200412.500,0.000
207797.700,215117.800,205086.800,226826.600,685073.300,185071.600,180288.700,200642.200,0.000
209077.800,215845.400,205949.000,227766.300,686169.300,185783.000,180942.600,202208.400,0.000
209388.700,216052.100,206156.300,227914.400,686791.000,185990.700,181058.700,202732.400,0.000
208662.800,215655.000,205646.800,227300.600,686229.600,185594.400,180637.800,201892.500,0.000
207484.100,214980.200,204847.000,226478.600,685102.100,184950.800,180077.800,200432.100,0.000
207802.800,215131.300,205057.400,226803.500,685097.600,185099.300,180302.100,200655.900,0.000
209075.800,215852.200,205909.900,227735.000,686175.300,185796.100,180944.200,202210.100,0.000
209379.900,216052.400,206111.800,227875.100,686789.500,185992.100,181049.400,202723.300,0.000
208648.000,215647.900,205597.400,227256.700,686223.400,185587.800,180623.900,201880.600,0.000
207468.100,214975.300,204792.400,226431.900,685089.600,184944.500,180066.500,200423.700,0.000
207772.500,215117.400,204991.300,226743.400,685078.900,185087.000,180286.100,200638.300,0.000
209054.800,215848.800,205859.000,227686.500,686176.300,185801.800,180945.800,202208.200,0.000
209357.100,216046.700,206062.400,227827.000,686786.000,185994.600,181055.000,202726.800,0.000
208637.400,215650.100,205557.400,227219.200,686228.200,185596.500,180640.400,201894.800,0.000
207461.000,214981.600,204754.800,226395.800,685086.100,184954.100,180082.500,200435.600,0.000
207770.000,215125.100,204956.800,226711.200,685067.700,185097.300,180302.000,200648.100,0.000
209046.100,215847.100,205814.300,227648.000,686169.000,185802.400,180951.400,202211.100,0.000
209362.200,216058.500,206029.700,227797.200,686791.700,186008.900,181064.800,202740.100,0.000
208641.400,215655.900,205523.200,227185.200,686238.600,185606.400,180641.300,201902.100,0.000
207451.100,214966.900,204706.500,226348.400,685095.600,184944.700,180070.000,200425.300,0.000
207758.100,215110.800,204906.000,226659.300,685062.300,185083.200,180285.800,200627.500,0.000
209042.500,215835.300,205769.700,227600.200,686156.800,185789.500,180937.100,202190.800,0.000
209353.200,216033.100,205971.900,227744.500,686766.500,185983.000,181044.500,202710.900,0.000
208639.000,215633.600,205467.300,227138.100,686210.100,185584.800,180629.100,201879.900,0.000
207471.200,214968.200,204673.200,226320.900,685074.800,184946.700,180077.600,200425.400,0.000
207770.400,215106.500,204871.500,226632.000,685044.600,185083.500,180293.800,200629.900,0.000
209052.100,215833.800,205734.400,227574.100,686146.100,185792.000,180947.000,202194.000,0.000
209361.100,216034.800,205935.000,227716.300,686758.200,185985.100,181052.100,202713.900,0.000
208648.500,215641.400,205434.200,227116.600,686211.800,185592.600,180638.800,201890.900,0.000
207476.000,214973.800,204635.900,226301.500,685100.700,184952.500,180082.800,200434.300,0.000
207774.000,215114.200,204833.300,226609.100,685082.800,185090.700,180298.800,200634.800,0.000
209053.300,215838.400,205695.600,227546.400,686165.100,185798.700,180949.300,202200.100,0.000
209374.500,216050.300,205909.600,227699.500,686794.800,186008.400,181068.600,202737.000,0.000
208663.900,215659.800,205410.800,227094.000,686253.400,185618.000,180655.600,201916.200,0.000
207469.100,214966.800,204590.800,226250.400,685103.400,184955.200,180077.100,200434.000,0.000
207759.300,215097.300,204778.600,226551.300,685065.800,185085.900,180290.300,200622.900,0.000
209044.600,215823.600,205643.800,227494.300,686155.900,185795.100,180946.400,202190.000,0.000
209362.400,216025.100,205853.300,227644.800,686777.500,185995.200,181056.600,202720.000,0.000
208650.300,215627.800,205356.900,227041.800,686234.900,185602.900,180643.800,201899.100,0.000
207461.800,214943.800,204543.900,226203.200,685096.300,184943.500,180070.000,200420.500,0.000
207762.700,215088.400,204743.000,226513.100,685081.400,185084.600,180290.500,200616.100,0.000
209052.900,215825.100,205617.100,227467.000,686176.300,185803.700,180953.400,202191.300,0.000
209376.500,216037.900,205831.400,227623.800,686799.500,186007.000,181068.500,202729.800,0.000
208656.200,215635.300,205318.400,227010.500,686248.400,185601.300,180640.300,201898.700,0.000
207468.000,214950.800,204506.500,226174.700,685109.900,184943.200,180067.700,200423.000,0.000
207771.300,215098.300,204710.600,226491.000,685079.700,185087.500,180293.200,200621.100,0.000
209054.800,215822.000,205571.900,227431.600,686167.500,185795.600,180944.400,202185.000,0.000
209360.800,216013.800,205770.300,227571.600,686779.400,185985.600,181044.300,202708.800,0.000
208653.500,215622.800,205276.900,226971.800,686240.500,185594.200,180637.800,201895.500,0.000
207470.600,214949.900,204474.500,226144.500,685096.800,184946.900,180078.200,200432.500,0.000
207750.200,215079.500,204658.000,226439.600,685041.500,185076.100,180285.100,200607.700,0.000
209042.100,215813.300,205532.500,227395.100,686147.400,185794.200,180946.700,202182.100,0.000
209372.600,216028.400,205755.800,227561.200,686782.500,186005.500,181066.700,202728.300,0.000
208669.900,215638.700,205262.200,226964.500,686250.200,185619.200,180658.600,201917.800,0.000
207466.900,214943.800,204434.500,226113.900,685104.500,184952.300,180073.600,200431.100,0.000
207737.400,215065.500,204613.500,226401.800,685050.000,185075.800,180277.000,200600.200,0.000
209032.100,215801.700,205492.800,227355.000,686147.100,185795.200,180942.800,202174.500,0.000
209367.000,216023.600,205714.300,227515.200,686782.800,186002.500,181063.300,202722.400,0.000
208660.600,215633.600,205215.000,226912.200,686249.200,185605.100,180648.100,201908.000,0.000
207470.100,214948.800,204403.300,226074.800,685105.900,184945.400,180076.100,200432.500,0.000
207739.500,215069.000,204583.200,226365.200,685055.200,185066.400,180277.200,200598.100,0.000
209017.300,215785.500,205444.800,227310.600,686142.400,185770.800,180928.300,202160.000,0.000
209350.100,215998.300,205665.100,227474.300,686772.500,185980.100,181048.600,202708.500,0.000
208662.400,215620.600,205184.000,226887.000,686252.500,185601.800,180649.800,201911.800,0.000
207477.300,214939.900,204371.500,226050.500,685102.300,184943.800,180079.800,200438.700,0.000
207748.000,215065.500,204550.600,226342.800,685038.800,185068.700,180285.100,200604.600,0.000
209031.400,215793.200,205414.800,227289.300,686134.600,185777.500,180943.300,202170.700,0.000
209353.000,215995.700,205623.300,227441.400,686762.600,185975.300,181053.800,202712.800,0.000
208651.700,215608.300,205131.100,226846.300,686236.100,185587.700,180644.800,201905.800,0.000
207456.300,214922.100,204314.300,226004.800,685107.800,184926.500,180074.300,200426.500,0.000
207725.300,215046.000,204495.800,226296.200,685057.300,185048.200,180279.600,200590.100,0.000
209022.400,215782.500,205374.100,227253.500,686135.800,185766.100,180943.800,202166.400,0.000
209368.400,216006.900,205607.100,227428.600,686785.600,185986.900,181075.100,202731.500,0.000
208663.000,215613.300,205107.500,226822.600,686248.900,185590.300,180653.200,201916.100,0.000
207476.300,214934.700,204297.000,225988.100,685114.700,184935.600,180080.600,200442.000,0.000
207729.400,215044.300,204463.100,226265.800,685052.200,185044.000,180273.200,200586.900,0.000
209014.500,215769.500,205329.300,227212.500,686125.600,185751.000,180929.500,202154.100,0.000
209353.900,215989.800,205556.800,227381.100,686770.900,185966.800,181055.900,202717.500,0.000
208656.100,215602.100,205068.000,226785.800,686245.800,185577.700,180645.600,201916.600,0.000
207474.100,214927.100,204261.200,225953.000,685103.100,184926.100,180080.100,200447.100,0.000
207744.100,215055.700,204442.100,226243.800,685037.100,185054.000,180288.600,200603.200,0.000
209028.700,215781.400,205307.700,227193.100,686134.100,185764.700,180943.700,202169.300,0.000
209359.800,215994.000,205524.900,227355.200,686772.700,185969.800,181058.900,202721.700,0.000
208651.300,215596.700,205025.200,226749.200,686235.300,185571.200,180636.900,201909.700,0.000
207473.200,214925.700,204223.600,225920.300,685103.400,184926.700,180075.200,200445.800,0.000
207729.000,215040.700,204395.600,226204.000,685047.100,185045.800,180275.000,200594.000,0.000
209015.100,215764.300,205262.200,227149.700,686123.800,185751.100,180928.000,202154.800,0.000
209359.800,215986.600,205494.000,227322.700,686767.400,185967.200,181053.000,202719.400,0.000
208674.200,215613.300,205014.500,226734.700,686250.800,185585.900,180649.100,201922.800,0.000
207496.000,214945.200,204213.900,225906.000,685116.300,184942.000,180089.300,200458.200,0.000
207725.600,215039.300,204361.500,226165.100,685039.900,185037.900,180266.400,200579.900,0.000
209002.300,215756.800,205222.800,227111.300,686118.100,185743.500,180920.200,202138.300,0.000
209348.700,215981.000,205451.400,227283.100,686761.800,185963.900,181051.300,202709.100,0.000
208657.900,215598.700,204964.100,226689.400,686244.200,185578.900,180644.900,201916.700,0.000
207466.200,214914.500,204154.900,225852.200,685118.100,184924.800,180076.500,200444.300,0.000
207716.400,215029.700,204324.400,226128.000,685062.100,185040.500,180273.100,200586.000,0.000
209018.200,215772.200,205204.000,227090.400,686132.500,185760.300,180945.700,202163.400,0.000
209357.500,215986.500,205430.100,227258.500,686780.300,185973.600,181069.500,202727.600,0.000
208654.700,215590.500,204934.200,226656.800,686252.900,185577.900,180648.900,201923.000,0.000
207471.900,214916.900,204132.300,225830.600,685121.800,184929.900,180084.200,200458.100,0.000
207707.800,215021.000,204290.400,226097.700,685047.400,185035.200,180269.600,200581.600,0.000
208987.400,215738.700,205150.800,227041.200,686117.400,185740.100,180917.000,202136.000,0.000
209334.600,215958.100,205381.900,227215.900,686766.100,185954.600,181042.100,202705.100,0.000
208658.700,215591.000,204906.000,226633.200,686263.100,185577.500,180644.000,201923.800,0.000
207467.000,214908.600,204094.100,225790.500,685123.600,184920.100,180072.200,200447.600,0.000
207712.900,215022.800,204263.100,226067.700,685060.100,185034.800,180268.300,200580.800,0.000
209005.600,215754.300,205139.300,227026.800,686139.900,185748.700,180931.400,202147.500,0.000
209347.300,215967.800,205364.200,227195.500,686781.500,185957.900,181051.000,202713.500,0.000
208664.600,215587.700,204885.400,226612.500,686275.000,185578.500,180648.100,201930.300,0.000
207471.000,214904.700,204071.000,225770.500,685131.300,184919.300,180073.200,200450.300,0.000
207705.400,215013.200,204226.600,226034.100,685052.800,185025.600,180261.100,200569.200,0.000
208995.900,215743.600,205098.500,226988.300,686130.000,185740.400,180921.600,202134.300,0.000
209353.900,215973.300,205339.400,227173.400,686788.300,185964.400,181054.800,202716.600,0.000
208679.000,215603.100,204868.500,226596.500,686284.900,185590.300,180659.100,201940.300,0.000
207497.200,214926.600,204063.600,225762.400,685146.900,184936.600,180092.600,200468.200,0.000
207699.000,214998.600,204188.700,225998.800,685046.300,185009.900,180251.500,200554.300,0.000
209003.400,215738.400,205069.900,226963.400,686123.700,185731.500,180922.200,202129.300,0.000
209373.800,215977.900,205323.200,227158.500,686796.200,185968.600,181067.900,202726.200,0.000
208677.600,215586.400,204829.600,226557.700,686277.700,185573.200,180649.800,201929.300,0.000
207494.200,214912.100,204024.800,225723.500,685135.100,184922.500,180083.900,200458.300,0.000
207720.000,215008.900,204171.800,225983.200,685034.700,185020.000,180263.100,200565.900,0.000
208998.600,215725.200,205031.900,226929.300,686111.900,185722.500,180914.200,202122.800,0.000
209361.400,215959.600,205272.700,227116.300,686771.500,185947.200,181049.800,202708.600,0.000
208688.300,215588.200,204800.900,226538.100,686273.500,185576.300,180655.500,201936.300,0.000
207496.200,214909.300,203990.300,225697.000,685143.300,184920.500,180085.700,200463.200,0.000
207722.500,215012.300,204142.800,225956.400,685050.900,185021.800,180270.000,200571.700,0.000
209020.800,215747.000,205023.400,226920.000,686125.600,185740.200,180938.500,202145.400,0.000
209360.800,215955.300,205244.600,227088.300,686771.800,185944.400,181056.200,202714.300,0.000
208693.200,215591.200,204775.700,226516.900,686283.400,185575.500,180662.500,201946.500,0.000
207509.600,214920.300,203971.000,225685.500,685144.200,184927.000,180094.800,200476.700,0.000
207713.300,215002.700,204107.900,225931.400,685030.300,185016.000,180265.300,200568.400,0.000
208986.300,215711.500,204961.600,226865.400,686093.800,185707.800,180907.500,202114.000,0.000
209352.200,215946.300,205205.800,227052.500,686760.100,185936.500,181048.100,202707.000,0.000
208689.700,215584.600,204743.600,226482.200,686273.300,185576.000,180662.300,201946.300,0.000
207490.300,214897.100,203922.100,225628.900,685129.900,184914.100,180083.600,200463.200,0.000
207689.700,214977.300,204050.100,225865.900,685032.200,184993.200,180246.200,200545.100,0.000
208985.500,215709.900,204926.000,226828.800,686101.300,185706.700,180910.600,202115.300,0.000
209358.400,215949.400,205177.600,227024.700,686775.200,185941.800,181056.800,202718.300,0.000
208683.800,215572.700,204698.500,226439.100,686272.100,185562.000,180649.800,201942.300,0.000
207496.400,214896.500,203893.200,225602.600,685136.100,184915.300,180080.500,200468.700,0.000
207692.500,214977.400,204024.400,225840.300,685040.900,184998.800,180245.300,200548.200,0.000
208991.100,215712.800,204904.500,226807.800,686120.700,185715.200,180915.000,202119.100,0.000
209364.400,215951.600,205154.800,227004.000,686789.800,185947.400,181060.100,202718.400,0.000
208698.700,215587.300,204691.000,226430.300,686302.700,185581.900,180668.600,201955.100,0.000
207502.300,214905.000,203880.000,225585.600,685148.300,184923.600,180095.100,200477.200,0.000
207690.700,214977.700,204003.800,225816.700,685027.400,184997.400,180256.600,200549.300,0.000
208985.300,215710.700,204879.500,226775.900,686108.200,185705.800,180919.900,202112.400,0.000
209352.500,215946.600,205123.600,226967.000,686771.100,185931.000,181056.600,202707.800,0.000
208689.000,215580.300,204657.800,226397.100,686286.000,185564.700,180665.000,201947.800,0.000
207517.500,214918.600,203864.400,225571.700,685149.800,184927.900,180109.800,200486.000,0.000
207699.200,214987.300,203982.100,225796.000,685020.800,184998.600,180266.900,200547.500,0.000
208986.200,215707.700,204847.200,226746.800,686095.600,185701.300,180921.300,202101.900,0.000
209366.600,215949.500,205102.600,226950.900,686769.400,185936.200,181065.000,202707.800,0.000
208692.900,215574.000,204626.700,226372.400,686275.900,185556.700,180659.300,201938.500,0.000
207496.000,214888.400,203813.800,225528.800,685134.000,184898.800,180083.200,200460.600,0.000
207703.300,214984.800,203956.100,225778.000,685025.900,184992.800,180260.500,200544.100,0.000
209005.100,215722.000,204835.900,226742.100,686110.300,185708.300,180927.600,202117.000,0.000
209360.600,215937.600,205065.100,226915.200,686763.600,185920.300,181051.300,202703.200,0.000
208696.500,215567.500,204598.100,226341.200,686275.300,185550.800,180658.300,201942.900,0.000
207501.200,214884.700,203785.100,225497.600,685133.500,184892.500,180083.200,200465.800,0.000
207690.100,214963.700,203908.000,225733.600,685024.100,184972.800,180245.300,200532.000,0.000
208985.300,215690.700,204784.700,226697.500,686095.600,185687.800,180910.000,202098.700,0.000
209373.600,215939.000,205047.500,226905.100,686779.200,185928.900,181064.100,202718.600,0.000
208721.000,215583.200,204591.100,226342.400,686305.900,185571.400,180680.800,201973.200,0.000
207515.200,214891.600,203770.500,225487.500,685152.400,184909.200,180101.300,200486.500,0.000
207680.100,214951.700,203879.600,225701.200,685008.700,184970.300,180247.500,200530.200,0.000
208982.800,215687.300,204762.500,226668.900,686083.500,185686.500,180914.800,202099.700,0.000
209366.200,215929.000,205016.800,226870.300,686764.600,185922.100,181060.000,202710.800,0.000
208713.000,215572.000,204558.300,226304.800,686290.100,185560.000,180672.800,201963.000,0.000
207510.800,214881.500,203739.100,225451.400,685160.100,184894.300,180092.800,200479.700,0.000
207685.100,214948.300,203852.500,225673.000,685040.300,184962.800,180249.700,200533.300,0.000
208979.300,215681.400,204724.000,226633.100,686088.800,185672.500,180913.800,202096.200,0.000
209360.000,215920.900,204978.800,226831.400,686768.900,185905.200,181058.100,202708.300,0.000
208705.800,215560.500,204521.300,226265.600,686295.800,185541.200,180667.000,201959.300,0.000
207514.600,214882.800,203713.400,225426.700,685149.300,184888.200,180095.200,200484.100,0.000
207693.900,214960.200,203832.600,225649.100,685015.100,184962.800,180249.700,200532.600,0.000
208978.700,215680.600,204700.800,226602.200,686083.500,185667.000,180906.600,202084.200,0.000
209359.500,215919.400,204959.500,226805.300,686761.900,185904.000,181057.700,202700.700,0.000
208716.800,215568.800,204507.600,226247.200,686295.300,185548.100,180677.700,201961.000,0.000
207547.000,214911.900,203714.900,225422.500,685170.700,184916.700,180124.200,200503.300,0.000
207699.300,214962.600,203810.400,225622.000,685011.300,184969.300,180260.700,200530.700,0.000
208976.600,215676.300,204670.700,226570.700,686073.700,185667.700,180913.700,202082.800,0.000
209356.300,215914.500,204924.200,226773.500,686750.100,185901.500,181056.900,202695.900,0.000
208729.100,215579.300,204493.700,226235.000,686307.100,185564.000,180691.700,201976.200,0.000
207512.200,214877.100,203660.400,225371.800,685155.200,184885.100,180099.500,200477.100,0.000
207682.400,214946.600,203772.900,225589.800,685030.400,184953.800,180254.700,200515.000,0.000
208972.800,215671.800,204647.600,226551.600,686091.500,185662.600,180918.800,202077.600,0.000
209360.400,215915.900,204908.100,226759.300,686769.300,185901.700,181066.000,202700.000,0.000
208726.400,215574.800,204463.800,226208.900,686314.100,185554.600,180689.500,201971.500,0.000
207530.900,214893.300,203648.500,225363.800,685164.900,184899.100,180114.600,200491.400,0.000
207688.300,214952.500,203754.000,225576.500,685012.900,184963.000,180262.900,200521.800,0.000
208969.500,215667.100,204618.900,226529.800,686077.200,185662.200,180917.700,202071.500,0.000
209371.800,215922.700,204891.500,226751.700,686772.500,185911.400,181074.100,202704.200,0.000
208716.100,215558.400,204431.200,226183.800,686300.400,185546.600,180678.800,201959.400,0.000
207520.500,214877.400,203620.200,225338.900,685151.200,184890.800,180104.300,200480.500,0.000
207678.600,214937.800,203726.900,225550.300,684997.700,184953.000,180252.000,200509.800,0.000
208972.800,215666.700,204600.000,226510.700,686073.100,185666.600,180916.900,202071.400,0.000
209366.700,215915.500,204868.600,226724.300,686765.700,185914.000,181072.700,202703.700,0.000
208731.100,215571.500,204426.900,226177.000,686309.800,185565.200,180697.000,201977.400,0.000
207530.200,214885.100,203610.500,225327.800,685156.400,184900.800,180115.600,200491.700,0.000
207670.300,214934.700,203701.700,225525.200,685013.600,184947.600,180249.000,200502.700,0.000
208955.900,215655.300,204565.500,226476.200,686069.500,185650.000,180902.800,202055.500,0.000
209366.800,215916.800,204842.200,226701.200,686772.800,185911.300,181069.000,202700.600,0.000
208736.100,215578.000,204407.700,226160.000,686328.500,185572.700,180703.800,201985.900,0.000
207518.400,214879.000,203570.500,225290.000,685156.400,184894.900,180108.800,200484.700,0.000
207658.400,214928.600,203658.000,225485.900,684996.000,184945.100,180244.800,200495.300,0.000
208965.500,215672.700,204544.700,226462.500,686075.200,185669.500,180924.700,202071.900,0.000
209362.700,215924.200,204813.900,226678.900,686773.600,185916.200,181082.500,202708.300,0.000
208710.000,215561.000,204355.000,226113.800,686305.300,185548.600,180690.200,201966.400,0.000
207517.000,214882.400,203544.500,225269.200,685163.300,184895.800,180117.900,200490.600,0.000
207665.700,214938.200,203643.900,225473.300,685004.200,184958.500,180263.600,200509.500,0.000
208961.700,215664.800,204518.600,226437.000,686073.300,185669.300,180926.300,202070.500,0.000
209356.000,215907.500,204780.300,226645.700,686760.100,185908.300,181073.500,202697.400,0.000
208724.300,215562.600,204336.800,226097.800,686310.300,185561.300,180699.400,201976.100,0.000
207533.000,214889.100,203528.600,225258.100,685188.100,184911.400,180131.900,200505.700,0.000
207666.000,214933.100,203617.600,225451.700,685039.500,184959.300,180266.000,200505.700,0.000
208944.700,215643.100,204479.900,226400.000,686068.300,185654.200,180916.600,202048.200,0.000
209345.800,215894.400,204749.000,226617.300,686759.400,185897.100,181070.000,202684.600,0.000
208718.500,215554.700,204309.900,226072.300,686314.400,185554.000,180693.200,201967.300,0.000
207518.400,214867.400,203492.800,225222.600,685163.500,184889.900,180110.900,200481.400,0.000
207650.700,214912.300,203582.000,225415.700,685007.300,184935.400,180245.800,200483.000,0.000
208949.100,215645.200,204461.200,226383.900,686069.500,185648.500,180914.800,202050.400,0.000
209364.200,215909.700,204745.600,226615.200,686777.600,185908.300,181085.000,202706.700,0.000
208731.900,215562.700,204303.700,226068.100,686332.100,185560.000,180708.700,201988.100,0.000
207519.000,214863.100,203472.200,225202.600,685167.600,184881.700,180108.900,200486.000,0.000
207639.200,214898.400,203547.800,225383.700,685000.200,184919.300,180230.900,200471.700,0.000
208941.400,215637.900,204428.300,226355.800,686064.300,185637.400,180901.800,202037.300,0.000
209337.900,215885.500,204692.500,226570.500,686755.300,185879.400,181052.500,202672.500,0.000
208708.600,215544.000,204252.600,226024.200,686314.000,185536.400,180680.200,201957.300,0.000
207516.200,214869.400,203445.700,225179.500,685171.200,184886.100,180110.200,200480.700,0.000
207647.900,214916.300,203533.900,225370.500,684999.900,184936.800,180247.800,200475.800,0.000
208947.000,215645.300,204410.200,226339.000,686060.300,185647.400,180914.200,202036.600,0.000
209364.200,215908.300,204689.500,226573.100,686775.400,185903.500,181082.200,202695.400,0.000
208732.200,215562.600,204247.500,226026.100,686330.600,185553.400,180704.100,201978.200,0.000
207529.600,214876.100,203426.100,225172.500,685174.800,184889.700,180120.600,200489.300,0.000
207630.500,214896.300,203484.100,225337.500,684991.800,184911.000,180233.200,200459.000,0.000
208930.400,215633.900,204368.200,226313.000,686067.100,185627.000,180907.800,202029.700,0.000
209349.900,215897.000,204651.200,226546.500,686774.600,185884.500,181077.100,202690.400,0.000
208723.400,215551.700,204213.700,226000.800,686334.300,185534.200,180700.900,201977.700,0.000
207516.600,214860.000,203391.300,225139.200,685170.100,184864.000,180110.400,200483.600,0.000
207644.000,214905.200,203478.100,225326.700,684993.500,184911.400,180245.600,200469.900,0.000
208948.500,215640.200,204364.700,226302.000,686068.300,185632.000,180922.000,202039.200,0.000
209376.800,215914.200,204657.400,226542.500,686791.400,185898.000,181097.200,202710.700,0.000
208744.000,215566.900,204211.600,225990.500,686348.200,185539.100,180712.600,201994.000,0.000
207524.000,214863.300,203377.600,225122.300,685181.900,184861.900,180115.900,200493.500,0.000
207617.300,214882.200,203436.900,225286.500,684991.900,184886.700,180230.200,200456.200,0.000
208922.800,215622.200,204321.600,226260.300,686063.600,185605.900,180905.700,202021.700,0.000
209354.800,215897.500,204615.800,226505.000,686783.500,185870.900,181087.300,202695.900,0.000
208719.400,215542.800,204167.200,225951.700,686337.600,185510.500,180703.800,201981.500,0.000
207519.300,214857.100,203349.800,225098.500,685183.100,184849.000,180124.300,200495.800,0.000
207615.500,214880.500,203410.200,225261.700,684981.600,184873.200,180239.700,200457.000,0.000
208912.500,215613.300,204291.000,226233.500,686051.800,185589.300,180913.200,202023.200,0.000
209339.700,215883.100,204581.900,226473.600,686773.800,185853.400,181088.300,202695.800,0.000
208710.300,215533.700,204137.700,225921.100,686331.300,185499.000,180706.200,201982.300,0.000
207514.800,214854.500,203324.700,225069.900,685181.100,184841.700,180127.900,200499.500,0.000
207623.000,214888.700,203395.900,225243.400,684988.600,184879.300,180250.600,200469.400,0.000
208910.700,215608.600,204263.300,226203.400,686043.600,185581.000,180909.600,202020.300,0.000
209332.200,215872.600,204549.700,226442.900,686761.100,185841.600,181079.600,202690.100,0.000
208716.400,215534.500,204115.100,225904.500,686332.600,185500.400,180709.000,201988.600,0.000
207518.400,214852.100,203298.300,225050.600,685186.100,184840.800,180127.300,200502.200,0.000
207616.500,214878.800,203362.700,225216.600,684983.400,184871.700,180246.300,200460.600,0.000
208908.900,215605.200,204239.000,226185.000,686037.100,185583.200,180914.100,202015.300,0.000
209338.500,215874.000,204532.200,226431.000,686767.900,185848.400,181087.700,202689.600,0.000
208734.600,215547.500,204106.600,225896.400,686349.800,185512.000,180720.700,201996.400,0.000
207522.500,214848.500,203274.200,225022.000,685181.900,184838.300,180124.500,200495.500,0.000
207609.200,214865.600,203332.800,225180.200,684968.500,184862.200,180238.200,200441.300,0.000
208902.700,215593.800,204206.700,226146.200,686026.300,185570.500,180903.600,201994.000,0.000
209329.700,215865.000,204493.800,226386.300,686746.100,185834.300,181073.400,202664.900,0.000
208720.200,215534.600,204068.000,225855.400,686325.800,185500.400,180708.900,201977.100,0.000
207533.100,214863.100,203264.900,225015.600,685179.900,184850.600,180137.200,200505.800,0.000
207627.500,214889.600,203333.200,225187.200,684988.400,184882.500,180257.000,200459.900,0.000
208914.800,215606.700,204202.200,226145.300,686042.100,185582.400,180916.400,202005.600,0.000
209352.200,215883.100,204497.400,226391.400,686764.400,185848.600,181096.100,202685.600,0.000
208731.200,215536.500,204058.700,225849.300,686330.100,185498.400,180717.100,201982.500,0.000
207532.100,214852.000,203242.500,224995.800,685176.300,184836.700,180133.000,200498.100,0.000
207602.800,214859.500,203285.400,225138.100,684964.600,184844.200,180231.900,200428.600,0.000
208895.600,215584.900,204160.800,226105.300,686015.400,185547.000,180898.100,201983.900,0.000
209334.600,215862.500,204462.200,226359.600,686751.800,185814.400,181082.000,202672.800,0.000
208727.600,215528.300,204034.700,225828.300,686335.000,185471.700,180712.600,201984.300,0.000
207527.700,214842.400,203212.500,224968.400,685185.100,184803.600,180125.400,200493.600,0.000
207617.100,214872.000,203275.300,225131.700,684987.800,184830.700,180244.100,200439.400,0.000
208916.100,215604.700,204156.300,226105.100,686045.400,185538.800,180916.200,201998.400,0.000
209346.500,215871.600,204449.400,226350.200,686769.600,185800.600,181090.600,202679.800,0.000
208731.200,215531.000,204015.000,225807.400,686344.400,185454.400,180714.600,201984.000,0.000
207529.400,214844.400,203189.400,224945.500,685178.100,184787.200,180124.800,200491.300,0.000
207613.200,214866.800,203243.500,225104.100,684967.800,184810.800,180238.200,200428.300,0.000
208909.800,215595.500,204123.800,226078.800,686031.800,185522.900,180912.700,201987.700,0.000
209345.100,215864.800,204419.700,226326.100,686759.300,185788.900,181090.700,202676.200,0.000
208731.200,215521.600,203982.400,225778.600,686331.300,185436.400,180710.500,201978.300,0.000
207535.600,214842.000,203170.100,224924.900,685190.800,184777.000,180131.100,200497.100,0.000
207609.200,214856.600,203219.700,225072.200,684977.600,184794.200,180239.600,200426.700,0.000
208907.900,215587.200,204099.200,226045.000,686034.400,185505.200,180912.500,201987.600,0.000
209361.500,215874.200,204410.100,226308.600,686776.000,185782.900,181102.000,202688.800,0.000
208757.500,215541.300,203983.600,225776.100,686362.500,185447.700,180733.200,202002.600,0.000
207552.700,214850.100,203162.900,224916.100,685219.100,184782.300,180145.100,200511.800,0.000
207602.500,214844.200,203187.900,225042.300,685001.800,184774.700,180229.500,200414.500,0.000
208905.900,215579.400,204071.500,226019.700,686030.100,185489.200,180905.500,201975.200,0.000
209362.000,215865.800,204382.500,226284.000,686776.400,185770.900,181092.400,202678.500,0.000
208763.900,215537.300,203963.300,225757.200,686370.900,185441.700,180728.100,202001.900,0.000
207550.400,214841.700,203133.400,224886.900,685204.900,184771.400,180134.100,200507.300,0.000
207602.500,214837.900,203166.200,225023.800,684969.600,184775.300,180230.700,200418.200,0.000
208902.000,215570.300,204047.600,225999.100,686030.100,185487.000,180903.300,201974.200,0.000
209351.600,215851.600,204351.100,226253.700,686763.000,185757.700,181085.700,202669.400,0.000
208771.700,215543.100,203947.400,225741.100,686372.900,185442.500,180740.700,202012.000,0.000
207573.800,214862.100,203129.800,224884.100,685214.700,184782.700,180157.700,200528.000,0.000
207622.600,214856.000,203159.300,225012.600,684976.200,184780.600,180249.800,200429.800,0.000
208904.700,215568.800,204025.600,225974.100,686016.900,185475.100,180906.700,201970.300,0.000
209356.400,215849.700,204332.900,226237.900,686761.500,185748.900,181090.600,202671.400,0.000
208751.000,215515.300,203906.100,225704.600,686350.300,185409.300,180718.500,201988.000,0.000
207543.900,214822.200,203081.500,224840.600,685205.200,184742.200,180126.200,200493.800,0.000
207619.600,214847.000,203135.900,224995.400,684988.600,184769.400,180243.000,200418.400,0.000
208914.500,215578.400,204014.200,225966.800,686023.900,185477.100,180912.000,201968.200,0.000
209357.800,215851.200,204312.300,226217.900,686762.800,185742.800,181088.100,202663.500,0.000
208767.200,215526.600,203899.500,225699.100,686368.600,185420.100,180734.100,201996.800,0.000
207566.100,214844.600,203079.800,224837.800,685216.200,184757.700,180149.500,200506.900,0.000
207608.500,214841.200,203106.900,224965.200,684974.400,184758.300,180244.600,200404.300,0.000
208910.300,215576.300,203991.800,225946.500,686024.900,185473.100,180919.300,201963.300,0.000
209365.000,215858.200,204297.700,226208.100,686772.100,185747.800,181102.500,202671.400,0.000
208758.200,215517.700,203869.600,225672.100,686358.600,185406.400,180728.300,201989.900,0.000
207559.800,214836.400,203054.300,224815.300,685206.300,184746.000,180143.800,200503.900,0.000
207595.800,214825.400,203074.600,224933.200,684954.100,184738.600,180228.200,200391.500,0.000
208885.000,215548.400,203948.100,225902.000,686002.600,185449.400,180897.800,201945.100,0.000
209348.100,215837.700,204261.800,226170.300,686752.600,185734.000,181087.200,202659.100,0.000
208763.200,215517.900,203850.200,225655.500,686365.400,185410.000,180731.900,202000.100,0.000
207551.400,214824.100,203020.400,224784.600,685216.300,184736.700,180137.300,200505.300,0.000
207596.600,214828.100,203055.900,224917.100,684986.800,184742.800,180233.300,200402.300,0.000
208899.100,215564.900,203947.300,225900.700,686023.900,185462.400,180913.800,201964.600,0.000
209351.600,215840.200,204252.900,226159.800,686770.200,185736.900,181098.000,202672.500,0.000
208762.100,215512.900,203837.800,225638.600,686375.000,185406.700,180736.800,202007.200,0.000
207547.700,214813.300,203005.800,224764.200,685210.900,184730.300,180137.500,200506.300,0.000
207590.000,214815.700,203037.600,224896.000,684967.600,184735.900,180234.400,200399.600,0.000
208877.200,215535.900,203911.700,225864.000,685997.900,185437.500,180896.500,201942.900,0.000
209339.100,215820.200,204222.400,226128.800,686748.900,185714.100,181083.200,202654.800,0.000
208756.900,215503.100,203814.000,225615.500,686358.800,185392.000,180726.700,201999.300,0.000
207549.100,214811.800,202986.500,224747.600,685200.400,184726.700,180130.400,200505.500,0.000
207580.100,214800.300,203002.500,224861.800,684964.300,184720.900,180214.800,200379.500,0.000
208886.700,215538.900,203891.500,225846.400,686014.500,185440.500,180896.300,201940.700,0.000
209356.400,215831.000,204209.200,226119.900,686767.800,185726.800,181092.500,202663.700,0.000
208777.600,215514.500,203803.800,225605.400,686384.000,185405.300,180737.600,202010.600,0.000
207576.300,214830.100,202986.600,224745.300,685222.600,184744.100,180152.600,200523.900,0.000
207590.300,214806.100,202992.600,224851.000,684955.600,184724.700,180225.100,200383.800,0.000
208885.900,215535.500,203870.600,225823.900,686005.800,185435.000,180896.600,201932.900,0.000
209363.100,215833.800,204197.600,226106.000,686767.300,185728.600,181098.000,202664.400,0.000
208785.100,215515.900,203791.100,225591.900,686384.000,185407.400,180740.900,202011.700,0.000
207566.400,214816.700,202954.600,224714.300,685215.900,184725.800,180136.700,200508.700,0.000
207577.900,214796.800,202963.000,224821.500,684956.600,184705.900,180213.200,200375.500,0.000
208889.300,215540.700,203858.300,225811.800,686004.500,185431.500,180900.400,201942.300,0.000
209365.600,215836.100,204181.200,226090.900,686774.600,185721.400,181097.700,202672.000,0.000
208773.800,215508.000,203761.100,225565.000,686382.300,185387.500,180731.600,202012.500,0.000
207553.800,214807.600,202922.700,224687.200,685216.200,184710.900,180127.700,200509.100,0.000
207566.700,214787.200,202932.100,224795.000,684967.400,184699.300,180207.700,200372.700,0.000
208861.000,215514.700,203814.800,225772.700,686003.100,185412.500,180881.600,201924.200,0.000
209339.800,215813.200,204147.600,226056.500,686766.900,185709.300,181086.300,202663.100,0.000
208765.700,215496.000,203744.300,225544.200,686385.300,185388.500,180732.600,202015.800,0.000
207566.000,214810.800,202920.900,224678.300,685226.300,184724.700,180141.300,200526.300,0.000
207570.000,214785.000,202919.000,224776.600,684953.600,184702.200,180211.400,200373.800,0.000
208873.000,215522.100,203804.400,225762.400,686007.800,185420.800,180893.800,201931.800,0.000
209355.100,215822.500,204134.500,226048.000,686775.600,185717.800,181101.000,202676.300,0.000
208765.100,215491.700,203717.200,225522.000,686387.700,185386.200,180733.900,202021.800,0.000
207568.400,214809.300,202902.300,224662.800,685233.300,184725.900,180145.800,200535.000,0.000
207566.400,214776.800,202900.500,224757.600,684949.700,184699.600,180209.800,200373.900,0.000
208869.400,215511.900,203783.700,225740.900,685998.500,185414.100,180887.800,201926.500,0.000
209354.800,215811.900,204115.200,226028.600,686763.600,185706.300,181091.100,202668.100,0.000
208780.000,215494.600,203710.000,225517.300,686386.900,185386.900,180736.600,202024.000,0.000
207573.300,214808.600,202886.500,224649.300,685230.300,184722.900,180144.100,200531.900,0.000
207564.800,214775.400,202883.400,224742.000,684949.800,184697.700,180211.000,200369.200,0.000
208869.900,215512.900,203773.000,225726.800,685989.800,185414.300,180890.100,201922.500,0.000
209348.600,215807.200,204093.900,226005.700,686750.300,185698.700,181081.900,202653.800,0.000
208776.000,215491.700,203686.200,225493.400,686381.200,185381.200,180727.300,202013.300,0.000
207573.200,214807.800,202868.600,224629.600,685229.300,184719.900,180141.800,200528.000,0.000
207574.300,214783.600,202867.200,224722.700,684948.700,184698.000,180212.400,200364.500,0.000
208869.200,215510.300,203745.300,225695.700,685990.600,185408.500,180885.000,201910.100,0.000
209351.000,215805.100,204077.300,225983.100,686755.900,185704.000,181090.800,202654.400,0.000
208800.100,215510.400,203690.700,225489.600,686399.900,185400.400,180753.900,202028.900,0.000
207593.600,214818.900,202866.800,224622.000,685241.400,184731.600,180159.500,200536.300,0.000
207582.100,214782.000,202859.300,224712.000,684953.100,184705.100,180228.300,200371.200,0.000
208864.000,215495.800,203723.500,225677.800,685971.900,185405.500,180893.600,201909.200,0.000
209339.500,215784.100,204041.800,225955.900,686737.600,185690.100,181088.400,202646.600,0.000
208782.100,215482.600,203647.700,225457.500,686385.700,185383.900,180745.500,202023.400,0.000
207568.000,214790.300,202817.900,224582.000,685227.700,184711.100,180144.700,200527.100,0.000
207563.800,214768.500,202820.600,224681.400,684949.800,184692.600,180217.400,200365.300,0.000
208850.700,215489.300,203689.800,225648.700,685982.700,185392.300,180880.100,201902.000,0.000
209344.600,215796.500,204026.200,225940.900,686755.700,185690.600,181087.500,202653.200,0.000
208788.600,215490.600,203635.600,225443.000,686396.400,185383.000,180745.000,202027.900,0.000
207586.300,214803.000,202816.400,224577.900,685247.400,184715.900,180155.400,200539.300,0.000
207553.500,214753.000,202790.600,224648.600,684950.100,184665.900,180205.600,200345.900,0.000
208843.400,215472.700,203667.000,225622.000,685979.900,185368.200,180872.700,201885.900,0.000
209340.500,215779.200,204007.700,225921.700,686750.300,185671.400,181080.200,202644.000,0.000
208777.200,215471.500,203607.200,225413.200,686389.300,185357.500,180729.800,202013.400,0.000
207562.600,214779.400,202778.300,224539.800,685229.400,184686.000,180134.300,200517.200,0.000
207548.600,214752.400,202774.400,224634.200,684937.800,184657.500,180208.500,200342.900,0.000
208834.100,215470.400,203642.100,225602.300,685966.900,185348.700,180872.500,201880.000,0.000
209338.500,215785.700,203986.900,225907.600,686757.900,185650.300,181089.900,202649.900,0.000
208788.400,215487.600,203602.900,225418.300,686411.200,185342.400,180753.200,202035.700,0.000
207589.800,214804.000,202783.700,224553.800,685251.300,184676.600,180161.600,200546.700,0.000
207543.900,214743.600,202747.400,224612.800,684938.900,184622.200,180199.000,200337.200,0.000
208832.700,215467.700,203621.900,225588.000,685976.600,185326.700,180870.100,201876.100,0.000
209333.700,215779.600,203964.100,225889.300,686759.200,185633.500,181087.700,202643.000,0.000
208786.200,215483.800,203580.400,225398.100,686416.400,185337.600,180753.900,202032.400,0.000
207570.800,214786.200,202749.500,224523.800,685252.100,184667.100,180153.500,200534.800,0.000
207530.500,214734.800,202717.700,224590.700,684958.100,184622.000,180202.400,200331.200,0.000
208834.600,215471.700,203605.500,225577.800,685999.200,185343.500,180886.300,201884.500,0.000
209332.000,215777.600,203946.600,225877.800,686774.600,185644.200,181094.900,202644.700,0.000
208786.900,215486.200,203569.300,225393.800,686433.000,185350.200,180760.300,202036.000,0.000
207585.400,214804.500,202748.900,224527.600,685271.700,184691.400,180166.700,200551.000,0.000
207532.500,214741.900,202706.500,224584.600,684952.600,184640.800,180207.400,200339.900,0.000
208825.600,215468.100,203583.500,225564.000,685995.200,185355.800,180883.100,201883.500,0.000
209333.300,215779.700,203930.100,225869.000,686778.100,185662.600,181096.200,202651.500,0.000
208785.500,215481.200,203550.700,225381.500,686437.900,185363.200,180759.300,202044.000,0.000
207584.300,214799.200,202731.900,224516.600,685276.000,184700.800,180167.200,200553.200,0.000
207543.000,214749.100,202703.600,224587.900,684963.200,184656.300,180217.600,200346.400,0.000
208827.000,215469.000,203574.600,225559.000,685993.100,185359.300,180885.300,201881.200,0.000
209330.200,215778.400,203915.300,225860.400,686774.600,185665.400,181100.100,202649.300,0.000
208775.300,215473.400,203523.900,225358.000,686424.300,185358.600,180756.200,202033.000,0.000
207575.600,214790.500,202706.000,224492.800,685264.400,184699.200,180168.000,200548.700,0.000
207529.300,214740.100,202676.500,224559.000,684945.600,184655.000,180219.500,200337.700,0.000
208812.600,215455.900,203545.500,225526.600,685975.200,185356.700,180884.000,201870.100,0.000
209333.000,215782.400,203904.600,225845.100,686776.700,185678.100,181110.300,202659.700,0.000
208779.800,215477.400,203510.100,225346.200,686430.300,185369.100,180762.100,202046.500,0.000
207573.000,214788.100,202685.700,224472.100,685262.900,184700.900,180166.300,200550.000,0.000
207520.200,214727.600,202649.400,224530.400,684936.300,184650.000,180208.800,200328.300,0.000
208807.600,215448.900,203524.600,225508.500,685964.000,185353.200,180877.000,201865.000,0.000
209329.800,215776.700,203886.100,225831.700,686764.800,185674.800,181105.400,202654.900,0.000
208787.000,215479.200,203500.600,225342.500,686427.800,185373.600,180764.700,202050.800,0.000
207577.700,214787.600,202672.900,224469.000,685277.500,184704.900,180167.500,200556.200,0.000
207505.600,214713.900,202622.500,224513.800,684964.600,184640.300,180196.800,200317.800,0.000
208796.100,215438.400,203501.700,225496.800,685972.900,185352.800,180875.400,201858.400,0.000
209314.600,215761.700,203858.400,225813.700,686769.800,185669.200,181101.800,202643.400,0.000
208787.200,215479.500,203492.300,225336.800,686446.100,185383.000,180778.500,202055.800,0.000
207583.400,214787.800,202661.800,224460.800,685282.400,184713.300,180179.100,200562.100,0.000
207514.200,214717.900,202607.000,224503.900,684943.400,184652.100,180207.200,200320.500,0.000
208807.500,215446.200,203487.900,225487.900,685978.600,185364.600,180882.000,201862.000,0.000
209316.600,215757.900,203834.900,225795.000,686767.600,185669.200,181093.800,202641.600,0.000
208778.400,215466.500,203454.400,225307.700,686435.900,185368.900,180757.500,202044.900,0.000
207575.700,214780.400,202631.300,224437.100,685276.000,184705.800,180161.900,200555.400,0.000
207511.200,214718.700,202588.800,224486.300,684940.800,184649.700,180197.500,200318.700,0.000
208813.400,215456.000,203479.500,225475.900,685987.500,185372.100,180882.900,201871.000,0.000
209324.500,215766.700,203823.700,225781.600,686776.900,185675.600,181094.400,202649.700,0.000
208792.000,215475.200,203448.700,225298.800,686451.200,185376.300,180758.900,202054.800,0.000
207586.600,214785.900,202628.400,224426.900,685291.400,184711.800,180166.300,200562.400,0.000
207521.200,214723.900,202584.100,224473.400,684947.600,184653.700,180204.400,200321.800,0.000
208807.700,215443.000,203458.800,225449.900,685973.300,185358.300,180875.200,201858.600,0.000
209339.600,215771.300,203821.100,225774.200,686778.800,185677.100,181103.500,202653.700,0.000
208800.700,215474.300,203437.200,225284.500,686447.900,185374.600,180762.500,202052.500,0.000
207586.300,214774.700,202606.500,224407.000,685283.900,184701.300,180160.300,200555.100,0.000
207512.100,214706.700,202559.800,224451.800,684951.400,184638.300,180195.600,200309.500,0.000
208809.100,215440.300,203443.900,225436.100,685983.600,185350.600,180875.300,201849.800,0.000
209342.300,215771.100,203809.800,225761.800,686789.300,185679.000,181107.700,202651.000,0.000
208806.300,215475.900,203432.200,225276.100,686461.600,185383.700,180770.800,202057.900,0.000
207604.700,214791.300,202609.600,224406.400,685290.800,184719.600,180173.000,200569.100,0.000
207525.600,214718.800,202553.800,224445.900,684947.400,184652.500,180201.800,200315.400,0.000
208808.400,215436.000,203427.300,225419.500,685973.800,185354.200,180873.900,201848.400,0.000
209343.300,215767.500,203795.600,225748.900,686786.100,185680.800,181107.300,202656.800,0.000
208813.800,215473.800,203421.600,225269.400,686463.600,185386.500,180774.100,202068.200,0.000
207602.800,214780.600,202586.300,224385.100,685285.800,184711.600,180168.800,200565.000,0.000
207532.500,214720.800,202544.000,224436.200,684959.400,184660.900,180211.500,200324.200,0.000
208815.300,215440.600,203418.400,225412.600,685985.300,185363.700,180882.400,201855.500,0.000
209364.900,215784.700,203797.300,225753.000,686805.400,185702.000,181129.800,202673.800,0.000
208841.800,215501.600,203426.800,225273.800,686491.600,185410.200,180800.900,202090.500,0.000
207628.600,214804.700,202594.400,224391.300,685320.300,184737.600,180197.900,200593.100,0.000
207538.700,214728.400,202530.800,224420.600,684969.600,184670.100,180223.500,200331.000,0.000
208815.300,215441.100,203398.400,225390.200,685990.900,185370.500,180892.000,201858.400,0.000
209350.300,215771.100,203765.800,225718.800,686799.700,185697.300,181128.300,202669.500,0.000
208839.300,215499.700,203406.800,225255.400,686498.200,185421.000,180810.600,202103.000,0.000
207625.500,214801.900,202572.400,224374.600,685321.900,184746.200,180204.300,200604.100,0.000
207546.600,214739.800,202523.600,224418.900,684970.400,184688.000,180239.900,200347.800,0.000
208844.100,215472.000,203411.400,225408.400,685999.100,185404.500,180920.200,201887.900,0.000
209371.800,215793.500,203769.600,225726.500,686808.600,185719.700,181141.300,202684.800,0.000
208849.000,215504.600,203400.700,225250.400,686493.100,185430.000,180812.000,202106.100,0.000
207640.200,214812.100,202571.500,224371.400,685324.400,184758.900,180211.300,200611.100,0.000
207539.400,214727.900,202503.600,224395.500,684955.000,184683.400,180233.700,200336.100,0.000
208834.400,215458.100,203384.100,225378.800,685974.200,185389.200,180909.800,201869.200,0.000
209383.200,215800.200,203763.800,225722.000,686808.200,185725.900,181154.300,202690.000,0.000
208864.800,215514.800,203398.600,225248.900,686498.200,185436.900,180823.200,202114.100,0.000
207656.700,214822.900,202567.700,224370.000,685331.400,184764.300,180219.400,200618.600,0.000
207547.500,214731.400,202490.200,224390.300,684952.300,184681.400,180234.500,200334.600,0.000
208828.000,215446.500,203355.400,225359.700,685958.000,185376.000,180901.100,201857.900,0.000
209379.000,215788.000,203735.800,225701.300,686792.500,185711.300,181147.700,202684.400,0.000
208862.800,215508.800,203375.000,225234.300,686487.600,185429.900,180826.200,202115.900,0.000
207654.100,214819.100,202549.600,224358.000,685322.800,184761.000,180224.700,200622.900,0.000
207543.800,214727.700,202474.300,224372.900,684952.700,184675.300,180235.500,200332.100,0.000
208826.800,215444.900,203345.600,225348.900,685970.100,185376.300,180906.600,201857.100,0.000
209374.200,215782.500,203721.600,225690.200,686787.600,185710.600,181148.400,202678.800,0.000
208881.000,215523.800,203375.300,225237.600,686501.300,185440.700,180843.000,202127.300,0.000
207671.800,214830.100,202545.600,224356.300,685337.700,184768.500,180243.500,200634.100,0.000
207544.100,214724.100,202453.300,224355.900,684950.000,184673.400,180243.400,200329.200,0.000
208827.300,215442.600,203326.900,225333.800,685965.500,185375.400,180912.400,201854.500,0.000
209369.900,215775.600,203700.500,225672.000,686781.500,185704.700,181149.000,202675.600,0.000
208860.000,215497.700,203344.600,225210.400,686480.900,185422.000,180828.900,202113.300,0.000
207661.800,214812.400,202523.900,224338.400,685323.800,184757.200,180231.700,200628.200,0.000
207534.600,214708.300,202434.000,224339.100,684933.800,184661.500,180232.000,200320.600,0.000
208826.200,215434.100,203314.900,225325.400,685955.100,185371.600,180910.900,201854.300,0.000
209388.700,215786.300,203705.100,225679.100,686790.300,185716.700,181160.800,202693.800,0.000
208875.900,215505.200,203341.800,225209.800,686489.200,185430.300,180835.200,202128.700,0.000
207665.300,214809.000,202509.300,224324.400,685327.500,184756.600,180228.300,200630.000,0.000
207535.000,214702.400,202417.000,224321.200,684933.700,184658.900,180226.400,200312.400,0.000
208829.500,215435.600,203300.000,225307.700,685945.000,185370.600,180907.400,201845.600,0.000
209393.700,215785.700,203688.900,225659.300,686787.100,185716.200,181158.000,202683.900,0.000
208885.500,215504.100,203330.100,225189.500,686490.400,185433.900,180832.800,202121.700,0.000
207686.300,214818.900,202508.400,224315.700,685333.700,184771.000,180237.200,200636.800,0.000
207560.500,214722.400,202424.900,224323.400,684947.300,184682.900,180248.700,200331.900,0.000
208855.700,215456.400,203312.700,225317.500,685975.500,185402.800,180939.400,201871.800,0.000
209381.600,215769.700,203662.100,225632.200,686773.400,185710.500,181154.000,202675.200,0.000
208875.200,215488.700,203300.800,225165.600,686476.600,185421.300,180825.700,202113.000,0.000
207678.800,214803.900,202480.400,224293.200,685328.100,184756.800,180230.900,200632.500,0.000
207542.100,214697.100,202386.900,224287.600,684927.500,184657.400,180232.000,200313.300,0.000
208834.800,215428.600,203272.300,225279.900,685948.900,185371.000,180917.200,201846.000,0.000
209385.300,215767.500,203649.400,225624.900,686776.400,185705.500,181155.000,202678.100,0.000
208868.400,215479.200,203280.200,225148.500,686473.500,185412.400,180816.800,202112.300,0.000
207674.900,214801.300,202464.000,224280.500,685326.500,184752.600,180222.600,200632.600,0.000
207546.000,214707.100,202382.500,224287.100,684937.900,184664.400,180232.800,200321.300,0.000
208829.000,215427.400,203255.500,225265.300,685948.900,185366.000,180910.800,201842.600,0.000
209384.300,215766.500,203634.800,225606.400,686775.800,185701.100,181151.300,202677.100,0.000
208889.900,215499.200,203289.700,225154.400,686493.800,185428.000,180837.100,202133.100,0.000
207686.400,214811.700,202466.300,224280.400,685339.900,184763.200,180237.800,200647.300,0.000
207537.300,214696.400,202361.900,224267.200,684931.000,184657.800,180228.700,200315.100,0.000
