EEG 1, EEG 2, EEG 3, EEG 4, EEG 5, EEG 6, EEG 7, EEG 8, TRIG
750000.100,750000.100,604432.400,625615.300,-328143.300,750000.100,708204.100,750000.100,0.000
750000.100,750000.100,728881.100,590569.400,58275.740,750000.100,750000.100,750000.100,0.000
750000.100,750000.100,715606.300,750000.100,750000.100,750000.100,750000.100,750000.100,0.000
750000.100,750000.100,750000.100,750000.100,750000.100,750000.100,750000.100,750000.100,0.000
750000.100,750000.100,750000.100,750000.100,750000.100,750000.100,750000.100,750000.100,0.000
750000.100,750000.100,750000.100,750000.100,750000.100,750000.100,750000.100,750000.100,0.000
750000.100,750000.100,750000.100,750000.100,750000.100,750000.100,750000.100,750000.100,0.000
750000.100,750000.100,750000.100,750000.100,750000.100,750000.100,750000.100,750000.100,0.000
750000.100,750000.100,750000.100,750000.100,750000.100,750000.100,750000.100,750000.100,0.000
677209.300,750000.100,750000.100,750000.100,750000.100,750000.100,750000.100,750000.100,0.000
573540.000,658184.100,750000.100,750000.100,668485.100,721265.400,719928.100,673302.000,0.000
495519.800,565063.800,750000.100,750000.100,576744.100,621322.100,620853.800,581981.200,0.000
433813.100,491405.000,750000.100,750000.100,504249.400,542093.900,542306.100,509953.600,0.000
398592.900,450035.500,750000.100,750000.100,463203.400,498050.300,498340.500,468826.400,0.000
380872.300,430162.100,750000.100,750000.100,443231.900,477776.400,477812.800,448349.600,0.000
366158.300,413528.800,750000.100,750000.100,426430.400,460764.000,460698.300,431168.700,0.000
357606.200,401291.200,750000.100,750000.100,415436.300,448094.000,448549.100,420733.500,0.000
349937.000,390202.300,750000.100,750000.100,405730.100,436672.600,437622.500,411674.600,0.000
340681.300,378795.100,750000.100,750000.100,394775.300,424930.700,425918.800,400702.700,0.000
329635.900,366733.400,750000.100,750000.100,382315.500,412529.800,413250.800,387719.000,0.000
319611.500,355630.400,750000.100,750000.100,370794.200,401021.400,401612.000,375796.700,0.000
314684.700,348008.900,750000.100,750000.100,364037.100,392967.600,393979.900,369481.200,0.000
310207.500,340980.300,750000.100,750000.100,358049.800,385605.500,387033.100,364036.500,0.000
304016.300,333310.800,750000.100,750000.100,350617.900,377607.000,379044.800,356575.200,0.000
296006.000,324803.000,750000.100,750000.100,341594.000,368761.200,369940.100,347066.000,0.000
288668.500,316870.900,750000.100,750000.100,333147.200,360444.200,361483.900,338248.400,0.000
285741.600,311834.400,750000.100,750000.100,328763.300,354988.400,356392.700,334264.600,0.000
283146.200,307218.600,750000.100,750000.100,324993.100,350056.400,351824.300,330996.600,0.000
278828.100,301836.500,750000.100,750000.100,319724.200,344357.500,346122.800,325707.000,0.000
272686.200,295509.800,750000.100,750000.100,312840.500,337718.300,339227.900,318369.000,0.000
267016.800,289555.500,750000.100,750000.100,306323.400,331409.200,332768.800,311496.400,0.000
265331.200,286147.900,750000.100,750000.100,303454.400,327622.400,329307.600,308992.200,0.000
263921.700,283069.000,750000.100,750000.100,301106.100,324258.300,326275.500,307115.500,0.000
260835.600,279182.800,750000.100,750000.100,297283.000,320094.300,322100.300,303274.200,0.000
255916.200,274272.600,750000.100,750000.100,291793.800,314900.700,316655.800,297361.500,0.000
251364.000,269638.200,750000.100,750000.100,286582.400,309951.000,311553.000,291815.500,0.000
250539.400,267360.300,750000.100,750000.100,284775.600,307340.800,309239.900,290363.400,0.000
249906.500,265291.200,750000.100,750000.100,283369.000,305022.800,307229.500,289410.900,0.000
247590.600,262353.700,750000.100,750000.100,280465.900,301842.300,304032.200,286497.000,0.000
243506.100,258414.400,750000.100,750000.100,275954.800,297659.500,299605.400,281590.300,0.000
239723.800,254687.200,750000.100,750000.100,271650.100,293657.000,295452.800,276971.000,0.000
239447.800,253137.000,750000.100,750000.100,270528.800,291809.800,293888.200,276190.300,0.000
239350.500,251768.600,750000.100,750000.100,269779.200,290227.800,292599.000,275888.800,0.000
237650.500,249572.300,750000.100,750000.100,267597.200,287819.500,290177.000,273709.100,0.000
234196.700,246356.800,750000.100,750000.100,263808.900,284382.200,286507.300,269544.900,0.000
230951.100,243260.400,750000.100,750000.100,260139.500,281040.800,283018.100,265571.800,0.000
231075.300,242237.000,750000.100,750000.100,259513.100,279747.600,281991.800,265273.000,0.000
231376.200,241380.400,750000.100,750000.100,259240.700,278693.500,281219.300,265434.000,0.000
230095.000,239689.800,750000.100,750000.100,257552.500,276810.200,279319.300,263751.000,0.000
227081.000,236973.900,750000.100,750000.100,254280.300,273905.700,276183.500,260120.100,0.000
224228.300,234345.300,750000.100,750000.100,251075.700,271051.400,273183.600,256629.900,0.000
224650.000,233726.100,750000.100,750000.100,250820.800,270178.600,272568.800,256701.200,0.000
225213.300,233218.900,750000.100,750000.100,250884.800,269502.200,272168.700,257195.100,0.000
224229.900,231888.900,750000.100,750000.100,249562.400,268005.800,270658.900,255880.100,0.000
221557.800,229562.700,750000.100,750000.100,246684.400,265506.100,267934.800,252653.700,0.000
219004.500,227281.800,750000.100,750000.100,243834.400,263020.000,265302.000,249517.800,0.000
219650.200,226960.300,750000.100,750000.100,243871.100,262470.800,265003.100,249871.400,0.000
220447.800,226759.300,750000.100,750000.100,244228.800,262118.800,264920.800,250653.900,0.000
219694.100,225709.600,750000.100,750000.100,243175.300,260912.100,263697.800,249614.000,0.000
217270.700,223668.600,750000.100,750000.100,240593.900,258720.200,261282.800,246696.800,0.000
214930.200,221636.400,750000.100,750000.100,237998.900,256499.700,258916.000,243820.500,0.000
215733.500,221532.200,750000.100,750000.100,238233.900,256179.300,258840.600,244371.900,0.000
216706.300,221561.800,750000.100,750000.100,238805.300,256066.700,258994.500,245370.100,0.000
216148.000,220750.200,748869.400,749372.100,237990.600,255111.400,258025.500,244574.200,0.000
213926.000,218938.800,746927.800,747429.500,235645.200,253157.600,255850.800,241895.800,0.000
211760.200,217120.300,745153.400,745654.300,233257.800,251160.800,253705.800,239235.700,0.000
212686.600,217189.800,743590.600,744091.100,233658.100,251028.100,253813.200,239945.000,0.000
213780.900,217380.400,742017.300,742516.900,234388.000,251089.500,254141.000,241094.500,0.000
213364.700,216738.600,740443.400,740941.300,233744.800,250319.500,253357.300,240474.900,0.000
211307.400,215115.200,738917.100,739414.100,231596.700,248570.600,251390.300,238001.800,0.000
209256.900,213443.300,737533.200,738029.800,229370.000,246742.600,249413.200,235500.100,0.000
210265.000,213634.000,736336.800,736832.900,229875.900,246736.500,249639.800,236305.900,0.000
211479.600,213973.200,735118.900,735614.400,230742.100,246949.600,250117.100,237592.700,0.000
211157.000,213447.500,733876.800,734371.800,230212.100,246298.500,249454.200,237088.500,0.000
209202.300,211942.900,732663.700,733158.100,228180.400,244668.100,247610.300,234738.600,0.000
207274.900,210423.600,731593.800,732087.700,226104.800,243000.400,245796.600,232395.900,0.000
208337.600,210698.500,730685.700,731178.800,226697.900,243096.100,246126.200,233290.600,0.000
209612.400,211127.100,729738.600,730231.400,227647.400,243404.000,246696.900,234661.600,0.000
209415.200,210759.300,728776.700,729268.500,227282.500,242926.600,246208.700,234330.600,0.000
207569.000,209383.900,727823.000,728314.800,225389.200,241440.300,244511.200,232130.800,0.000
205697.200,207933.700,726979.200,727470.400,223374.300,239841.500,242766.900,229852.700,0.000
206792.600,208262.800,726284.800,726775.700,224004.500,239986.000,243142.600,230784.500,0.000
208158.500,208804.700,725565.000,726055.700,225071.300,240417.700,243837.100,232278.700,0.000
208032.300,208520.900,724810.800,725301.200,224792.800,240027.700,243444.900,232049.700,0.000
206257.700,207220.900,724049.800,724539.600,222977.200,238618.100,241829.400,229942.100,0.000
204447.800,205848.500,723396.400,723885.800,221045.200,237103.700,240169.200,227759.100,0.000
205613.300,206290.400,722897.200,723386.200,221791.100,237375.900,240672.200,228821.900,0.000
207018.100,206897.500,722346.600,722835.000,222920.800,237879.600,241437.000,230391.400,0.000
206924.700,206662.200,721744.100,722232.600,222686.200,237536.600,241085.500,230209.500,0.000
205219.000,205443.200,721136.500,721624.700,220945.200,236202.400,239539.500,228175.800,0.000
203459.500,204146.500,720629.100,721116.900,219080.600,234765.100,237950.700,226054.300,0.000
204650.400,204641.600,720269.600,720757.200,219876.400,235099.600,238510.200,227150.300,0.000
206075.800,205283.000,719847.700,720335.200,221049.000,235653.600,239322.800,228742.800,0.000
206010.100,205074.700,719367.500,719854.800,220849.700,235354.300,239015.200,228578.300,0.000
204349.500,203901.500,718879.300,719366.300,219154.000,234078.100,237523.100,226574.400,0.000
202618.700,202639.900,718482.100,718969.100,217310.000,232676.400,235961.400,224449.900,0.000
203807.600,203152.600,718222.500,718709.200,218110.500,233026.700,236529.400,225523.000,0.000
205278.300,203856.800,717905.300,718391.700,219335.400,233637.300,237395.100,227152.000,0.000
205306.100,203754.000,717540.800,718027.200,219230.700,233438.300,237183.500,227080.900,0.000
203674.600,202610.000,717143.100,717629.300,217551.300,232185.300,235711.400,225094.600,0.000
201954.000,201373.800,716832.900,717318.800,215714.200,230807.600,234166.400,222971.300,0.000
203178.700,201952.500,716666.600,717152.900,216567.700,231228.500,234797.500,224089.600,0.000
204644.300,202664.200,716422.300,716908.800,217794.400,231848.200,235670.100,225718.000,0.000
204666.100,202553.000,716120.100,716606.600,217674.300,231638.100,235447.800,225633.700,0.000
203059.600,201425.500,715785.800,716272.100,215998.000,230388.700,233977.500,223652.300,0.000
201380.500,200233.200,715546.300,716032.900,214192.000,229046.900,232465.500,221562.300,0.000
202619.800,200848.800,715445.800,715932.600,215080.900,229505.200,233135.600,222712.600,0.000
204124.500,201614.900,715267.600,715754.700,216362.800,230180.600,234071.200,224407.500,0.000
204169.000,201524.200,715021.700,715508.500,216254.400,229986.800,233869.100,224358.400,0.000
202582.700,200414.600,714743.600,715230.900,214586.100,228757.000,232417.400,222409.300,0.000
200893.100,199217.700,714551.300,715039.300,212756.300,227408.000,230889.100,220309.400,0.000
202088.800,199806.200,714491.900,714979.800,213604.500,227839.200,231525.200,221424.200,0.000
203561.900,200546.300,714346.300,714834.100,214852.900,228485.000,232428.000,223088.200,0.000
203646.500,200500.100,714151.100,714639.400,214782.900,228334.600,232266.200,223084.100,0.000
202110.800,199438.600,713923.900,714412.700,213151.900,227150.300,230857.500,221182.700,0.000
200426.800,198253.100,713767.500,714256.600,211319.500,225805.000,229333.500,219076.100,0.000
201664.500,198899.500,713751.400,714241.100,212225.400,226292.700,230027.300,220228.700,0.000
203268.700,199782.900,713674.100,714164.400,213640.600,227099.900,231095.900,222047.500,0.000
203384.400,199763.800,713510.800,714001.800,213615.400,226987.000,230980.100,222084.000,0.000
201866.200,198712.800,713305.800,713797.400,212002.100,225817.200,229590.300,220195.800,0.000
200183.300,197532.800,713174.400,713667.100,210183.200,224488.100,228080.700,218093.700,0.000
201393.300,198171.700,713179.500,713673.400,211093.500,224982.800,228780.600,219242.000,0.000
202966.500,199045.600,713115.400,713611.800,212517.500,225791.500,229859.200,221069.800,0.000
203101.300,199053.800,712970.400,713471.600,212532.600,225712.900,229782.300,221155.500,0.000
201633.400,198055.100,712790.800,713298.800,210982.100,224601.200,228450.800,219340.900,0.000
199943.000,196881.000,712671.600,713187.300,209171.600,223285.700,226952.800,217252.300,0.000
201179.700,197571.500,712703.100,713223.400,210132.400,223835.800,227708.500,218453.400,0.000
202764.600,198454.300,712654.600,713179.000,211579.600,224663.900,228806.100,220305.800,0.000
202875.300,198436.500,712516.300,713047.300,211584.800,224573.400,228719.400,220384.800,0.000
201423.700,197456.600,712350.300,712890.300,210056.700,223481.800,227408.900,218594.300,0.000
199759.100,196315.500,712248.100,712798.600,208284.100,222203.400,225945.000,216541.400,0.000
200998.800,197018.900,712294.200,712851.400,209271.700,222777.700,226725.700,217765.700,0.000
202594.500,197923.800,712256.900,712820.600,210748.600,223630.400,227851.000,219648.000,0.000
202722.400,197924.800,712130.000,712704.200,210785.400,223565.700,227788.700,219760.800,0.000
201281.800,196958.900,711777.100,712558.700,209286.600,222500.500,226506.200,218006.300,0.000
199640.600,195854.600,709490.800,712481.000,207558.900,221271.800,225094.000,216003.500,0.000
200837.800,196520.000,706680.300,712534.900,208508.500,221814.700,225842.800,217189.000,0.000
202420.100,197407.800,704212.100,712514.400,209972.000,222655.000,226955.700,219057.700,0.000
202560.600,197426.600,700623.300,712411.900,210016.500,222601.400,226905.500,219179.300,0.000
201122.300,196460.800,695729.800,712277.200,208509.700,221529.300,225614.300,217407.800,0.000
199461.000,195337.100,690631.800,712215.900,206755.300,220275.000,224172.900,215364.000,0.000
200684.900,196041.400,688059.300,712292.600,207742.600,220858.800,224962.400,216577.800,0.000
202273.800,196939.500,685807.300,712276.800,209220.600,221707.000,226086.500,218452.900,0.000
202459.000,197007.000,682577.300,712198.900,209327.900,221707.500,226091.700,218631.300,0.000
201043.100,196067.100,678174.900,712086.400,207868.600,220678.400,224843.900,216911.700,0.000
199365.800,194937.900,673488.800,712033.300,206110.000,219426.700,223400.700,214868.900,0.000
200545.700,195597.400,671271.300,712106.700,207044.400,219965.600,224136.300,216026.800,0.000
202154.800,196520.700,669571.200,712105.000,208545.200,220841.700,225281.500,217926.800,0.000
202360.000,196613.900,666701.600,712040.300,208689.200,220882.500,225326.300,218143.800,0.000
200949.200,195676.900,662414.400,711930.400,207232.900,219857.400,224080.200,216421.400,0.000
199268.600,194548.500,657848.900,711881.100,205475.600,218607.700,222641.200,214375.100,0.000
200433.300,195203.400,655751.400,711957.000,206406.200,219142.200,223374.900,215526.500,0.000
202048.400,196133.500,654194.800,711961.300,207925.900,220033.200,224537.600,217445.900,0.000
202253.500,196226.200,651462.300,711895.800,208075.000,220074.000,224587.100,217670.000,0.000
200865.000,195321.900,647346.100,711796.600,206665.400,219090.900,223390.300,215999.100,0.000
199176.800,194195.100,642916.100,711754.600,204918.300,217851.500,221960.500,213959.800,0.000
200355.200,194880.700,640977.700,711846.900,205877.500,218423.400,222728.300,215137.700,0.000
201985.500,195829.800,639574.800,711859.800,207412.700,219334.900,223911.800,217075.200,0.000
202164.500,195895.400,636949.800,711786.300,207533.100,219346.100,223930.900,217264.900,0.000
200745.100,194954.300,632932.400,711672.900,206085.200,218322.900,222690.500,215545.300,0.000
199075.800,193854.800,628663.100,711636.900,204366.800,217117.500,221292.600,213529.200,0.000
200271.200,194554.200,626878.200,711736.000,205348.500,217715.400,222084.800,214723.900,0.000
201934.900,195538.400,625641.800,711759.800,206922.700,218663.500,223307.700,216692.000,0.000
202125.200,195618.700,623161.700,711689.400,207062.600,218692.400,223342.700,216890.600,0.000
200762.800,194740.400,619338.200,711591.300,205685.500,217738.200,222171.000,215231.300,0.000
199077.400,193630.800,615187.400,711548.900,203960.100,216526.800,220767.600,213195.300,0.000
200212.600,194276.500,613466.800,711632.900,204878.700,217065.100,221498.400,214311.900,0.000
201854.300,195232.000,612336.900,711650.800,206435.600,217992.800,222699.700,216252.200,0.000
202079.400,195350.600,610017.900,711591.100,206616.800,218062.600,222778.600,216488.900,0.000
200683.200,194440.200,606283.600,711479.800,205208.100,217076.200,221577.600,214799.200,0.000
198997.400,193334.100,602255.600,711437.400,203487.300,215870.000,220179.900,212767.100,0.000
200162.400,194016.200,600689.100,711536.000,204445.700,216451.400,220955.300,213926.400,0.000
201785.600,194956.500,599654.500,711550.000,205986.900,217364.500,222143.800,215857.200,0.000
201991.700,195056.800,597441.300,711485.800,206165.300,217430.500,222218.200,216098.700,0.000
200625.100,194178.300,593860.500,711378.900,204800.600,216481.800,221058.200,214459.400,0.000
198931.700,193073.300,589943.000,711330.400,203082.100,215279.400,219663.000,212430.600,0.000
200074.900,193736.300,588468.800,711419.100,204021.000,215846.000,220418.900,213571.300,0.000
201731.400,194712.100,587586.900,711442.000,205607.300,216804.300,221649.400,215553.300,0.000
201964.900,194838.600,585511.900,711255.300,205817.000,216897.200,221752.500,215832.100,0.000
200608.100,193971.800,582053.300,708877.900,204478.200,215971.100,220616.600,214219.900,0.000
198896.900,192850.100,578233.100,704246.100,202756.600,214761.500,219214.900,212188.800,0.000
200045.500,193530.900,576875.500,702715.400,203711.000,215341.700,219984.000,213344.000,0.000
201705.700,194514.500,576106.800,702237.700,205313.400,216311.100,221232.900,215346.600,0.000
201920.700,194622.300,574122.300,700213.700,205518.100,216395.600,221329.500,215619.900,0.000
200569.300,193761.900,570769.900,696387.800,204183.000,215474.000,220196.400,214010.300,0.000
198869.300,192658.500,567063.600,692041.000,202477.000,214282.000,218810.600,211992.100,0.000
199980.400,193306.900,565775.800,690707.800,203405.600,214843.500,219560.200,213118.700,0.000
201636.100,194279.900,565097.800,690342.100,204996.100,215804.700,220799.100,215105.400,0.000
201869.600,194409.000,563229.500,688474.800,205217.400,215905.200,220918.300,215392.300,0.000
200560.100,193593.200,560022.300,684986.900,203945.800,215043.300,219849.400,213840.200,0.000
198864.300,192497.100,556406.600,681242.600,202263.000,213875.000,218489.300,211833.500,0.000
199991.900,193165.600,555211.000,680348.500,203218.400,214464.500,219270.200,212977.100,0.000
201643.900,194135.900,554608.300,680347.200,204816.200,215428.700,220515.100,214959.500,0.000
201915.800,194301.100,552854.900,678877.400,205088.900,215574.500,220676.200,215280.500,0.000
200596.800,193475.500,549715.300,675583.400,203819.000,214704.400,219596.600,213709.200,0.000
198901.100,192391.400,546202.000,671727.900,202162.100,213556.700,218256.800,211713.000,0.000
200011.500,193052.300,545097.300,670847.800,203121.600,214150.500,219038.400,212846.500,0.000
201676.800,194040.600,544609.700,670936.400,204749.000,215142.700,220311.000,214856.700,0.000
201913.900,194175.600,542919.300,669506.100,204994.900,215261.500,220447.100,215155.800,0.000
200608.300,193368.000,539886.800,666299.100,203744.500,214412.700,219390.900,213613.300,0.000
198917.400,192286.600,536463.400,662515.100,202085.800,213271.800,218055.900,211627.800,0.000
200001.500,192922.800,535416.300,661670.100,203009.200,213840.900,218810.600,212738.900,0.000
201649.400,193889.800,534989.600,661795.300,204603.900,214808.600,220056.500,214732.900,0.000
201898.900,194034.500,533394.600,660445.700,204857.900,214941.400,220207.300,215058.000,0.000
200572.200,193198.600,530420.900,657279.200,203578.200,214066.800,219128.300,213501.700,0.000
198847.200,192083.200,527038.600,653509.300,201873.900,212881.000,217749.400,211474.000,0.000
199936.200,192726.900,526071.100,652720.700,202789.500,213450.500,218501.900,212580.700,0.000
201573.000,193677.500,525704.300,652887.100,204361.600,214396.400,219723.900,214552.100,0.000
201819.700,193811.300,524172.200,651581.000,204592.600,214507.100,219851.400,214855.200,0.000
200530.400,193010.000,521306.500,648502.800,203335.100,213654.600,218793.300,213321.000,0.000
198833.700,191930.200,518037.200,644840.400,201668.500,212509.100,217456.600,211332.300,0.000
199876.300,192536.400,517099.800,644073.500,202542.000,213042.000,218171.500,212393.300,0.000
201520.800,193501.800,516816.600,644312.700,204127.500,214002.900,219409.300,214373.200,0.000
201798.400,193679.900,515399.200,643112.900,204410.100,214164.700,219584.800,214719.300,0.000
200540.000,192893.400,512630.300,640121.300,203181.700,213330.300,218546.100,213209.500,0.000
199034.000,191954.500,509610.800,636713.000,201713.200,212328.100,217364.500,211409.600,0.000
200063.400,192563.800,508771.900,636049.400,202619.500,212889.000,218112.300,212507.000,0.000
201526.400,193391.600,508409.100,636190.300,204034.500,213721.000,219215.600,214327.600,0.000
201637.800,193435.500,506900.500,634864.600,204130.400,213740.400,219240.100,214494.800,0.000
200422.600,192695.700,504232.600,631954.200,202936.500,212946.500,218233.800,213011.800,0.000
198978.000,191806.600,501330.800,628652.800,201531.900,211994.000,217099.000,211258.400,0.000
200023.800,192434.300,500572.600,628059.800,202463.500,212573.100,217862.400,212364.500,0.000
201503.000,193279.800,500299.800,628288.600,203918.600,213436.200,218997.700,214215.400,0.000
201617.800,193326.800,498863.800,627029.100,204030.800,213465.500,219035.400,214391.500,0.000
200411.600,192591.500,496271.700,624186.100,202851.800,212677.700,218042.300,212918.700,0.000
198987.000,191718.300,493463.800,620972.100,201476.000,211753.500,216939.200,211194.000,0.000
199995.500,192308.800,492733.800,620396.700,202368.900,212299.700,217666.700,212261.500,0.000
201457.600,193136.200,492495.300,620648.500,203784.100,213128.600,218764.200,214075.900,0.000
201580.700,193188.300,491125.900,619453.700,203889.800,213159.000,218800.600,214254.300,0.000
200351.800,192423.100,488563.900,616636.000,202669.900,212339.200,217770.200,212746.200,0.000
198886.200,191507.800,485764.800,613416.900,201229.800,211361.500,216609.200,210961.900,0.000
199914.500,192117.500,485108.300,612895.500,202120.400,211912.300,217340.700,212028.000,0.000
201398.400,192966.500,484954.400,613220.700,203555.500,212763.300,218458.600,213865.300,0.000
201496.400,192985.100,483611.800,612038.400,203621.900,212757.000,218455.100,214012.800,0.000
200271.900,192220.200,481103.300,609263.900,202386.800,211924.600,217412.200,212499.900,0.000
198826.100,191330.100,478382.600,606117.600,200965.500,210970.100,216271.300,210736.200,0.000
199826.800,191916.800,477757.300,605622.300,201832.300,211506.000,216981.000,211778.400,0.000
201306.100,192758.800,477650.400,605989.500,203252.700,212346.800,218090.800,213609.400,0.000
201431.200,192804.300,476387.800,604881.500,203339.600,212360.200,218107.800,213780.000,0.000
200231.400,192064.900,473961.500,602180.500,202127.700,211551.700,217086.000,212289.200,0.000
198737.500,191126.300,471241.700,599019.600,200644.400,210539.100,215882.500,210461.200,0.000
199735.600,191713.200,470664.700,598555.300,201496.600,211061.400,216577.900,211484.200,0.000
201253.800,192596.600,470653.400,599014.900,202958.700,211945.300,217730.200,213358.000,0.000
201376.600,192642.600,469445.600,597958.600,203047.200,211959.400,217749.300,213532.800,0.000
200161.900,191884.100,467052.900,595286.700,201814.600,211129.500,216704.700,212026.100,0.000
198692.900,190979.800,464416.100,592208.900,200361.600,210154.200,215538.200,210233.500,0.000
199680.100,191569.800,463886.300,591787.900,201207.500,210683.400,216233.600,211253.100,0.000
201177.300,192430.900,463900.700,592264.800,202639.800,211540.400,217352.000,213095.200,0.000
201304.900,192473.400,462744.100,591259.600,202727.700,211555.300,217370.800,213272.700,0.000
200105.700,191725.000,460415.000,588647.000,201507.200,210733.100,216338.600,211777.300,0.000
198645.100,190826.400,457833.100,585610.300,200055.200,209755.100,215167.500,209979.500,0.000
199624.700,191414.200,457348.500,585232.300,200897.100,210285.500,215864.200,210993.400,0.000
201097.800,192248.800,457389.000,585733.200,202308.600,211123.100,216965.700,212816.400,0.000
201227.900,192293.200,456274.900,584762.400,202386.600,211126.800,216972.800,212982.700,0.000
200043.700,191555.400,454006.600,582207.400,201171.400,210316.300,215948.300,211495.000,0.000
198574.600,190650.700,451465.500,579213.100,199709.800,209339.700,214774.000,209687.600,0.000
199533.000,191222.400,451004.400,578851.600,200524.800,209852.000,215451.000,210670.400,0.000
200999.600,192048.800,451076.500,579373.300,201909.700,210669.000,216528.100,212466.900,0.000
201130.800,192082.600,450003.600,578441.600,201976.700,210662.900,216522.200,212626.500,0.000
199964.500,191363.000,447790.100,575944.400,200771.000,209861.000,215504.000,211153.300,0.000
198467.000,190437.300,445264.900,572958.400,199267.900,208851.200,214296.800,209312.600,0.000
199397.000,190982.100,444814.600,572589.300,200030.800,209320.800,214927.500,210249.100,0.000
200883.900,191827.100,444945.300,573162.500,201421.300,210143.300,216014.100,212057.900,0.000
201042.800,191892.700,443942.200,572295.000,201506.500,210159.400,216033.700,212241.200,0.000
199859.700,191145.100,441751.100,569816.100,200268.900,209332.000,214988.800,210744.000,0.000
198347.300,190200.700,439246.000,566845.400,198733.700,208299.700,213751.200,208877.900,0.000
199252.600,190726.800,438810.100,566483.200,199456.500,208742.200,214347.100,209782.400,0.000
200728.200,191554.000,438960.500,567066.800,200812.300,209539.900,215400.500,211566.600,0.000
200898.700,191625.400,438002.800,566241.100,200893.600,209556.300,215415.900,211760.000,0.000
199771.000,190937.300,435902.700,563855.500,199706.100,208779.900,214419.500,210322.100,0.000
198265.000,190005.800,433443.800,560934.300,198179.900,207761.100,213191.500,208469.800,0.000
199138.900,190503.400,433012.200,560564.700,198864.900,208171.000,213752.300,209335.100,0.000
200628.600,191356.600,433228.700,561219.600,200257.200,209003.400,214846.100,211156.100,0.000
200807.700,191432.600,432322.300,560445.800,200356.000,209028.800,214875.900,211364.700,0.000
199703.000,190758.100,430284.300,558119.000,199198.000,208269.500,213900.700,209949.100,0.000
198195.700,189823.000,427865.100,555233.100,197678.000,207251.200,212675.400,208093.600,0.000
199098.400,190359.100,427515.000,554949.300,198417.400,207711.500,213290.200,209000.800,0.000
200640.300,191265.900,427831.700,555706.500,199881.600,208608.400,214453.500,210883.700,0.000
200825.800,191349.600,426977.100,554990.700,200012.900,208655.900,214507.700,211113.800,0.000
199721.300,190676.600,424987.700,552717.900,198874.800,207908.600,213548.700,209717.000,0.000
198231.300,189766.300,422633.500,549900.800,197390.100,206922.500,212356.300,207890.700,0.000
199096.300,190277.700,422297.200,549629.300,198112.800,207369.600,212957.000,208776.800,0.000
200605.200,191151.100,422620.000,550393.100,199554.400,208238.300,214094.400,210635.600,0.000
200811.500,191252.800,421824.400,549744.500,199713.100,208304.600,214178.400,210898.600,0.000
199709.900,190576.100,419873.500,547517.400,198584.500,207559.500,213229.800,209508.600,0.000
198216.500,189658.900,417554.400,544736.000,197104.700,206572.000,212041.900,207680.300,0.000
199118.100,190217.900,417296.400,544549.300,197884.700,207073.400,212698.200,208615.800,0.000
200627.800,191097.000,417661.100,545359.400,199344.000,207954.000,213851.300,210489.600,0.000
200834.400,191198.500,416905.900,544756.600,199521.900,208031.900,213946.600,210763.800,0.000
199776.100,190574.900,415044.700,542632.300,198465.500,207353.500,213062.100,209438.000,0.000
198295.200,189682.600,412783.200,539910.500,197021.300,206400.900,211905.600,207631.700,0.000
199148.800,190205.300,412520.800,539716.300,197768.300,206876.200,212533.600,208519.500,0.000
200645.900,191072.600,412911.800,540550.300,199223.100,207753.900,213684.400,210375.100,0.000
200896.200,191211.400,412229.800,540020.900,199441.900,207867.300,213818.600,210684.600,0.000
199839.300,190576.900,410397.800,537925.900,198381.300,207178.500,212926.000,209356.800,0.000
198324.800,189658.200,408143.400,535218.000,196916.900,206209.700,211752.900,207538.100,0.000
199094.900,190121.400,407844.400,534985.800,197591.300,206628.200,212325.300,208365.000,0.000
200561.200,190972.300,408238.400,535820.900,199016.800,207488.500,213455.000,210201.500,0.000
200874.500,191155.500,407643.500,535385.800,199302.000,207656.100,213642.900,210580.800,0.000
199925.900,190591.800,405940.800,533432.300,198351.400,207047.400,212838.200,209362.400,0.000
198401.600,189664.000,403720.300,530764.400,196888.300,206080.000,211671.600,207548.300,0.000
199071.900,190047.000,403359.500,530460.200,197461.600,206420.700,212161.800,208274.700,0.000
200503.900,190866.500,403739.500,531272.900,198840.100,207242.200,213249.300,210063.000,0.000
200856.500,191077.900,403206.800,530899.400,199160.400,207435.700,213464.200,210478.900,0.000
199954.400,190563.000,401584.700,529036.600,198270.100,206882.800,212716.600,209325.800,0.000
198400.300,189611.600,399364.800,526371.200,196782.700,205894.400,211521.200,207485.600,0.000
199030.600,189957.500,398994.600,526043.700,197309.900,206195.700,211965.100,208162.200,0.000
200493.400,190806.900,399437.100,526909.900,198715.500,207045.200,213084.000,209981.300,0.000
200878.700,191054.800,398971.400,526612.800,199079.400,207280.700,213347.500,210449.500,0.000
199961.000,190517.200,397355.000,524757.800,198168.800,206699.500,212573.900,209276.900,0.000
198402.900,189564.600,395158.800,522118.900,196679.400,205709.900,211380.700,207435.000,0.000
199043.500,189939.000,394836.500,521846.500,197231.500,206047.300,211860.200,208138.700,0.000
200486.100,190767.100,395286.700,522727.600,198623.000,206883.400,212968.600,209947.000,0.000
200868.100,190995.300,394832.600,522431.000,198968.400,207090.700,213203.900,210390.600,0.000
199985.200,190492.000,393284.300,520644.000,198101.400,206548.700,212472.100,209257.900,0.000
198386.700,189499.400,391077.100,517985.300,196568.900,205519.200,211236.400,207368.900,0.000
198999.000,189840.900,390745.500,517691.200,197083.800,205822.100,211675.300,208023.800,0.000
200448.300,190668.100,391226.400,518599.100,198482.300,206663.900,212784.500,209830.900,0.000
200847.700,190919.900,390820.200,518355.000,198852.800,206895.300,213045.900,210294.900,0.000
199952.100,190402.000,389279.600,516563.900,197961.700,206325.900,212283.500,209127.600,0.000
198378.700,189436.000,387124.500,513953.700,196454.300,205325.200,211071.200,207250.100,0.000
198995.300,189791.700,386828.800,513697.900,196979.200,205646.300,211526.100,207906.500,0.000
200443.700,190627.700,387338.700,514633.400,198376.000,206490.300,212638.300,209712.000,0.000
200839.600,190875.800,386958.600,514416.400,198746.100,206721.600,212895.800,210173.500,0.000
199946.600,190358.600,385447.900,512662.500,197860.500,206161.300,212139.400,209013.500,0.000
198349.900,189363.500,383289.600,510038.600,196316.100,205123.100,210891.800,207098.400,0.000
198941.500,189689.300,382988.800,509761.400,196800.100,205402.800,211307.600,207714.700,0.000
200410.100,190533.100,383533.200,510723.900,198201.900,206247.300,212420.200,209522.900,0.000
200854.200,190833.000,383225.200,510589.500,198626.800,206535.600,212735.200,210043.200,0.000
199959.400,190310.500,381734.600,508857.600,197737.700,205973.800,211978.200,208884.100,0.000
198367.400,189323.300,379604.000,506267.600,196201.600,204948.300,210738.600,206981.700,0.000
198948.600,189641.700,379315.300,506005.000,196681.200,205230.300,211150.800,207592.200,0.000
200405.000,190469.900,379867.800,506974.800,198069.800,206063.100,212251.200,209392.600,0.000
200813.100,190725.300,379540.500,506809.600,198442.600,206294.500,212513.900,209868.000,0.000
199925.100,190209.200,378077.400,505107.300,197560.900,205733.300,211761.300,208722.800,0.000
198333.200,189225.900,375973.000,502541.300,196025.900,204710.300,210523.600,206827.200,0.000
198924.600,189557.800,375716.800,502311.500,196513.000,205003.100,210943.000,207450.800,0.000
200383.600,190397.000,376294.800,503319.100,197914.000,205845.800,212054.500,209268.700,0.000
200780.800,190638.600,375976.600,503162.800,198277.000,206063.100,212302.900,209739.900,0.000
199901.800,190125.900,374544.100,501485.000,197399.100,205505.700,211555.200,208604.300,0.000
198310.900,189148.400,372466.300,498945.100,195868.000,204489.800,210326.800,206715.600,0.000
198869.200,189451.000,372196.700,498691.500,196312.600,204741.900,210708.800,207296.300,0.000
200344.000,190299.900,372812.400,499725.000,197721.800,205590.500,211830.400,209124.100,0.000
200740.000,190544.200,372521.200,499594.900,198092.000,205815.200,212088.500,209600.400,0.000
199879.000,190053.400,371129.600,497956.800,197233.800,205277.000,211358.400,208478.200,0.000
198299.600,189095.000,369086.600,495450.900,195722.300,204282.300,210145.300,206597.100,0.000
198827.700,189366.000,368813.000,495184.900,196141.100,204513.200,210500.300,207141.600,0.000
200312.400,190227.900,369460.900,496252.800,197565.300,205378.800,211637.100,208981.800,0.000
200746.400,190512.800,369225.600,496187.400,197978.100,205643.400,211935.100,209499.400,0.000
199883.700,190023.900,367856.600,494578.500,197131.400,205116.300,211215.200,208388.500,0.000
198280.100,189044.500,365810.700,492066.000,195594.500,204102.400,209982.000,206484.600,0.000
198828.100,189348.400,365579.000,491847.600,196039.000,204367.000,210370.300,207060.700,0.000
200297.600,190188.000,366226.000,492915.800,197443.200,205209.000,211484.500,208882.700,0.000
200717.600,190453.900,366000.300,492855.900,197844.200,205457.700,211767.200,209387.000,0.000
199865.200,189978.700,364666.000,491280.600,197010.000,204939.400,211059.000,208289.000,0.000
198259.500,188995.900,362636.300,488787.800,195468.100,203920.800,209822.800,206379.000,0.000
198793.900,189285.800,362405.700,488569.300,195893.100,204168.000,210193.000,206930.600,0.000
200265.400,190127.600,363073.200,489653.300,197295.000,205006.900,211307.100,208751.300,0.000
200715.700,190422.700,362899.400,489654.500,197737.300,205292.600,211633.600,209302.500,0.000
199889.100,189968.700,361611.100,488140.300,196941.400,204811.100,210962.200,208243.700,0.000
198284.400,188989.300,359606.900,485673.500,195412.500,203806.200,209736.100,206343.400,0.000
198800.700,189266.100,359381.800,485454.300,195828.800,204048.900,210098.500,206883.500,0.000
200275.000,190111.300,360074.200,486567.800,197246.400,204903.200,211226.000,208719.300,0.000
200726.500,190405.400,359920.500,486589.800,197697.300,205190.200,211555.400,209276.100,0.000
199897.400,189951.500,358646.400,485083.300,196900.100,204701.600,210878.700,208212.400,0.000
198265.400,188943.200,356631.400,482597.500,195337.300,203663.700,209621.000,206276.800,0.000
198762.700,189200.900,356402.900,482365.500,195726.700,203882.900,209962.100,206787.100,0.000
200282.700,190096.800,357159.100,483549.300,197197.600,204791.300,211146.800,208677.100,0.000
200742.700,190397.800,357034.100,483599.900,197659.300,205092.000,211489.000,209248.500,0.000
199901.300,189923.900,355767.200,482098.200,196848.500,204589.100,210800.000,208173.200,0.000
198272.000,188918.000,353767.000,479625.000,195285.100,203550.200,209541.300,206232.400,0.000
198760.800,189169.400,353544.200,479395.500,195662.900,203760.900,209869.500,206725.700,0.000
200271.500,190049.800,354307.000,480583.600,197121.100,204656.500,211039.600,208603.400,0.000
200747.000,190361.300,354214.600,480667.800,197600.400,204971.900,211395.400,209189.000,0.000
199933.900,189918.500,352994.800,479214.200,196824.600,204501.500,210735.800,208144.400,0.000
198293.200,188911.100,351008.700,476761.000,195266.900,203471.900,209483.600,206207.600,0.000
198763.700,189153.700,350792.500,476542.500,195640.200,203682.900,209813.000,206695.600,0.000
200274.100,190035.100,351571.000,477746.700,197101.100,204576.800,210983.800,208574.100,0.000
200743.200,190338.100,351480.600,477834.600,197571.600,204876.000,211327.400,209151.900,0.000
199903.100,189854.500,350244.100,476357.500,196759.600,204365.000,210632.600,208071.600,0.000
198303.000,188890.300,348319.000,473965.000,195250.000,203385.900,209430.400,206179.600,0.000
198791.200,189157.400,348136.100,473784.900,195650.100,203629.000,209787.300,206691.500,0.000
200294.500,190025.100,348920.100,474996.400,197106.400,204516.800,210950.900,208565.300,0.000
200760.300,190319.200,348842.300,475097.900,197575.900,204813.600,211290.100,209145.200,0.000
199941.500,189861.400,347646.400,473670.200,196799.500,204334.400,210624.000,208104.300,0.000
198306.800,188864.200,345705.000,471258.200,195259.000,203320.300,209387.000,206181.800,0.000
198766.800,189104.200,345518.300,471063.000,195636.300,203537.700,209726.800,206665.000,0.000
200290.300,189983.000,346345.100,472316.300,197114.400,204446.900,210924.600,208562.200,0.000
200770.800,190293.500,346308.900,472460.100,197605.300,204763.700,211291.600,209161.100,0.000
199957.500,189852.900,345143.900,471068.500,196844.500,204301.300,210645.600,208129.400,0.000
198294.200,188820.300,343182.100,468631.500,195261.100,203248.700,209368.200,206155.600,0.000
198779.800,189087.200,343024.000,468464.300,195649.300,203485.600,209715.300,206644.400,0.000
200296.600,189968.200,343852.000,469717.600,197115.000,204382.200,210891.500,208524.800,0.000
200778.400,190279.200,343821.500,469864.200,197598.700,204689.600,211248.000,209114.700,0.000
199994.300,189857.900,342696.200,468518.500,196868.800,204256.600,210633.300,208115.700,0.000
198332.400,188826.700,340750.300,466096.100,195286.700,203206.200,209359.200,206146.000,0.000
198781.800,189061.400,340570.800,465898.300,195633.100,203405.600,209670.100,206593.700,0.000
200289.900,189923.900,341402.200,467152.100,197085.600,204287.200,210833.300,208465.300,0.000
200779.500,190234.500,341393.800,467325.900,197579.800,204600.500,211198.600,209069.900,0.000
199980.400,189798.800,340262.200,465970.400,196825.400,204143.300,210557.600,208049.300,0.000
198334.000,188787.400,338346.500,463578.300,195260.700,203112.500,209301.100,206096.400,0.000
198790.100,189035.300,338197.200,463417.100,195630.300,203338.400,209639.100,206567.900,0.000
200294.800,189893.800,339037.100,464679.000,197082.100,204216.100,210798.100,208439.200,0.000
200793.700,190213.000,339046.300,464873.100,197584.200,204533.200,211166.200,209053.900,0.000
200007.300,189780.000,337937.800,463541.100,196842.700,204082.400,210532.800,208046.400,0.000
198374.800,188782.500,336050.100,461180.100,195299.600,203069.000,209296.200,206115.000,0.000
198808.000,189005.700,335884.800,460999.500,195641.200,203263.500,209604.500,206558.900,0.000
200356.100,189913.900,336780.800,462333.400,197146.200,204194.300,210819.600,208490.600,0.000
200862.400,190246.700,336816.100,462562.800,197667.600,204531.900,211210.400,209131.800,0.000
200065.800,189811.800,335715.200,461240.600,196919.600,204078.700,210576.100,208121.500,0.000
198400.400,188782.600,333807.800,458859.700,195334.400,203033.500,209306.300,206154.500,0.000
198791.100,188954.800,333599.800,458624.500,195604.500,203168.300,209549.900,206532.900,0.000
200324.000,189836.700,334479.900,459923.900,197062.600,204053.900,210718.500,208424.800,0.000
200827.600,190168.800,334529.500,460165.300,197579.000,204393.800,211109.900,209069.800,0.000
200028.400,189727.700,333434.500,458848.900,196818.400,203935.900,210465.900,208057.500,0.000
198353.200,188690.100,331524.200,456457.700,195213.400,202873.400,209173.800,206069.800,0.000
198771.000,188905.000,331366.100,456271.900,195520.300,203048.100,209455.200,206479.300,0.000
200311.600,189796.500,332271.600,457596.800,196988.500,203947.500,210637.800,208377.600,0.000
200766.800,190069.000,332275.000,457778.400,197434.300,204212.000,210957.900,208947.900,0.000
199973.300,189635.400,331195.300,456469.300,196672.000,203749.900,210311.900,207927.000,0.000
198307.600,188617.300,329310.300,454095.900,195076.500,202703.000,209029.100,205945.300,0.000
198711.800,188818.300,329150.100,453894.000,195364.100,202863.500,209288.300,206330.000,0.000
200259.200,189716.100,330073.700,455238.600,196845.900,203775.000,210477.500,208239.000,0.000
200751.200,190028.500,330126.900,455469.800,197331.200,204082.900,210835.200,208848.200,0.000
199962.600,189595.200,329059.300,454166.300,196564.000,203616.000,210183.600,207821.300,0.000
198274.000,188546.500,327163.400,451774.800,194939.100,202538.300,208875.000,205810.000,0.000
198671.100,188737.200,327003.300,451570.300,195212.900,202683.400,209124.500,206184.000,0.000
200232.800,189653.800,327952.200,452943.200,196707.500,203609.300,210330.600,208113.300,0.000
200722.800,189970.700,328018.100,453193.600,197199.000,203923.700,210696.000,208732.400,0.000
199915.200,189518.000,326942.200,451883.900,196416.900,203443.000,210029.900,207691.700,0.000
198252.700,188498.000,325075.800,449523.800,194817.400,202391.200,208744.300,205704.200,0.000
198656.900,188698.300,324931.200,449330.800,195098.300,202548.500,209000.500,206079.000,0.000
200188.300,189568.800,325852.400,450660.600,196546.100,203423.500,210155.000,207955.500,0.000
200669.700,189870.600,325919.200,450906.600,197023.300,203722.900,210506.800,208562.700,0.000
199864.400,189421.300,324854.300,449603.600,196235.200,203236.200,209835.600,207519.800,0.000
198193.700,188400.300,322992.700,447245.400,194624.700,202178.300,208540.700,205522.000,0.000
198613.400,188622.200,322876.900,447083.200,194920.300,202355.800,208813.500,205913.200,0.000
200180.800,189531.700,323849.600,448475.600,196412.600,203274.700,210014.800,207842.300,0.000
200621.700,189788.100,323882.500,448683.400,196841.500,203523.700,210318.400,208404.100,0.000
199815.800,189337.400,322827.300,447386.600,196050.600,203040.200,209646.300,207362.900,0.000
198153.900,188320.900,320981.800,445036.400,194438.400,201986.200,208353.000,205364.700,0.000
198568.700,188535.600,320866.400,444861.700,194720.500,202149.000,208610.200,205735.600,0.000
200117.300,189424.200,321828.300,446236.700,196190.300,203040.900,209786.600,207640.000,0.000
200590.400,189723.700,321912.300,446499.900,196661.300,203335.900,210134.800,208249.300,0.000
199770.300,189260.100,320853.600,445196.400,195851.000,202832.500,209444.800,207190.900,0.000
198101.100,188236.700,319010.600,442850.800,194234.500,201771.200,208144.200,205187.300,0.000
198517.300,188449.200,318906.500,442690.600,194523.500,201935.900,208404.600,205563.600,0.000
200092.300,189358.300,319901.100,444100.100,196019.000,202850.600,209603.400,207494.600,0.000
200570.100,189653.900,319994.700,444372.400,196487.900,203143.200,209950.600,208103.500,0.000
199723.000,189166.000,318917.500,443050.300,195651.900,202619.300,209235.900,207017.800,0.000
198051.600,188145.200,317078.200,440706.300,194028.900,201556.500,207930.800,205006.000,0.000
198483.600,188378.500,316997.200,440571.700,194331.800,201739.800,208209.000,205396.700,0.000
200048.900,189272.200,317989.300,441974.600,195811.500,202637.500,209390.100,207311.600,0.000
200513.800,189558.600,318081.100,442244.800,196267.800,202920.300,209724.200,207910.400,0.000
199678.100,189082.600,317023.500,440940.700,195437.600,202401.600,209020.300,206835.500,0.000
198007.500,188059.700,315190.700,438597.200,193806.600,201328.400,207709.900,204817.300,0.000
198429.500,188280.300,315108.100,438450.800,194092.800,201492.600,207970.100,205189.600,0.000
200022.600,189202.900,316138.500,439894.700,195604.400,202415.400,209181.600,207136.400,0.000
200513.800,189525.800,316273.800,440214.800,196103.000,202737.700,209561.600,207775.500,0.000
199681.800,189067.700,315240.700,438946.700,195298.800,202249.900,208886.600,206720.700,0.000
198005.500,188043.500,313415.400,436612.500,193675.100,201185.000,207580.700,204698.300,0.000
198452.500,188291.600,313371.800,436505.200,193999.700,201383.300,207873.600,205094.500,0.000
200078.800,189250.500,314454.100,438010.400,195568.000,202356.600,209133.800,207086.000,0.000
200507.900,189507.300,314539.800,438278.700,196009.900,202619.900,209453.800,207660.500,0.000
199660.000,189031.500,313497.800,436993.500,195188.400,202117.300,208762.100,206584.900,0.000
198018.700,188046.000,311721.800,434716.300,193612.800,201103.900,207505.500,204609.700,0.000
198489.100,188313.000,311711.000,434648.000,193970.100,201331.300,207828.600,205033.600,0.000
200130.200,189284.000,312823.200,436192.100,195564.900,202327.000,209115.800,207056.000,0.000
200565.900,189561.700,312938.500,436503.600,196035.500,202622.700,209466.800,207664.800,0.000
199693.000,189068.200,311887.800,435219.600,195203.500,202113.500,208765.600,206581.200,0.000
198015.000,188035.800,310077.900,432898.900,193580.400,201049.700,207459.800,204555.200,0.000
198495.700,188309.400,310082.100,432837.900,193946.200,201279.100,207786.700,204982.200,0.000
200158.600,189297.900,311222.400,434415.200,195572.600,202295.000,209097.500,207033.100,0.000
200589.300,189567.700,311342.200,434735.900,196045.800,202589.900,209450.500,207647.500,0.000
199712.700,189066.500,310291.400,433446.200,195199.800,202063.400,208736.800,206552.800,0.000
198041.300,188043.500,308495.600,431144.500,193587.000,201008.100,207441.000,204539.700,0.000
198536.500,188346.200,308531.700,431132.800,193986.700,201277.900,207802.900,205004.000,0.000
200168.500,189298.300,309649.300,432686.700,195578.500,202258.600,209077.800,207022.500,0.000
200584.700,189550.500,309765.600,433000.300,196034.300,202536.400,209414.700,207622.800,0.000
199696.300,189039.200,308715.900,431715.600,195182.900,202005.600,208695.800,206525.900,0.000
198014.200,188006.300,306916.000,429400.200,193550.700,200933.700,207381.300,204494.800,0.000
198505.000,188300.100,306947.700,429370.300,193927.200,201184.800,207723.500,204937.300,0.000
200157.300,189273.600,308091.800,430951.100,195533.500,202187.900,209016.500,206974.200,0.000
200582.200,189533.000,308215.700,431274.600,195992.000,202468.900,209352.600,207575.100,0.000
199703.200,189031.300,307177.000,430002.100,195144.200,201944.400,208637.400,206482.700,0.000
198029.900,188012.300,305392.300,427707.300,193522.700,200890.800,207334.600,204458.700,0.000
198487.000,188272.700,305397.300,427644.900,193864.800,201112.300,207642.600,204857.400,0.000
200140.300,189240.300,306543.100,429219.600,195463.900,202098.800,208921.500,206881.000,0.000
200566.300,189498.400,306678.700,429557.500,195925.700,202378.000,209264.400,207485.700,0.000
199711.000,189020.200,305676.700,428329.400,195107.100,201882.400,208585.500,206423.600,0.000
198022.900,187987.800,303891.700,426040.600,193476.800,200821.100,207280.800,204393.800,0.000
198499.000,188263.000,303920.700,425999.000,193830.700,201053.500,207602.000,204799.500,0.000
200185.400,189261.300,305111.100,427625.800,195467.800,202081.200,208924.800,206861.200,0.000
200581.300,189486.300,305226.400,427947.100,195899.300,202332.000,209238.900,207439.800,0.000
199685.000,188966.100,304193.200,426685.700,195040.700,201794.600,208514.900,206336.700,0.000
198002.300,187937.300,302418.000,424400.700,193410.600,200731.500,207204.900,204304.000,0.000
198481.500,188227.500,302463.700,424381.200,193781.000,200983.900,207543.900,204727.100,0.000
200145.500,189196.000,303636.200,425984.100,195390.600,201978.700,208834.100,206761.300,0.000
200561.000,189442.300,303774.400,426325.800,195840.200,202241.400,209161.000,207354.300,0.000
199701.300,188969.200,302785.300,425117.800,195032.800,201753.100,208485.100,206303.000,0.000
198025.900,187951.300,301025.200,422849.400,193422.400,200705.000,207191.000,204287.200,0.000
198510.000,188239.500,301077.700,422831.500,193796.000,200957.200,207528.900,204709.000,0.000
200196.300,189229.700,302276.200,424461.300,195433.700,201973.600,208840.200,206768.200,0.000
200605.500,189468.500,302420.600,424810.900,195888.400,202239.400,209174.600,207368.600,0.000
199724.700,188967.700,301422.100,423586.000,195061.400,201731.500,208484.400,206295.000,0.000
198064.100,187975.100,299692.500,421357.800,193482.900,200717.200,207226.300,204308.800,0.000
198535.200,188260.700,299746.900,421344.000,193860.500,200970.400,207563.500,204725.500,0.000
200243.000,189280.300,300983.700,423025.200,195542.300,202032.000,208920.300,206825.000,0.000
200629.000,189496.500,301107.800,423354.400,195969.800,202271.100,209226.000,207396.300,0.000
199742.900,188993.800,300105.300,422123.100,195133.000,201753.400,208524.700,206310.000,0.000
198094.700,188009.900,298393.400,419915.000,193570.000,200755.000,207282.100,204337.000,0.000
198558.600,188280.300,298445.100,419896.000,193934.000,201001.300,207610.300,204737.600,0.000
200243.700,189265.500,299655.400,421547.300,195571.100,202017.600,208920.100,206792.900,0.000
200643.600,189496.200,299806.600,421914.900,196017.600,202280.500,209250.400,207387.500,0.000
199717.100,188950.100,298768.400,420648.900,195128.900,201715.200,208503.300,206253.500,0.000
198025.100,187912.200,297008.000,418375.900,193490.800,200642.700,207189.300,204205.400,0.000
198506.500,188197.800,297072.700,418360.700,193847.800,200885.700,207516.400,204600.600,0.000
200233.000,189223.100,298327.800,420059.800,195518.700,201942.300,208866.700,206696.100,0.000
200620.900,189443.700,298472.700,420414.300,195942.600,202185.700,209175.500,207273.900,0.000
199711.200,188921.200,297462.200,419173.700,195073.900,201641.400,208445.500,206164.700,0.000
198011.500,187880.400,295698.300,416891.700,193427.800,200559.400,207115.700,204107.300,0.000
198498.100,188167.500,295768.500,416881.600,193788.800,200800.700,207439.100,204501.400,0.000
200228.600,189187.000,297030.700,418585.800,195459.800,201849.700,208781.500,206596.400,0.000
200632.500,189429.400,297206.000,418981.400,195920.000,202127.500,209124.200,207209.500,0.000
199688.200,188869.800,296168.700,417716.200,195020.000,201555.300,208367.100,206069.800,0.000
197996.100,187837.100,294424.500,415452.400,193390.300,200490.500,207054.000,204028.800,0.000
198504.900,188151.900,294525.700,415468.000,193774.800,200757.300,207398.400,204446.500,0.000
200227.500,189162.000,295780.000,417160.700,195436.400,201790.900,208723.700,206526.900,0.000
200618.400,189394.300,295948.100,417546.100,195885.600,202057.500,209054.900,207129.400,0.000
199679.800,188846.000,294926.500,416297.000,195001.200,201498.100,208313.500,206005.700,0.000
198000.300,187831.800,293203.800,414062.200,193395.200,200455.700,207027.500,203987.200,0.000
198489.700,188124.700,293293.300,414067.900,193769.100,200710.200,207361.300,204389.200,0.000
200214.100,189124.900,294551.300,415758.100,195420.200,201729.200,208675.200,206460.500,0.000
200609.500,189364.100,294733.500,416161.400,195872.700,202001.800,209012.300,207072.300,0.000
199654.400,188810.200,293703.400,414913.000,194976.100,201438.500,208264.500,205941.200,0.000
197959.300,187780.900,291965.800,412658.700,193347.200,200373.500,206954.600,203900.100,0.000
198482.000,188097.500,292082.600,412685.600,193736.800,200643.300,207301.000,204314.500,0.000
200264.400,189158.400,293408.700,414460.600,195457.000,201737.600,208686.000,206459.800,0.000
200629.100,189361.400,293561.200,414836.900,195872.900,201976.000,208987.600,207033.800,0.000
199637.800,188768.100,292497.100,413538.100,194923.600,201363.100,208192.100,205849.100,0.000
197948.100,187747.200,290771.600,411292.900,193295.600,200303.300,206890.300,203814.500,0.000
198473.500,188074.000,290898.300,411335.000,193692.000,200578.700,207246.100,204236.300,0.000
200267.000,189136.600,292229.100,413111.900,195407.400,201660.800,208624.000,206377.500,0.000
200603.300,189311.800,292354.800,413456.400,195785.200,201861.400,208890.000,206921.100,0.000
199583.200,188702.000,291269.400,412137.900,194812.100,201232.200,208071.300,205716.400,0.000
197879.400,187672.000,289529.600,409878.500,193166.100,200159.800,206749.700,203663.600,0.000
198419.200,188008.800,289669.500,409928.500,193565.800,200442.200,207111.200,204094.500,0.000
200222.800,189081.400,291019.600,411725.300,195292.900,201534.900,208502.500,206255.500,0.000
200575.800,189280.700,291175.800,412107.300,195697.500,201765.000,208799.100,206831.700,0.000
199545.800,188664.400,290090.800,410789.800,194715.300,201132.300,207977.800,205623.400,0.000
197824.200,187614.200,288340.200,408516.600,193049.600,200040.700,206639.000,203555.400,0.000
198354.600,187933.800,288467.100,408544.100,193426.700,200299.300,206972.700,203959.000,0.000
200187.300,189032.200,289844.300,410367.100,195177.400,201414.000,208381.800,206137.300,0.000
200543.000,189232.000,290004.400,410756.100,195583.000,201645.300,208677.600,206713.700,0.000
199553.900,188655.700,288959.700,409483.200,194641.100,201048.900,207892.300,205543.200,0.000
197842.300,187627.400,287231.200,407237.100,192996.100,199981.200,206576.700,203490.100,0.000
198338.100,187926.200,287342.100,407250.700,193350.600,200227.700,206898.100,203867.100,0.000
200149.500,188992.900,288697.900,409042.400,195065.700,201307.200,208271.700,206003.000,0.000
200526.400,189202.500,288878.300,409446.100,195486.800,201549.300,208576.100,206586.100,0.000
199507.600,188586.000,287802.000,408133.200,194502.000,200906.700,207745.100,205369.600,0.000
197814.200,187577.700,286099.100,405913.200,192878.900,199862.200,206452.100,203339.100,0.000
198350.500,187932.500,286255.800,405984.200,193285.300,200167.600,206829.100,203766.200,0.000
200168.500,188998.400,287617.200,407784.100,195000.900,201247.100,208201.700,205905.400,0.000
200562.100,189228.700,287822.200,408217.200,195442.400,201510.200,208530.400,206515.900,0.000
199548.600,188626.200,286770.800,406940.600,194485.000,200895.000,207731.500,205332.300,0.000
197806.200,187568.900,285019.300,404665.900,192804.700,199792.400,206381.800,203245.000,0.000
198310.600,187883.900,285145.500,404687.400,193166.200,200052.300,206709.700,203624.200,0.000
200134.300,188957.500,286518.900,406497.900,194888.100,201137.400,208085.900,205767.600,0.000
200533.000,189196.300,286736.100,406949.100,195340.200,201407.400,208421.200,206386.700,0.000
199533.000,188614.700,285708.300,405707.700,194413.300,200817.800,207650.000,205232.300,0.000
197787.900,187556.900,283962.300,403444.600,192742.300,199723.900,206310.200,203156.900,0.000
198277.800,187852.300,284072.700,403443.300,193079.400,199957.700,206612.700,203511.100,0.000
200139.000,188958.200,285484.500,405294.900,194838.500,201077.600,208025.000,205692.700,0.000
200540.400,189192.300,285712.800,405767.400,195302.900,201359.600,208374.100,206328.700,0.000
199532.700,188592.000,284679.300,404518.900,194367.900,200760.100,207595.500,205167.400,0.000
197814.900,187563.400,282967.000,402293.100,192736.100,199701.800,206294.100,203128.500,0.000
198299.400,187863.100,283084.200,402306.100,193085.100,199948.500,206608.300,203492.300,0.000
200159.100,188967.600,284503.800,404170.300,194847.400,201073.500,208023.800,205681.500,0.000
200532.800,189168.100,284705.300,404606.800,195276.300,201311.100,208333.400,206281.000,0.000
199522.300,188565.600,283670.800,403352.300,194335.800,200700.300,207541.000,205110.400,0.000
197791.500,187523.000,281951.300,401116.800,192692.900,199627.600,206223.300,203051.700,0.000
198313.700,187869.900,282113.800,401181.100,193090.200,199927.100,206590.200,203455.900,0.000
200202.300,188997.700,283560.400,403074.900,194881.700,201074.000,208030.600,205665.900,0.000
200588.100,189209.000,283786.400,403543.400,195339.100,201334.000,208363.900,206292.000,0.000
199578.700,188617.800,282768.800,402316.900,194419.100,200746.400,207594.300,205142.600,0.000
197820.800,187558.100,281037.300,400071.200,192761.600,199664.800,206267.600,203073.400,0.000
198303.400,187864.800,281162.700,400088.600,193106.500,199914.600,206586.900,203429.400,0.000
200170.400,188957.300,282579.900,401944.900,194853.500,201017.300,207983.000,205601.900,0.000
200584.900,189192.000,282833.500,402439.400,195329.000,201295.000,208332.000,206251.600,0.000
199596.100,188623.600,281846.200,401246.800,194437.200,200735.500,207590.000,205135.700,0.000
197844.900,187575.000,280129.900,399024.300,192798.200,199673.200,206280.800,203088.000,0.000
198319.500,187875.600,280248.300,399039.700,193137.800,199924.600,206595.200,203440.100,0.000
200189.600,188969.300,281673.800,400910.800,194891.500,201033.700,207998.700,205623.500,0.000
200590.200,189186.000,281911.900,401390.700,195350.300,201289.400,208325.500,206256.400,0.000
199573.300,188587.800,280892.900,400162.600,194419.900,200686.700,207541.100,205102.300,0.000
197806.100,187524.000,279162.900,397923.000,192760.200,199600.200,206210.800,203034.000,0.000
198272.500,187820.200,279280.800,397932.700,193089.200,199842.800,206517.400,203375.600,0.000
200177.900,188947.500,280745.000,399843.800,194872.500,200983.800,207951.100,205593.000,0.000
200587.500,189170.300,280995.700,400336.700,195334.300,201244.500,208283.900,206233.800,0.000
199574.400,188576.000,279981.800,399112.900,194405.800,200643.900,207502.700,205079.000,0.000
197807.000,187520.700,278255.900,396877.700,192748.800,199562.000,206178.800,203012.700,0.000
198257.100,187794.700,278351.100,396855.200,193047.800,199774.300,206452.500,203316.100,0.000
200171.800,188925.500,279818.000,398766.000,194828.500,200911.000,207880.600,205528.100,0.000
200579.600,189147.400,280075.800,399274.200,195297.400,201178.100,208223.900,206179.000,0.000
199578.200,188569.000,279087.400,398080.000,194387.900,200598.500,207470.100,205048.500,0.000
197809.000,187518.500,277368.900,395851.900,192735.000,199524.400,206150.500,202981.900,0.000
198244.200,187785.700,277454.300,395819.600,193021.700,199730.100,206415.400,203273.700,0.000
200147.800,188897.400,278904.500,397709.300,194780.200,200843.200,207818.800,205465.000,0.000
200571.600,189130.300,279173.600,398224.200,195252.400,201111.400,208161.500,206122.500,0.000
199579.300,188557.000,278193.500,397039.300,194353.800,200540.500,207413.300,205004.600,0.000
197819.000,187515.600,276491.800,394830.400,192716.600,199484.500,206113.300,202961.100,0.000
198225.900,187754.000,276558.000,394770.400,192971.000,199664.100,206352.900,203223.600,0.000
200155.200,188894.300,278040.300,396695.900,194757.200,200807.700,207788.500,205445.800,0.000
200574.500,189119.100,278307.300,397211.400,195227.000,201069.200,208128.000,206101.000,0.000
199590.200,188556.700,277343.400,396041.400,194342.300,200506.900,207388.800,204990.700,0.000
197824.400,187515.100,275644.600,393834.000,192709.000,199452.300,206088.500,202941.300,0.000
198256.900,187787.200,275743.400,393812.100,193003.300,199674.300,206368.900,203237.500,0.000
200157.000,188884.600,277194.600,395699.000,194750.500,200780.500,207766.000,205420.400,0.000
200577.000,189102.800,277459.200,396206.500,195210.800,201033.000,208096.800,206063.000,0.000
199605.300,188558.000,276516.000,395065.100,194350.500,200494.400,207384.600,204978.500,0.000
197838.800,187518.000,274821.900,392858.800,192716.600,199437.700,206084.700,202927.600,0.000
198250.900,187773.500,274904.200,392813.900,192988.000,199643.200,206344.100,203199.000,0.000
200137.400,188859.100,276345.200,394689.400,194719.400,200732.400,207721.800,205367.300,0.000
200584.300,189109.600,276651.900,395249.100,195225.300,201027.900,208097.800,206063.100,0.000
199600.500,188550.200,275700.300,394097.200,194349.400,200475.300,207371.700,204967.800,0.000
197803.900,187479.300,273976.200,391856.300,192680.200,199386.300,206037.300,202883.900,0.000
198195.500,187718.200,274041.800,391788.400,192928.300,199571.800,206277.000,203131.600,0.000
200112.300,188834.200,275513.700,393699.000,194691.000,200693.100,207691.900,205331.700,0.000
200574.900,189093.200,275832.000,394267.300,195201.900,200991.300,208072.500,206033.700,0.000
199598.600,188533.200,274886.600,393116.200,194327.100,200433.600,207340.800,204938.100,0.000
197813.500,187479.100,273178.800,390897.300,192676.600,199363.300,206026.000,202870.100,0.000
198191.200,187705.800,273234.100,390811.300,192909.300,199534.300,206254.100,203096.200,0.000
200097.700,188806.400,274695.300,392699.800,194653.200,200632.700,207646.200,205273.400,0.000
200564.500,189068.800,275021.300,393277.600,195169.700,200933.900,208029.300,205981.100,0.000
199587.000,188505.100,274076.400,392135.800,194294.600,200377.500,207299.800,204887.900,0.000
197842.800,187496.100,272422.400,389977.900,192695.800,199364.000,206039.500,202873.200,0.000
198202.400,187715.900,272464.100,389878.900,192911.200,199527.100,206255.100,203079.600,0.000
200114.500,188822.500,273933.400,391774.400,194657.500,200632.000,207651.700,205260.500,0.000
200588.900,189090.300,274269.300,392365.600,195182.500,200941.100,208043.000,205978.400,0.000
199613.400,188526.100,273329.100,391222.600,194306.000,200379.000,207309.000,204881.800,0.000
197824.500,187472.400,271628.700,389009.400,192655.100,199309.900,205993.200,202811.200,0.000
198149.800,187662.500,271645.200,388885.600,192843.500,199450.700,206181.700,202989.000,0.000
200080.400,188787.700,273132.000,390802.600,194606.000,200570.700,207594.200,205187.100,0.000
200563.200,189058.100,273474.100,391400.600,195133.700,200875.000,207986.000,205911.300,0.000
199611.900,188522.500,272566.700,390302.400,194296.700,200349.300,207291.800,204859.100,0.000
197806.600,187453.600,270857.000,388085.800,192636.700,199272.300,205969.500,202783.900,0.000
198127.700,187642.100,270870.400,387951.500,192813.500,199403.600,206151.200,202952.300,0.000
200042.000,188747.000,272345.000,389852.300,194560.500,200509.300,207547.000,205134.800,0.000
200529.700,189016.700,272689.900,390452.800,195091.000,200814.300,207933.200,205858.900,0.000
199595.700,188494.000,271796.300,389363.700,194257.700,200292.900,207242.400,204814.200,0.000
197812.900,187449.500,270112.400,387170.800,192618.400,199240.100,205944.800,202761.900,0.000
198135.800,187648.500,270135.600,387050.200,192808.500,199393.100,206143.300,202940.300,0.000
200054.300,188756.900,271614.800,388954.700,194554.200,200498.600,207541.500,205125.000,0.000
200540.800,189024.200,271967.500,389563.000,195085.000,200803.400,207931.900,205859.200,0.000
199597.300,188489.000,271072.000,388477.000,194249.300,200274.800,207233.900,204816.200,0.000
197797.400,187425.600,269372.300,386264.000,192591.900,199196.800,205908.700,202741.600,0.000
198094.200,187601.200,269369.800,386106.000,192747.100,199314.800,206070.400,202883.000,0.000
200017.100,188716.600,270853.400,388015.200,194496.200,200422.900,207470.500,205071.500,0.000
200518.200,188992.100,271216.800,388636.000,195038.000,200732.900,207870.200,205815.700,0.000
199581.800,188464.500,270331.900,387567.300,194217.600,200215.800,207187.600,204787.000,0.000
197789.300,187414.800,268648.200,385375.800,192572.900,199156.400,205883.200,202727.200,0.000
198094.000,187602.800,268661.200,385233.600,192743.400,199294.300,206065.800,202877.800,0.000
200005.100,188697.200,270127.600,387120.100,194473.200,200381.400,207441.700,205038.900,0.000
200528.500,188993.000,270514.900,387766.400,195037.700,200712.500,207858.700,205803.800,0.000
199608.100,188478.700,269648.200,386717.500,194231.600,200209.200,207188.900,204789.100,0.000
197797.600,187407.600,267947.400,384509.300,192563.500,199124.600,205861.500,202708.700,0.000
198046.900,187549.300,267910.200,384315.700,192678.000,199212.900,205993.900,202804.400,0.000
199996.700,188686.500,269420.300,386247.000,194448.600,200343.900,207414.500,205007.300,0.000
200523.000,188978.300,269807.600,386895.100,195011.500,200668.400,207826.800,205771.600,0.000
199599.100,188451.100,268935.000,385836.300,194194.300,200148.300,207139.800,204747.500,0.000
197804.300,187397.600,267253.100,383647.500,192545.400,199083.300,205827.500,202684.600,0.000
198088.200,187586.400,267258.100,383503.600,192705.200,199223.900,206007.000,202828.100,0.000
200001.700,188686.600,268735.800,385404.700,194437.200,200317.800,207396.500,205001.400,0.000
200519.200,188965.800,269118.200,386046.900,194987.300,200628.200,207801.300,205760.400,0.000
199617.700,188458.800,268269.100,385013.400,194192.000,200127.400,207137.500,204766.100,0.000
197831.200,187413.900,266602.200,382842.400,192560.500,199079.700,205843.800,202723.300,0.000
198065.200,187558.600,266563.700,382647.400,192673.800,199181.700,205982.900,202818.200,0.000
199969.100,188650.300,268030.400,384528.600,194390.100,200262.300,207352.900,204975.600,0.000
200521.900,188961.800,268449.500,385209.600,194974.500,200607.400,207791.400,205773.200,0.000
199633.100,188458.800,267617.800,384196.500,194192.100,200118.900,207140.900,204791.700,0.000
197803.000,187362.700,265905.100,381968.300,192501.700,199009.900,205786.000,202684.700,0.000
198033.400,187511.200,265865.700,381767.400,192605.900,199104.000,205919.800,202766.500,0.000
199935.600,188604.800,267334.300,383657.100,194325.300,200188.000,207295.300,204925.400,0.000
200481.700,188910.500,267749.700,384340.800,194911.300,200529.500,207729.800,205722.000,0.000
199610.400,188431.600,266935.900,383354.300,194155.100,200061.400,207097.700,204761.600,0.000
197812.200,187376.100,265261.300,381176.100,192508.100,198999.600,205788.100,202698.800,0.000
198017.200,187492.500,265194.400,380935.300,192573.800,199057.000,205881.400,202738.300,0.000
199956.600,188622.300,266706.900,382871.400,194332.000,200182.800,207300.600,204940.300,0.000
200516.100,188935.200,267139.000,383572.800,194932.200,200537.500,207749.200,205752.000,0.000
199621.500,188424.200,266299.900,382557.200,194145.600,200034.400,207082.900,204756.000,0.000
197797.600,187343.200,264599.800,380351.300,192470.700,198942.000,205740.000,202658.100,0.000
197985.300,187450.200,264519.800,380096.300,192526.800,198995.900,205821.700,202682.400,0.000
199921.200,188575.000,266023.200,382018.900,194278.000,200114.100,207230.300,204874.000,0.000
200471.200,188878.900,266446.700,382718.900,194867.100,200457.200,207671.200,205682.500,0.000
199601.600,188389.500,265633.400,381728.100,194096.300,199969.200,207024.700,204712.400,0.000
197791.500,187316.900,263949.900,379533.000,192431.700,198886.200,205691.400,202627.300,0.000
197993.500,187449.600,263887.700,379302.100,192504.100,198962.000,205795.500,202665.300,0.000
199912.800,188564.600,265381.800,381220.100,194241.000,200069.400,207194.600,204843.800,0.000
200489.900,188894.900,265834.900,381950.800,194860.600,200441.000,207663.100,205683.400,0.000
199627.800,188406.900,265035.700,380979.200,194109.300,199971.500,207030.500,204732.500,0.000
197790.000,187303.500,263327.300,378759.600,192420.300,198862.900,205671.500,202621.600,0.000
197968.300,187417.200,263248.300,378502.600,192470.900,198922.000,205758.400,202634.400,0.000
199920.200,188561.100,264774.800,380447.400,194236.700,200057.800,207185.000,204837.600,0.000
200517.200,188902.800,265244.900,381190.400,194865.900,200433.000,207659.900,205685.600,0.000
199632.000,188393.900,264419.900,380190.100,194079.800,199925.000,206992.300,204701.400,0.000
197804.300,187308.200,262722.100,377985.500,192398.500,198826.700,205644.000,202599.400,0.000
197949.400,187390.000,262613.600,377697.200,192415.700,198856.600,205699.900,202577.000,0.000
199885.800,188517.000,264128.200,379630.400,194169.200,199977.000,207112.700,204768.500,0.000
200492.800,188873.600,264618.200,380399.900,194822.600,200373.500,207612.200,205641.800,0.000
199642.000,188403.100,263834.300,379446.400,194080.700,199912.200,206991.600,204704.300,0.000
197826.400,187330.300,262153.400,377259.200,192412.600,198828.400,205658.300,202615.600,0.000
197965.000,187405.800,262041.800,376963.400,192424.000,198851.200,205707.900,202582.200,0.000
199878.600,188505.800,263534.100,378871.700,194153.400,199944.500,207093.800,204749.000,0.000
200459.100,188831.400,263996.800,379610.500,194774.500,200308.700,207559.700,205592.300,0.000
199586.200,188334.600,263190.100,378629.100,194004.400,199819.100,206913.200,204627.600,0.000
197791.800,187280.600,261528.800,376463.100,192355.500,198754.900,205599.300,202560.100,0.000
197940.400,187366.300,261425.800,376176.800,192372.900,198787.200,205654.900,202534.600,0.000
199849.500,188458.100,262907.800,378075.100,194090.400,199867.200,207026.300,204688.400,0.000
200469.600,188824.300,263410.700,378861.600,194751.900,200272.400,207532.100,205572.700,0.000
199623.300,188362.300,262639.200,377931.900,194017.900,199824.700,206925.000,204647.700,0.000
197793.900,187279.100,260952.600,375741.600,192338.800,198735.400,205583.800,202550.300,0.000
197931.300,187358.200,260845.100,375444.900,192351.400,198760.600,205632.200,202513.200,0.000
199886.900,188496.200,262384.100,377399.800,194127.100,199894.300,207057.900,204721.500,0.000
200486.700,188842.100,262871.300,378169.300,194769.500,200280.400,207546.300,205589.400,0.000
199584.800,188318.900,262041.200,377166.300,193966.800,199764.300,206872.800,204595.000,0.000
197767.200,187239.900,260360.500,374977.700,192288.400,198675.100,205534.000,202498.800,0.000
197909.400,187323.700,260257.700,374688.500,192305.300,198705.900,205587.000,202466.600,0.000
199857.900,188450.800,261789.500,376640.300,194072.100,199825.600,207005.600,204668.900,0.000
200445.200,188782.100,262266.500,377406.400,194703.600,200198.100,207484.600,205528.400,0.000
199536.700,188252.500,261425.800,376392.600,193887.700,199672.900,206796.800,204521.100,0.000
197725.500,187178.300,259748.100,374201.100,192211.000,198583.500,205453.500,202420.600,0.000
197926.300,187318.400,259704.000,373970.500,192290.500,198670.500,205563.500,202441.600,0.000
199944.800,188515.200,261308.600,376000.300,194134.100,199861.500,207053.900,204720.700,0.000
200518.000,188841.900,261784.400,376769.100,194762.600,200234.800,207535.200,205584.700,0.000
199571.400,188290.800,260922.600,375737.100,193916.500,199691.200,206834.300,204560.400,0.000
197752.200,187210.100,259237.400,373534.400,192220.300,198588.500,205481.500,202448.500,0.000
197959.000,187352.400,259199.200,373304.900,192301.300,198675.800,205591.900,202471.300,0.000
199938.000,188499.300,260760.900,375291.500,194105.400,199819.800,207032.200,204704.300,0.000
200491.100,188803.600,261213.900,376039.200,194714.200,200170.400,207486.600,205545.200,0.000
199537.300,188249.600,260345.800,375004.500,193865.300,199628.400,206782.300,204517.400,0.000
197731.900,187184.200,258676.200,372818.900,192185.500,198541.700,205441.100,202420.800,0.000
197943.300,187325.800,258645.200,372595.500,192275.100,198628.600,205553.200,202447.300,0.000
199968.000,188515.900,260256.800,374632.500,194129.200,199816.400,207039.400,204729.100,0.000
200500.300,188799.500,260693.100,375360.900,194717.300,200148.300,207474.400,205552.700,0.000
199502.700,188201.000,259774.900,374266.400,193808.300,199550.800,206711.900,204465.500,0.000
197717.500,187158.100,258125.600,372102.200,192146.600,198486.300,205392.300,202386.600,0.000
197954.900,187332.900,258127.800,371917.200,192271.300,198610.000,205539.300,202446.500,0.000
199998.400,188544.200,259767.700,373993.800,194155.800,199825.100,207057.100,204764.300,0.000
200518.700,188815.600,260199.400,374724.000,194731.200,200148.300,207489.400,205587.000,0.000
199507.200,188211.000,259277.200,373628.200,193811.700,199549.400,206728.300,204495.400,0.000
197700.600,187147.000,257605.800,371440.800,192125.700,198461.900,205385.400,202392.700,0.000
197948.300,187321.200,257610.800,371247.400,192247.500,198579.100,205525.400,202444.400,0.000
199997.700,188529.700,259253.000,373318.500,194132.400,199787.400,207035.500,204757.900,0.000
200503.600,188794.800,259676.100,374041.700,194703.900,200104.300,207457.600,205571.100,0.000
199470.300,188178.500,258734.600,372927.500,193765.600,199488.900,206675.700,204458.700,0.000
197671.800,187119.300,257065.000,370736.000,192077.600,198402.900,205332.300,202352.800,0.000
197943.300,187320.900,257091.500,370566.600,192224.600,198548.400,205495.900,202424.800,0.000
199982.800,188522.300,258728.000,372637.800,194107.300,199756.600,207002.600,204732.300,0.000
200471.900,188765.400,259138.700,373345.900,194660.000,200055.100,207408.400,205528.100,0.000
199450.700,188149.700,258204.600,372233.100,193720.200,199438.500,206627.000,204418.300,0.000
197672.500,187107.900,256563.000,370071.900,192059.800,198377.600,205305.500,202336.700,0.000
197940.800,187313.100,256587.800,369894.000,192200.500,198519.400,205462.300,202397.100,0.000
199979.600,188515.000,258224.200,371962.700,194079.000,199723.900,206967.400,204700.400,0.000
200493.700,188784.100,258658.400,372701.300,194657.000,200045.100,207398.800,205520.200,0.000
199480.200,188180.900,257740.500,371617.000,193739.900,199450.600,206639.300,204431.800,0.000
197676.300,187115.900,256073.800,369431.600,192049.100,198363.800,205292.600,202323.000,0.000
197894.000,187271.600,256058.300,369211.600,192142.900,198464.400,205410.200,202336.700,0.000
199939.400,188483.400,257703.600,371286.900,194027.500,199675.500,206922.100,204643.100,0.000
200489.800,188779.800,258167.400,372050.700,194631.400,200018.900,207374.900,205490.000,0.000
199489.200,188174.200,257256.800,370970.000,193719.900,199420.000,206613.900,204406.400,0.000
197694.000,187118.000,255602.300,368801.200,192044.200,198344.400,205278.100,202311.400,0.000
197858.500,187233.200,255540.000,368527.200,192082.900,198404.800,205353.600,202273.000,0.000
199886.900,188434.300,257168.600,370577.000,193942.000,199604.100,206852.300,204557.700,0.000
200451.000,188735.000,257651.200,371360.500,194564.900,199960.600,207323.300,205426.800,0.000
199525.800,188192.600,256817.000,370361.100,193729.200,199423.100,206632.100,204422.300,0.000
197727.400,187126.700,255158.000,368188.200,192045.000,198331.900,205286.800,202318.400,0.000
197866.500,187234.700,255081.200,367902.900,192073.200,198388.600,205353.200,202265.800,0.000
199856.300,188399.600,256673.700,369917.900,193898.600,199556.900,206818.600,204515.900,0.000
200445.100,188716.200,257166.300,370715.700,194536.500,199919.900,207296.300,205397.300,0.000
199521.000,188165.400,256327.000,369717.800,193699.300,199369.900,206593.300,204389.500,0.000
197720.200,187097.000,254676.100,367558.400,192024.900,198287.300,205254.100,202299.700,0.000
197841.600,187203.000,254584.400,367255.800,192036.000,198338.400,205310.700,202229.900,0.000
199839.500,188389.400,256189.300,369284.600,193873.200,199525.000,206793.200,204492.700,0.000
200443.800,188717.600,256702.100,370108.300,194530.300,199905.200,207290.000,205399.900,0.000
199565.900,188201.300,255905.500,369161.800,193740.700,199397.200,206626.700,204442.300,0.000
197750.900,187120.900,254236.600,366982.200,192046.500,198296.700,205265.700,202326.500,0.000
197805.300,187163.600,254084.400,366612.300,191992.400,198291.500,205264.700,202186.600,0.000
199780.400,188322.500,255664.300,368604.300,193796.200,199448.000,206715.200,204413.200,0.000
200418.700,188679.200,256203.400,369448.100,194473.100,199842.900,207226.300,205338.600,0.000
199582.000,188203.800,255454.000,368555.600,193733.000,199378.800,206610.600,204431.000,0.000
197783.700,187141.200,253808.800,366405.100,192060.300,198296.900,205270.900,202338.600,0.000
197833.400,187192.800,253660.900,366034.300,192001.600,198293.400,205268.100,202193.400,0.000
199790.500,188342.900,255224.600,368014.300,193787.700,199440.000,206709.700,204407.400,0.000
200435.900,188702.200,255771.800,368874.800,194476.400,199843.600,207234.600,205350.300,0.000
199611.700,188231.100,255034.200,367994.500,193746.100,199381.400,206625.200,204456.200,0.000
197799.400,187153.000,253383.200,365840.100,192065.200,198291.600,205279.600,202360.500,0.000
197786.300,187146.500,253171.900,365402.200,191939.500,198232.700,205220.900,202149.400,0.000
199760.800,188308.600,254746.700,367384.800,193731.000,199387.100,206666.800,204366.600,0.000
200418.800,188674.600,255306.000,368255.600,194427.900,199796.400,207194.900,205321.000,0.000
199619.600,188222.300,254589.200,367398.200,193717.300,199350.400,206601.200,204449.400,0.000
197855.200,187202.200,252990.600,365308.700,192096.400,198325.600,205319.500,202416.300,0.000
197817.600,187178.700,252763.700,364853.500,191954.800,198256.700,205247.000,202186.000,0.000
199748.900,188298.600,254300.500,366792.300,193707.200,199371.200,206656.000,204362.100,0.000
200417.500,188672.800,254866.000,367671.500,194415.100,199784.000,207194.400,205325.000,0.000
199618.000,188215.100,254149.200,366814.500,193704.100,199332.800,206596.200,204453.900,0.000
197829.000,187164.800,252524.200,364693.700,192051.700,198273.500,205280.000,202387.800,0.000
197777.200,187132.500,252284.600,364220.500,191893.200,198188.200,205192.200,202137.200,0.000
199721.300,188263.600,253832.600,366170.800,193654.500,199311.900,206609.300,204320.600,0.000
200410.900,188648.400,254422.600,367073.600,194383.400,199743.000,207165.600,205305.500,0.000
199628.200,188210.200,253727.200,366240.300,193695.000,199312.500,206589.900,204454.000,0.000
197835.200,187158.500,252101.800,364114.300,192037.500,198249.600,205268.400,202379.100,0.000
197769.200,187120.500,251853.900,363628.800,191868.500,198163.900,205172.600,202117.800,0.000
199703.400,188248.700,253395.100,365569.800,193623.000,199286.300,206584.400,204298.000,0.000
200395.600,188635.100,253985.600,366474.000,194351.600,199716.700,207141.300,205285.000,0.000
199626.000,188196.700,253299.900,365650.900,193669.700,199287.500,206568.800,204443.800,0.000
197825.600,187128.000,251665.100,363511.300,191998.600,198205.500,205229.700,202356.900,0.000
197752.500,187087.300,251410.700,363011.900,191818.900,198109.600,205123.700,202077.100,0.000
199695.100,188230.700,252965.300,364973.300,193590.800,199247.700,206555.300,204270.600,0.000
200373.800,188601.300,253543.100,365866.700,194306.800,199658.800,207094.800,205244.200,0.000
199598.200,188157.400,252853.100,365043.600,193621.000,199226.700,206517.700,204401.000,0.000
197813.000,187109.500,251236.800,362932.000,191972.300,198169.600,205202.900,202338.500,0.000
197771.600,187108.600,251023.000,362477.700,191834.500,198123.300,205147.800,202105.400,0.000
199718.600,188250.300,252583.000,364433.900,193603.600,199262.000,206578.800,204299.100,0.000
200420.100,188637.300,253182.100,365347.300,194339.400,199693.300,207137.700,205297.800,0.000
199636.300,188185.500,252482.000,364515.300,193642.900,199247.700,206546.700,204445.300,0.000
197832.500,187120.500,250849.800,362387.800,191975.700,198170.700,205213.700,202365.200,0.000
197721.500,187057.100,250572.500,361866.200,191767.300,198057.500,205093.200,202061.800,0.000
199657.400,188191.300,252123.500,363815.200,193523.500,199182.600,206516.000,204245.000,0.000
200378.400,188597.900,252745.400,364755.400,194280.100,199629.200,207098.900,205266.400,0.000
199622.900,188168.400,252073.400,363951.200,193608.400,199202.200,206534.100,204440.600,0.000
197843.600,187131.800,250468.800,361851.200,191967.900,198154.000,205226.000,202385.800,0.000
197739.100,187075.100,250195.300,361330.700,191766.700,198049.000,205105.200,202080.000,0.000
199685.200,188219.000,251757.500,363288.100,193535.100,199186.200,206536.200,204271.800,0.000
200394.000,188611.000,252366.000,364211.100,194276.300,199618.700,207098.100,205278.100,0.000
199621.700,188168.100,251685.500,363403.900,193595.800,199186.100,206525.200,204447.900,0.000
197823.200,187101.900,250057.000,361282.200,191927.700,198106.800,205191.500,202366.700,0.000
197708.700,187043.700,249776.400,360752.600,191716.500,197998.300,205066.500,202048.700,0.000
199649.500,188185.100,251331.600,362702.900,193480.900,199135.100,206492.900,204232.100,0.000
200385.300,188599.400,251968.600,363658.800,194255.500,199596.900,207084.200,205271.100,0.000
199636.900,188171.100,251307.700,362871.600,193596.200,199177.800,206528.000,204461.300,0.000
197817.200,187083.300,249658.600,360723.500,191904.400,198075.000,205165.300,202353.600,0.000
197680.200,187006.200,249358.800,360169.600,191670.700,197947.400,205015.000,202009.200,0.000
199625.000,188153.100,250920.100,362124.100,193439.900,199088.900,206442.500,204194.600,0.000
200362.800,188565.900,251555.300,363080.900,194213.300,199545.900,207032.000,205231.900,0.000
199613.300,188132.200,250892.500,362291.800,193551.800,199122.800,206470.200,204419.100,0.000
197826.400,187073.700,249272.800,360169.000,191888.400,198045.500,205134.700,202338.400,0.000
197690.700,187000.300,248979.500,359613.600,191660.400,197922.600,204993.100,201995.200,0.000
199629.900,188151.000,250543.000,361574.300,193432.400,199071.300,206432.500,204188.500,0.000
200358.200,188557.900,251174.400,362528.700,194196.100,199521.000,207014.300,205224.100,0.000
199636.900,188156.500,250543.500,361775.800,193563.800,199128.600,206481.800,204444.400,0.000
197843.400,187090.600,248924.300,359658.200,191895.500,198047.700,205142.500,202359.600,0.000
197685.900,187005.600,248610.200,359086.100,191643.900,197908.000,204983.500,201990.500,0.000
199615.900,188138.900,250160.100,361027.500,193399.600,199036.900,206402.100,204159.500,0.000
200370.200,188565.300,250819.300,362012.000,194190.500,199507.200,207007.800,205220.000,0.000
199661.400,188178.500,250202.700,361278.300,193570.700,199125.300,206489.300,204455.200,0.000
197868.600,187119.600,248586.600,359167.700,191908.300,198052.000,205157.200,202378.000,0.000
197669.300,187001.300,248241.000,358561.700,191626.700,197888.000,204972.800,201975.500,0.000
199597.300,188133.600,249791.100,360501.600,193380.400,199015.300,206393.100,204142.800,0.000
200364.600,188565.900,250455.300,361497.700,194177.800,199488.200,207007.500,205213.000,0.000
199654.000,188160.600,249828.200,360751.100,193542.900,199087.000,206472.100,204431.300,0.000
197880.100,187119.900,248239.700,358672.800,191908.700,198041.100,205167.200,202381.700,0.000
197660.200,186982.900,247872.500,358045.600,191604.500,197857.400,204956.600,201955.100,0.000
199586.700,188113.300,249415.200,359971.700,193345.600,198972.800,206360.100,204107.300,0.000
200377.300,188568.400,250107.900,360996.700,194172.300,199475.300,207001.100,205206.900,0.000
199651.300,188150.800,249470.800,360244.400,193532.800,199069.400,206459.900,204424.600,0.000
197837.500,187067.800,247836.400,358110.500,191846.500,197968.800,205101.000,202322.100,0.000
197662.300,186980.800,247522.000,357532.000,191592.700,197839.100,204944.900,201943.500,0.000
199601.700,188122.800,249081.000,359481.800,193350.300,198975.100,206371.600,204117.700,0.000
200379.800,188568.600,249761.900,360504.700,194168.500,199469.800,207004.800,205212.500,0.000
199679.000,188177.400,249150.500,359784.300,193560.600,199092.900,206490.900,204456.700,0.000
197871.400,187097.600,247518.500,357656.200,191877.600,197994.800,205133.300,202353.600,0.000
197647.500,186963.700,247151.600,357019.600,191565.500,197809.200,204920.500,201913.700,0.000
199567.000,188087.200,248691.300,358941.500,193302.300,198922.700,206322.100,204057.900,0.000
200367.400,188551.300,249398.800,359986.800,194148.400,199440.200,206979.500,205177.800,0.000
199664.400,188155.200,248788.100,359268.200,193535.700,199058.500,206464.100,204423.500,0.000
197870.100,187092.300,247175.300,357164.900,191871.300,197980.500,205127.200,202344.600,0.000
197644.300,186956.400,246801.600,356517.900,191549.000,197787.900,204907.700,201896.300,0.000
199574.300,188094.900,248354.900,358457.900,193300.300,198919.500,206328.800,204060.900,0.000
200353.300,188533.800,249037.000,359474.800,194115.200,199404.100,206954.700,205153.600,0.000
199648.700,188127.400,248420.200,358742.200,193492.800,199003.700,206422.800,204389.300,0.000
197857.900,187067.200,246814.000,356646.800,191838.200,197932.600,205093.700,202318.500,0.000
197617.200,186927.900,246439.600,356004.400,191518.100,197746.300,204879.000,201869.200,0.000
199540.900,188057.900,247984.200,357931.700,193258.500,198865.200,206287.700,204019.900,0.000
200338.300,188511.900,248682.400,358966.200,194085.800,199358.900,206927.400,205126.600,0.000
199661.300,188133.700,248092.700,358266.400,193488.400,198986.000,206423.600,204389.500,0.000
197897.300,187101.100,246512.300,356196.400,191856.300,197936.600,205115.000,202341.700,0.000
197651.900,186960.800,246135.200,355545.800,191531.200,197747.500,204895.100,201883.700,0.000
199571.700,188094.000,247681.300,357476.600,193275.100,198873.000,206309.300,204037.300,0.000
200372.600,188552.000,248387.700,358524.900,194116.100,199380.600,206959.600,205160.100,0.000
199678.200,188150.800,247783.300,357812.900,193505.400,198992.900,206438.600,204414.100,0.000
197901.300,187100.600,246190.500,355731.800,191861.700,197932.000,205117.800,202354.800,0.000
197628.900,186934.200,245786.000,355049.700,191506.700,197718.300,204870.300,201862.900,0.000
199547.700,188056.000,247329.000,356969.400,193238.700,198835.100,206274.300,204004.700,0.000
200365.400,188517.200,248047.700,358025.400,194084.600,199342.600,206925.600,205134.400,0.000
199700.900,188157.200,247478.900,357358.200,193513.900,198990.200,206441.900,204427.800,0.000
197906.000,187098.000,245876.300,355272.000,191859.400,197918.300,205111.800,202361.100,0.000
197615.700,186922.600,245457.100,354576.100,191489.100,197692.100,204854.900,201855.100,0.000
199544.100,188059.000,247008.800,356506.700,193233.600,198818.500,206269.900,204007.600,0.000
200359.100,188519.600,247726.100,357565.400,194081.900,199324.700,206922.400,205138.500,0.000
199674.500,188128.500,247138.100,356879.000,193489.900,198948.300,206417.100,204410.300,0.000
197880.100,187064.700,245532.700,354787.800,191828.900,197869.500,205079.900,202335.600,0.000
197605.000,186910.500,245134.200,354109.700,191478.400,197667.900,204842.000,201844.700,0.000
199524.900,188040.900,246679.800,356032.300,193213.500,198786.700,206248.300,203987.500,0.000
200332.600,188487.200,247384.900,357075.200,194044.300,199275.700,206884.600,205102.500,0.000
199679.800,188128.200,246828.000,356420.100,193482.900,198931.300,206409.100,204406.700,0.000
197900.700,187077.100,245244.800,354353.900,191845.800,197876.800,205095.400,202357.100,0.000
197596.800,186894.400,244814.200,353638.900,191458.400,197640.300,204823.400,201825.400,0.000
199494.400,188004.300,246332.700,355536.500,193171.200,198739.500,206207.600,203938.800,0.000
200318.100,188468.400,247054.200,356609.100,194027.400,199251.000,206867.000,205080.600,0.000
199665.500,188102.700,246495.600,355953.100,193460.400,198897.100,206385.200,204380.600,0.000
197892.300,187059.200,244915.000,353886.200,191822.600,197841.600,205068.500,202323.300,0.000
197592.900,186891.100,244499.800,353185.700,191451.000,197628.000,204811.600,201801.000,0.000
199506.700,188018.300,246038.900,355098.800,193181.100,198744.500,206213.500,203929.800,0.000
200343.200,188494.600,246776.800,356189.800,194054.700,199272.800,206890.800,205087.500,0.000
199692.100,188123.600,246213.700,355531.000,193483.600,198914.400,206406.400,204384.800,0.000
197904.000,187061.000,244617.400,353449.600,191827.600,197841.400,205073.200,202313.200,0.000
197565.800,186863.100,244168.200,352715.500,191423.100,197597.600,204791.300,201759.500,0.000
199462.400,187978.900,245694.100,354617.800,193141.700,198703.500,206184.800,203881.400,0.000
200323.900,188475.200,246457.100,355730.300,194037.100,199247.100,206879.400,205063.700,0.000
199687.500,188119.100,245914.600,355094.000,193484.000,198903.200,206410.800,204382.900,0.000
197902.600,187053.700,244317.900,353014.200,191825.200,197823.900,205072.200,202311.300,0.000
197570.800,186861.200,243871.100,352276.800,191420.500,197583.200,204786.900,201753.800,0.000
199496.500,188008.300,245426.600,354210.200,193170.000,198723.500,206210.400,203906.800,0.000
200314.800,188458.800,246142.900,355274.500,194013.400,199216.200,206854.300,205042.200,0.000
199684.100,188108.800,245601.100,354638.900,193462.300,198871.300,206384.800,204362.700,0.000
197908.200,187058.600,244020.300,352583.000,191826.500,197817.200,205068.900,202313.300,0.000
197558.700,186850.600,243558.300,351832.500,191405.200,197563.000,204768.500,201738.700,0.000
199458.700,187971.900,245089.400,353735.300,193124.800,198673.600,206160.700,203858.500,0.000
200281.000,188420.400,245807.400,354794.100,193964.400,199159.500,206795.800,204989.300,0.000
199683.600,188105.300,245307.000,354210.500,193456.900,198858.900,206372.700,204358.300,0.000
197929.100,187074.500,243750.000,352179.800,191841.800,197823.000,205081.200,202336.100,0.000
197575.100,186865.800,243289.300,351422.100,191419.400,197566.500,204780.300,201757.700,0.000
199482.800,187991.900,244824.300,353325.800,193144.400,198678.900,206175.000,203878.700,0.000
200331.500,188472.000,245573.300,354432.000,194026.300,199206.900,206854.800,205056.300,0.000
199661.600,188070.700,244992.200,353761.400,193434.700,198817.700,206343.600,204341.900,0.000
197893.500,187021.600,243415.800,351705.100,191797.600,197758.000,205024.400,202291.400,0.000
197520.800,186802.100,242937.400,350924.500,191351.200,197487.300,204703.300,201687.000,0.000
199438.300,187947.400,244489.700,352850.100,193094.000,198624.000,206122.100,203827.300,0.000
200299.000,188436.300,245251.200,353971.100,193987.000,199159.100,206814.800,205015.500,0.000
199672.100,188079.000,244717.100,353349.500,193442.300,198813.300,206347.500,204347.000,0.000
197934.800,187067.000,243180.300,351339.600,191846.500,197797.000,205069.300,202341.300,0.000
197556.800,186848.300,242698.200,350558.200,191400.100,197527.900,204748.200,201734.300,0.000
199439.200,187950.100,244207.500,352431.000,193091.500,198612.900,206114.700,203818.500,0.000
200330.600,188462.400,244998.000,353577.500,194009.300,199170.200,206829.300,205030.500,0.000
199720.100,188121.300,244478.600,352973.100,193476.700,198839.700,206376.700,204377.900,0.000
197957.500,187080.500,242913.500,350931.200,191848.500,197791.000,205068.200,202336.800,0.000
197556.900,186840.800,242409.200,350123.300,191373.300,197496.500,204724.900,201698.200,0.000
199451.200,187961.300,243935.000,352019.200,193086.800,198605.900,206116.400,203804.600,0.000
200335.200,188463.200,244716.900,353161.100,194000.400,199158.300,206823.500,205013.900,0.000
199714.000,188102.800,244183.400,352542.100,193453.400,198808.900,206350.200,204347.900,0.000
197934.800,187039.900,242593.900,350472.100,191798.300,197729.000,205007.600,202278.600,0.000
197537.800,186817.900,242104.200,349683.100,191345.200,197461.700,204686.000,201658.200,0.000
199426.100,187932.800,243626.700,351566.400,193050.600,198562.500,206066.400,203755.200,0.000
200315.100,188438.900,244414.700,352713.600,193970.500,199114.400,206775.700,204971.300,0.000
199707.000,188094.300,243899.700,352116.600,193443.700,198781.000,206325.000,204328.600,0.000
197933.000,187041.500,242323.900,350063.600,191800.200,197716.700,205000.900,202275.500,0.000
197519.800,186803.500,241818.100,349255.300,191325.000,197434.300,204665.800,201636.300,0.000
199404.900,187911.700,243334.200,351133.500,193021.300,198531.700,206043.600,203727.800,0.000
200310.200,188429.100,244140.400,352299.800,193956.700,199099.100,206769.300,204962.900,0.000
199708.700,188088.200,243633.700,351714.600,193439.300,198772.700,206324.800,204330.400,0.000
197943.000,187040.000,242066.500,349670.200,191804.400,197714.400,205005.400,202284.300,0.000
197529.600,186802.700,241561.700,348858.300,191330.000,197432.200,204664.700,201639.500,0.000
199385.800,187879.200,243042.100,350691.800,192985.200,198485.100,205996.900,203685.200,0.000
200279.100,188381.800,243829.000,351835.600,193893.600,199024.200,206696.800,204895.300,0.000
199708.500,188079.300,243358.600,351296.900,193417.500,198743.000,206297.000,204306.500,0.000
197926.400,187015.700,241780.100,349248.300,191774.200,197675.300,204967.400,202252.800,0.000
197506.600,186775.700,241274.500,348433.100,191298.400,197394.200,204626.000,201604.500,0.000
199396.700,187892.100,242802.300,350320.300,193008.700,198504.000,206015.200,203705.300,0.000
200296.000,188397.500,243593.900,351471.700,193930.400,199050.000,206720.900,204926.100,0.000
199721.900,188081.300,243107.600,350908.000,193428.500,198735.200,206289.500,204310.300,0.000
197972.200,187053.600,241563.200,348893.200,191813.400,197696.800,204991.700,202289.600,0.000
197504.200,186771.000,241011.500,348030.100,191287.100,197369.000,204606.400,201591.600,0.000
199390.400,187890.100,242535.400,349911.800,192989.300,198475.800,205994.700,203685.600,0.000
200300.400,188406.000,243339.700,351079.500,193918.900,199033.100,206716.800,204920.300,0.000
199725.500,188086.600,242859.800,350526.900,193424.200,198725.600,206295.900,204314.100,0.000
197984.000,187064.400,241321.300,348517.700,191817.400,197693.200,205006.000,202296.500,0.000
197521.300,186788.400,240773.800,347657.800,191300.400,197376.300,204630.000,201600.900,0.000
199386.300,187885.000,242270.400,349509.900,192973.600,198454.700,205986.900,203661.600,0.000
200299.200,188404.000,243081.600,350690.800,193915.500,199024.500,206716.400,204909.500,0.000
199715.000,188072.300,242587.800,350125.000,193407.600,198701.800,206276.600,204291.700,0.000
197978.400,187054.000,241052.900,348125.500,191803.500,197671.100,204987.200,202280.900,0.000
197511.600,186782.500,240505.600,347264.000,191279.200,197355.000,204611.400,201578.200,0.000
199380.500,187883.900,242013.200,349126.800,192962.300,198447.000,205982.600,203650.200,0.000
200294.300,188396.000,242821.100,350306.700,193896.400,199004.400,206705.600,204896.000,0.000
199719.600,188070.800,242338.000,349763.800,193402.300,198695.100,206283.900,204298.800,0.000
197986.700,187052.200,240803.700,347766.800,191798.900,197667.500,204995.200,202291.800,0.000
197488.800,186753.600,240225.300,346868.300,191241.000,197319.300,204580.200,201554.500,0.000
199350.400,187848.200,241725.000,348718.800,192912.500,198395.800,205935.300,203614.900,0.000
200292.500,188387.000,242561.200,349932.200,193879.800,198982.900,206687.600,204894.800,0.000
199721.700,188061.000,242080.500,349383.500,193381.600,198669.100,206259.000,204294.700,0.000
198002.800,187052.500,240562.100,347396.900,191787.600,197648.800,204981.700,202294.600,0.000
197536.500,186792.100,240017.600,346539.400,191270.700,197344.500,204613.700,201593.400,0.000
199384.100,187879.900,241503.300,348381.800,192938.000,198419.000,205968.000,203646.700,0.000
200301.100,188394.300,242315.300,349568.400,193879.800,198979.600,206697.900,204902.500,0.000
199723.800,188063.800,241833.500,349018.900,193383.000,198664.600,206270.900,204302.500,0.000
197987.700,187039.200,240299.900,347014.500,191770.900,197625.500,204976.800,202285.400,0.000
197509.500,186769.900,239749.800,346143.300,191237.200,197309.500,204596.200,201571.300,0.000
199374.900,187874.800,241259.500,348007.200,192924.300,198407.000,205973.100,203645.800,0.000
200314.800,188408.900,242096.000,349215.600,193890.300,198990.200,206724.200,204924.600,0.000
199739.600,188074.400,241611.400,348665.300,193392.900,198668.600,206292.100,204322.800,0.000
197994.500,187037.900,240063.000,346646.600,191769.300,197616.600,204978.900,202295.500,0.000
197486.500,186747.800,239486.800,345749.700,191213.300,197283.400,204576.100,201559.100,0.000
199336.800,187833.000,240977.200,347585.400,192876.100,198357.500,205926.700,203608.700,0.000
200302.800,188387.800,241842.400,348823.700,193869.000,198963.100,206704.600,204918.500,0.000
199769.000,188098.300,241403.700,348327.500,193419.400,198690.000,206323.000,204371.600,0.000
198018.800,187057.700,239855.000,346315.800,191799.300,197642.300,205016.900,202349.100,0.000
197480.700,186733.900,239247.800,345379.300,191208.100,197277.000,204579.600,201571.100,0.000
199344.000,187837.800,240750.300,347226.700,192882.100,198365.800,205944.200,203629.200,0.000
200291.200,188373.500,241592.200,348445.000,193849.800,198948.300,206697.900,204918.200,0.000
199717.500,188038.400,241109.500,347899.400,193351.800,198624.300,206262.300,204321.200,0.000
197971.300,187004.000,239561.000,345882.800,191731.400,197573.200,204946.200,202293.000,0.000
197454.300,186716.300,238981.100,344975.100,191170.100,197242.000,204541.300,201541.500,0.000
199322.500,187825.100,240493.400,346830.200,192852.300,198337.700,205915.800,203606.200,0.000
200283.400,188367.900,241348.600,348063.300,193837.300,198928.800,206679.300,204907.400,0.000
199729.300,188049.600,240886.900,347542.000,193360.800,198623.100,206264.900,204331.700,0.000
197992.300,187023.100,239355.700,345542.700,191749.000,197583.700,204964.900,202317.600,0.000
197455.300,186711.800,238755.400,344608.600,191162.700,197226.700,204533.600,201538.400,0.000
199307.900,187806.600,240248.500,346438.100,192825.000,198305.800,205885.100,203578.600,0.000
200279.400,188358.900,241113.700,347678.600,193816.900,198904.600,206654.800,204886.500,0.000
199754.900,188069.300,240682.300,347187.900,193370.700,198627.300,206269.900,204342.200,0.000
198016.800,187038.400,239146.500,345187.900,191760.200,197583.700,204968.100,202326.000,0.000
197461.900,186714.200,238528.400,344234.600,191158.800,197215.600,204522.000,201525.700,0.000
199291.900,187788.900,239998.600,346046.400,192801.900,198277.300,205854.900,203546.800,0.000
200272.800,188348.500,240873.600,347301.500,193805.400,198884.000,206636.900,204871.400,0.000
199747.400,188050.700,240443.300,346814.300,193357.600,198603.300,206251.300,204328.300,0.000
198027.200,187038.200,238926.700,344836.100,191766.200,197583.300,204970.200,202330.000,0.000
197473.400,186724.600,238311.700,343887.500,191169.500,197223.600,204532.900,201531.800,0.000
199314.000,187809.900,239796.000,345708.200,192822.000,198294.200,205878.400,203559.800,0.000
200287.600,188354.500,240657.300,346942.200,193804.700,198879.400,206638.200,204862.600,0.000
199782.800,188085.800,240248.900,346483.300,193384.700,198626.600,206278.400,204349.800,0.000
198041.500,187056.900,238716.400,344491.700,191773.700,197586.200,204980.300,202340.400,0.000
197454.300,186710.700,238072.600,343508.300,191138.800,197189.700,204507.700,201508.900,0.000
199293.000,187791.200,239554.200,345318.500,192788.600,198257.000,205844.200,203531.600,0.000
200292.300,188368.000,240451.500,346596.300,193814.900,198886.200,206648.500,204881.500,0.000
199753.600,188059.000,240006.900,346099.600,193354.800,198591.500,206248.800,204329.700,0.000
198022.300,187034.600,238482.700,344118.300,191752.900,197557.300,204957.500,202328.400,0.000
197420.500,186673.800,237824.500,343120.100,191105.900,197153.000,204474.500,201480.600,0.000
199252.300,187749.900,239296.200,344923.200,192748.800,198214.800,205807.200,203492.600,0.000
200259.700,188330.100,240194.300,346196.900,193772.800,198835.600,206604.400,204837.600,0.000
199718.900,188015.400,239744.800,345695.000,193304.500,198530.700,206195.800,204282.200,0.000
197984.300,186989.500,238218.900,343711.100,191702.500,197495.000,204900.800,202280.500,0.000
197387.900,186637.800,237569.600,342720.700,191061.600,197101.200,204425.100,201439.200,0.000
199223.900,187722.600,239052.500,344535.500,192713.100,198177.600,205768.700,203463.200,0.000
200293.000,188359.600,240013.400,345879.000,193798.800,198860.400,206627.000,204874.400,0.000
199796.600,188087.900,239607.700,345429.900,193377.300,198599.200,206262.300,204364.500,0.000
198054.900,187052.200,238068.100,343430.600,191756.400,197546.600,204949.100,202341.100,0.000
197447.400,186698.200,237412.500,342429.300,191110.000,197149.100,204468.600,201484.700,0.000
199289.100,187791.300,238903.100,344250.800,192769.100,198232.100,205820.800,203513.800,0.000
200277.300,188344.700,239781.300,345514.900,193774.500,198832.700,206597.900,204847.000,0.000
199753.800,188043.500,239351.300,345040.200,193328.600,198547.100,206207.600,204314.700,0.000
198029.800,187026.300,237834.200,343064.300,191732.100,197514.000,204916.700,202318.400,0.000
197423.800,186678.000,237183.000,342071.400,191089.200,197123.800,204445.000,201471.000,0.000
199246.300,187750.400,238653.500,343874.400,192723.200,198187.000,205779.900,203479.800,0.000
200261.600,188324.300,239556.700,345163.600,193749.000,198806.600,206578.400,204834.300,0.000
199769.100,188051.500,239156.600,344720.300,193332.600,198545.500,206215.500,204331.800,0.000
198034.000,187017.200,237621.900,342728.800,191721.700,197495.600,204904.900,202319.000,0.000
197382.300,186622.400,236921.500,341676.000,191027.900,197056.900,204376.800,201409.400,0.000
199222.800,187722.500,238406.600,343491.900,192679.100,198138.200,205725.100,203428.900,0.000
200235.300,188299.300,239314.400,344794.800,193718.500,198768.200,206536.700,204797.800,0.000
199727.400,188006.700,238896.600,344335.600,193284.500,198488.800,206155.300,204278.100,0.000
198058.700,187041.700,237432.600,342422.400,191746.600,197511.000,204918.400,202337.300,0.000
197428.000,186674.900,236758.100,341398.700,191078.500,197101.400,204420.000,201457.300,0.000
199225.000,187726.400,238199.800,343164.700,192683.200,198135.600,205721.700,203428.300,0.000
200244.100,188303.100,239113.700,344472.100,193724.000,198763.700,206534.900,204800.800,0.000
199746.100,188016.100,238706.800,344025.700,193303.300,198493.400,206166.000,204293.500,0.000
198057.000,187033.000,237223.600,342088.900,191741.600,197497.700,204907.700,202330.600,0.000
197402.600,186647.700,236529.200,341039.400,191046.700,197068.700,204390.100,201424.200,0.000
199224.500,187727.200,238000.200,342836.500,192681.800,198137.600,205725.100,203428.100,0.000
200245.700,188302.100,238910.900,344137.600,193719.900,198760.600,206529.300,204797.300,0.000
199752.300,188022.100,238508.400,343696.500,193303.300,198494.600,206163.300,204295.700,0.000
198049.500,187020.900,237017.500,341753.900,191732.600,197483.800,204895.700,202325.900,0.000
197382.800,186631.100,236315.500,340694.100,191029.300,197043.300,204369.300,201408.800,0.000
199194.500,187698.800,237772.300,342467.300,192644.700,198090.400,205684.400,203385.800,0.000
200213.500,188265.100,238675.300,343752.900,193670.400,198698.900,206475.000,204738.500,0.000
199740.000,188000.400,238291.900,343326.800,193268.600,198444.400,206119.900,204254.200,0.000
198061.600,187026.400,236828.400,341418.800,191729.900,197466.500,204884.600,202316.900,0.000
197390.100,186636.700,236128.000,340367.400,191033.700,197039.600,204370.500,201403.300,0.000
199216.000,187724.500,237600.300,342164.400,192666.700,198110.100,205707.900,203400.300,0.000
200262.600,188320.300,238532.400,343489.700,193725.100,198752.900,206531.800,204790.400,0.000
199741.300,188004.900,238101.300,343023.800,193278.000,198453.600,206134.600,204261.900,0.000
198035.800,186997.500,236606.500,341081.500,191701.400,197439.900,204860.000,202287.300,0.000
197352.100,186587.700,235881.200,339992.000,190975.700,196982.900,204308.900,201337.500,0.000
199148.700,187645.100,237324.000,341748.400,192578.500,198022.200,205610.600,203298.900,0.000
200204.800,188248.000,238266.100,343083.700,193647.800,198672.600,206441.600,204699.900,0.000
199754.500,188007.300,237913.400,342700.800,193282.300,198451.100,206123.100,204253.800,0.000
198056.400,187004.100,236426.100,340762.500,191709.800,197438.300,204852.000,202283.100,0.000
197397.000,186633.800,235741.900,339724.500,191027.300,197035.000,204355.600,201380.400,0.000
199186.100,187685.600,237179.500,341477.300,192621.600,198071.900,205654.900,203333.900,0.000
200253.200,188296.000,238132.700,342824.600,193699.700,198730.000,206497.000,204746.500,0.000
199777.500,188023.100,237751.200,342414.200,193301.100,198474.900,206146.000,204272.300,0.000
198069.700,187010.300,236253.000,340470.400,191718.200,197447.700,204863.700,202293.000,0.000
197350.700,186583.000,235506.000,339364.200,190969.000,196974.800,204298.200,201319.300,0.000
199160.300,187663.300,236963.900,341138.500,192587.900,198033.600,205620.200,203293.600,0.000
200230.600,188276.300,237919.000,342493.200,193673.000,198693.300,206466.400,204713.600,0.000
199756.300,188002.200,237540.600,342089.700,193278.600,198439.300,206117.800,204245.000,0.000
198066.200,187006.600,236063.900,340165.800,191718.800,197433.900,204854.900,202287.600,0.000
197348.400,186582.500,235320.400,339062.100,190973.900,196969.900,204295.300,201314.500,0.000
199138.700,187641.800,236757.700,340817.900,192571.200,198013.000,205600.700,203269.100,0.000
200212.100,188251.700,237713.800,342175.600,193653.400,198673.000,206446.500,204691.500,0.000
199760.800,187991.400,237350.100,341782.600,193271.400,198427.600,206106.800,204234.900,0.000
198072.600,186994.300,235870.500,339859.400,191707.300,197419.900,204842.900,202275.300,0.000
197347.700,186569.800,235125.100,338752.400,190957.900,196955.600,204284.900,201302.100,0.000
199131.500,187619.800,236557.300,340494.300,192544.900,197982.500,205578.800,203246.400,0.000
200226.800,188250.700,237535.800,341877.900,193652.800,198659.500,206447.500,204696.200,0.000
199760.900,187983.200,237163.700,341485.600,193264.900,198409.800,206106.400,204241.700,0.000
198068.100,186981.800,235681.300,339562.900,191696.100,197402.700,204840.300,202282.500,0.000
197349.200,186562.200,234939.100,338453.300,190945.100,196941.900,204280.600,201303.800,0.000
199116.000,187606.000,236359.100,340183.400,192522.100,197965.800,205565.100,203235.600,0.000
200212.900,188238.200,237333.800,341555.500,193623.200,198637.200,206425.300,204678.300,0.000
199789.100,188012.400,237002.900,341207.500,193279.400,198430.100,206124.500,204266.400,0.000
198101.800,187015.100,235529.400,339292.700,191721.000,197426.400,204863.900,202316.300,0.000
197354.600,186576.500,234763.400,338154.200,190948.400,196943.200,204280.100,201308.700,0.000
199147.600,187643.500,236209.700,339904.700,192546.300,197989.000,205585.500,203258.200,0.000
200227.000,188255.300,237173.800,341272.000,193637.800,198648.500,206434.700,204692.400,0.000
199772.600,187991.700,236811.200,340886.900,193258.600,198402.400,206098.600,204246.500,0.000
198103.000,187016.600,235357.100,338994.800,191722.900,197422.500,204861.700,202315.800,0.000
197353.500,186575.300,234587.600,337855.900,190948.100,196941.200,204276.500,201304.500,0.000
199104.100,187603.700,235987.900,339562.000,192504.600,197948.900,205541.400,203211.600,0.000
200195.500,188220.500,236958.500,340934.600,193603.400,198612.500,206394.100,204651.800,0.000
199777.500,187994.700,236633.700,340592.200,193266.100,198404.800,206096.800,204245.800,0.000
198099.100,187007.000,235169.500,338691.900,191716.800,197408.800,204844.600,202304.500,0.000
197336.700,186558.000,234387.200,337538.700,190926.600,196915.400,204249.500,201276.900,0.000
199093.300,187594.600,235796.700,339254.700,192490.200,197931.000,205526.700,203190.400,0.000
200200.300,188230.400,236790.200,340657.800,193611.500,198620.600,206409.000,204657.800,0.000
199774.500,187989.100,236454.400,340305.900,193260.800,198398.500,206097.900,204240.100,0.000
198103.600,187001.900,234989.800,338400.100,191708.300,197396.700,204835.200,202292.100,0.000
197315.500,186533.000,234188.800,337224.400,190896.800,196885.800,204216.500,201238.900,0.000
199092.300,187594.000,235620.800,338963.300,192484.500,197928.800,205518.600,203172.400,0.000
200202.700,188230.200,236612.800,340365.200,193603.800,198614.300,206395.700,204636.800,0.000
199786.900,188001.300,236287.300,340027.200,193264.400,198402.900,206094.200,204231.800,0.000
198098.300,186999.100,234812.100,338117.300,191703.700,197393.300,204826.800,202278.700,0.000
197308.100,186530.300,234007.700,336941.200,190891.000,196881.300,204210.100,201224.200,0.000
199067.700,187569.800,235419.000,338650.000,192452.000,197898.200,205485.900,203131.200,0.000
200195.900,188216.700,236424.300,340057.500,193578.500,198585.300,206369.600,204606.300,0.000
199808.700,188013.600,236126.500,339745.900,193262.600,198395.800,206092.000,204230.800,0.000
198145.900,187041.500,234681.700,337874.700,191740.000,197421.300,204861.300,202319.300,0.000
197323.400,186539.200,233846.000,336660.200,190895.700,196880.300,204214.400,201230.600,0.000
199084.000,187582.000,235260.000,338373.500,192463.800,197907.400,205497.100,203142.600,0.000
200203.200,188215.900,236252.400,339774.500,193583.400,198590.000,206369.500,204608.700,0.000
199790.000,187979.200,235923.000,339429.400,193235.700,198365.800,206058.000,204197.800,0.000
198124.400,186999.200,234472.600,337545.400,191700.700,197375.900,204813.800,202270.700,0.000
197307.700,186517.600,233654.700,336353.000,190874.400,196856.800,204187.200,201200.000,0.000
199055.600,187552.500,235059.500,338056.200,192429.500,197869.600,205458.200,203097.400,0.000
200193.000,188205.100,236073.600,339479.100,193568.700,198564.800,206351.100,204586.200,0.000
199791.800,187983.200,235761.200,339156.500,193242.800,198359.000,206058.700,204199.400,0.000
198113.600,186991.000,234298.400,337265.100,191696.300,197360.200,204804.200,202263.100,0.000
197302.300,186511.600,233478.400,336065.300,190864.100,196836.000,204174.200,201184.800,0.000
199025.800,187524.300,234857.700,337740.100,192395.300,197825.800,205423.100,203056.000,0.000
200154.900,188161.700,235862.200,339154.600,193525.500,198510.600,206303.400,204535.100,0.000
199782.100,187964.100,235576.000,338861.800,193222.600,198330.400,206035.600,204176.400,0.000
198137.100,186998.100,234143.100,337000.400,191703.200,197356.500,204809.300,202271.600,0.000
197310.700,186511.300,233312.300,335788.800,190859.900,196826.000,204171.500,201180.100,0.000
199052.800,187546.400,234711.400,337478.500,192410.200,197838.800,205437.800,203067.500,0.000
200197.800,188203.900,235731.900,338911.600,193559.900,198539.500,206335.300,204568.700,0.000
199809.600,187992.000,235432.700,338607.500,193245.000,198341.900,206053.000,204197.800,0.000
198144.600,187007.400,233983.500,336729.100,191705.500,197347.000,204805.000,202270.600,0.000
197269.600,186470.400,233108.300,335465.500,190812.700,196769.700,204117.300,201125.100,0.000
199003.900,187501.900,234500.700,337147.800,192354.000,197778.100,205380.600,203003.400,0.000
200164.300,188176.500,235537.400,338601.800,193519.200,198496.400,206299.700,204524.400,0.000
199793.000,187975.600,235250.000,338311.000,193216.400,198310.000,206027.000,204167.000,0.000
198164.100,187023.600,233832.100,336466.300,191710.400,197349.200,204806.900,202274.000,0.000
197317.900,186519.500,232991.900,335238.700,190853.200,196811.000,204158.000,201166.900,0.000
199033.200,187522.900,234358.200,336883.900,192362.300,197783.100,205385.500,203012.300,0.000
200194.100,188189.500,235390.300,338327.100,193519.600,198487.300,206288.200,204522.100,0.000
199788.800,187960.100,235079.800,338020.400,193200.400,198281.000,205999.200,204150.500,0.000
198162.100,187016.900,233671.300,336193.800,191711.200,197336.900,204800.500,202277.300,0.000
197309.700,186514.000,232820.400,334960.900,190846.400,196797.400,204145.200,201161.600,0.000
199028.600,187528.000,234194.300,336620.500,192367.300,197787.000,205387.000,203016.800,0.000
200184.400,188187.700,235229.500,338073.800,193529.300,198494.700,206299.200,204536.400,0.000
199785.600,187954.200,234919.200,337762.400,193199.600,198275.900,206002.100,204157.400,0.000
198144.500,186989.200,233489.600,335906.900,191679.200,197298.600,204770.000,202250.900,0.000
197290.500,186487.400,232638.700,334670.700,190811.000,196754.000,204109.700,201126.000,0.000
199012.100,187507.100,234017.400,336333.300,192331.800,197748.700,205354.600,202981.400,0.000
200223.600,188222.100,235103.600,337843.900,193549.100,198513.900,206323.200,204558.400,0.000
199821.800,187981.400,234786.400,337532.600,193216.600,198293.000,206022.500,204179.100,0.000
198152.500,186988.100,233329.800,335655.500,191669.500,197290.600,204766.700,202248.200,0.000
197286.300,186481.000,232470.900,334409.400,190794.200,196746.000,204102.400,201113.000,0.000
198994.900,187493.400,233840.700,336061.500,192308.000,197734.800,205342.500,202960.600,0.000
200169.300,188164.700,234883.800,337523.700,193479.000,198447.800,206260.000,204490.200,0.000
199809.400,187968.300,234610.000,337258.400,193192.300,198271.400,206004.500,204158.200,0.000
198161.500,186993.200,233174.400,335400.800,191665.000,197289.400,204767.900,202250.900,0.000
197279.700,186471.200,232299.300,334137.100,190773.500,196729.900,204089.200,201099.900,0.000
199003.700,187501.500,233684.200,335807.500,192306.200,197739.800,205348.900,202962.400,0.000
200187.000,188178.100,234740.900,337283.700,193490.700,198463.100,206275.700,204503.800,0.000
199844.000,187997.100,234483.900,337038.200,193221.600,198297.900,206033.700,204188.700,0.000
198201.300,187030.400,233055.200,335194.500,191707.200,197324.300,204807.300,202293.700,0.000
197295.000,186483.000,232155.900,333897.900,190785.600,196735.500,204097.900,201110.600,0.000
198985.400,187479.400,233505.900,335527.300,192281.800,197709.200,205319.500,202936.800,0.000
200187.900,188175.700,234579.000,337019.000,193481.500,198445.800,206263.500,204499.100,0.000
199846.400,188000.500,234333.300,336788.400,193225.500,198293.800,206036.800,204202.600,0.000
198210.500,187043.400,232916.300,334956.700,191721.100,197333.000,204821.800,202319.700,0.000
197299.000,186499.500,232017.000,333660.700,190796.800,196747.000,204116.900,201137.400,0.000
199003.500,187510.000,233381.500,335301.300,192302.500,197731.900,205351.800,202974.300,0.000
200195.000,188189.400,234440.000,336780.500,193487.300,198451.800,206278.100,204523.800,0.000
199843.700,187996.600,234178.700,336529.800,193213.000,198279.100,206028.600,204206.700,0.000
198199.300,187021.800,232750.000,334685.800,191696.100,197296.700,204797.300,202312.400,0.000
197284.200,186479.100,231848.500,333388.700,190773.200,196713.000,204094.200,201128.300,0.000
198968.500,187474.500,233195.100,335006.300,192262.500,197682.500,205313.600,202942.000,0.000
200176.200,188171.200,234273.700,336507.200,193470.400,198424.500,206262.400,204513.500,0.000
199829.000,187978.900,234016.900,336262.200,193197.700,198252.300,206015.200,204205.400,0.000
198196.000,187015.700,232599.500,334425.200,191689.600,197283.000,204790.500,202320.000,0.000
197257.800,186451.900,231675.300,333101.100,190742.600,196678.500,204060.700,201110.100,0.000
198943.800,187453.900,233026.100,334724.400,192233.600,197654.800,205287.300,202931.000,0.000
200132.100,188125.900,234081.900,336202.600,193417.400,198369.900,206212.500,204479.800,0.000
199825.400,187966.600,233858.700,335988.200,193177.100,198228.100,205995.600,204201.100,0.000
198242.000,187055.900,232494.800,334209.600,191722.800,197313.800,204826.100,202371.400,0.000
197296.300,186492.500,231571.900,332884.400,190773.300,196711.700,204097.300,201156.400,0.000
198969.400,187482.600,232909.600,334489.500,192253.700,197678.300,205308.900,202958.800,0.000
200165.300,188157.500,233968.800,335968.700,193439.900,198397.000,206233.600,204509.400,0.000
199809.800,187948.900,233696.100,335709.900,193152.400,198205.000,205968.300,204184.700,0.000
198206.000,187018.200,232309.600,333912.100,191677.900,197268.300,204777.400,202333.000,0.000
197276.100,186471.800,231402.000,332601.600,190747.000,196685.100,204066.500,201131.800,0.000
198953.800,187464.500,232746.100,334211.100,192229.000,197656.000,205281.200,202934.500,0.000
200164.400,188156.600,233822.900,335707.200,193427.200,198386.300,206220.700,204497.100,0.000
199858.200,188002.400,233602.500,335504.500,193194.400,198249.500,206009.500,204224.000,0.000
198211.500,187028.800,232172.600,333668.100,191681.300,197271.200,204778.300,202330.900,0.000
197248.400,186453.300,231235.000,332328.700,190719.800,196660.800,204042.500,201098.800,0.000
198914.500,187435.000,232569.000,333923.600,192187.400,197617.700,205246.500,202884.700,0.000
200138.700,188137.900,233662.700,335442.000,193406.200,198365.100,206206.600,204472.000,0.000
199803.900,187950.300,233414.900,335213.300,193143.600,198198.600,205966.200,204175.700,0.000
198199.100,187010.600,232024.900,333412.600,191666.000,197254.100,204768.000,202322.100,0.000
197245.000,186440.000,231085.000,332061.500,190699.800,196637.500,204020.800,201080.400,0.000
198932.100,187449.900,232433.000,333673.700,192191.600,197619.900,205244.900,202888.100,0.000
200129.900,188126.100,233495.400,335160.200,193383.000,198337.200,206172.900,204444.900,0.000
199794.100,187933.600,233246.500,334926.500,193120.500,198165.300,205928.300,204147.100,0.000
198215.200,187016.800,231886.000,333157.300,191673.100,197250.800,204760.800,202325.000,0.000
197294.200,186486.600,230986.600,331851.000,190746.500,196681.800,204060.900,201125.800,0.000
198928.400,187445.200,232283.800,333408.800,192183.300,197614.600,205236.300,202878.600,0.000
200125.800,188116.200,233345.500,334894.000,193372.400,198331.400,206163.200,204436.800,0.000
199790.700,187918.800,233092.900,334659.200,193105.100,198154.000,205915.800,204137.900,0.000
198207.400,187000.500,231726.700,332886.000,191652.600,197232.500,204742.300,202309.100,0.000
197229.500,186422.000,230775.900,331526.800,190675.200,196616.200,203993.100,201056.500,0.000
198897.300,187415.800,232109.100,333118.000,192146.700,197585.800,205201.500,202840.800,0.000
200128.700,188114.300,233200.600,334632.800,193368.000,198325.100,206152.000,204428.300,0.000
199814.100,187939.600,232972.300,334426.300,193127.400,198167.700,205928.800,204156.600,0.000
198231.600,187020.000,231606.500,332657.300,191674.400,197244.700,204755.200,202330.600,0.000
197257.500,186447.500,230661.300,331302.700,190702.600,196634.800,204009.700,201080.600,0.000
198897.700,187416.100,231969.400,332864.800,192147.300,197578.300,205190.300,202835.000,0.000
200130.900,188119.100,233067.300,334392.200,193373.300,198323.100,206147.200,204430.500,0.000
199817.100,187941.200,232839.800,334189.300,193131.000,198163.400,205921.500,204158.300,0.000
198225.400,187008.000,231465.900,332410.600,191666.800,197225.100,204735.400,202320.900,0.000
197231.500,186421.300,230504.700,331036.600,190676.400,196599.600,203972.500,201049.400,0.000
198888.300,187411.900,231831.000,332618.700,192142.000,197568.400,205176.900,202822.900,0.000
200148.700,188137.200,232952.000,334172.000,193391.100,198337.900,206160.600,204446.600,0.000
199828.300,187952.800,232714.400,333961.400,193141.400,198171.700,205928.000,204170.100,0.000
198218.200,187001.100,231321.000,332161.600,191660.100,197216.400,204722.600,202314.000,0.000
197212.500,186401.800,230345.600,330770.000,190656.200,196577.600,203947.300,201027.400,0.000
198854.800,187377.700,231652.700,332325.800,192095.000,197517.700,205125.700,202777.100,0.000
200123.500,188111.000,232784.800,333887.000,193352.000,198292.400,206114.300,204410.100,0.000
199808.000,187928.400,232555.700,333687.500,193111.100,198134.000,205887.200,204144.200,0.000
198210.100,186984.900,231171.300,331901.000,191633.900,197184.800,204689.600,202296.200,0.000
197208.200,186397.800,230202.100,330516.500,190629.100,196551.800,203924.000,201011.600,0.000
198831.200,187352.800,231494.300,332059.200,192056.400,197483.900,205094.700,202747.900,0.000
200116.000,188095.800,232637.700,333638.100,193331.000,198271.400,206097.800,204397.400,0.000
199836.600,187948.100,232444.400,333476.300,193124.500,198145.700,205905.700,204167.200,0.000
198252.900,187015.400,231074.500,331701.100,191660.300,197205.300,204718.500,202333.500,0.000
197267.900,186450.800,230129.800,330343.100,190688.000,196604.900,203980.200,201077.300,0.000
198881.500,187406.100,231413.000,331872.600,192104.700,197528.900,205140.400,202796.200,0.000
200133.000,188117.900,232527.400,333422.000,193346.600,198284.800,206114.300,204413.800,0.000
199846.800,187955.900,232322.500,333248.300,193129.200,198145.400,205908.600,204172.800,0.000
198258.500,187015.500,230945.500,331469.100,191659.000,197198.300,204711.300,202331.800,0.000
197219.400,186399.200,229946.200,330051.300,190622.500,196539.600,203916.000,201012.500,0.000
