EEG 1, EEG 2, EEG 3, EEG 4, EEG 5, EEG 6, EEG 7, EEG 8, TRIG
278098.100,304694.900,750000.100,750000.100,260274.800,539399.300,255365.400,296548.900,0.000
269844.000,296405.400,750000.100,750000.100,252649.900,524599.300,247820.400,287705.500,0.000
261840.500,287698.300,750000.100,750000.100,244106.500,510487.900,240744.100,277532.900,0.000
256124.900,280644.600,750000.100,750000.100,237704.000,498847.500,235517.800,270152.400,0.000
252814.000,276614.800,750000.100,750000.100,235136.300,490575.600,232155.200,267762.700,0.000
248898.000,272858.800,750000.100,750000.100,232441.900,482892.800,228468.500,265005.300,0.000
244236.500,268244.700,750000.100,750000.100,228097.100,474712.500,224218.300,259933.300,0.000
239223.800,262709.100,750000.100,750000.100,222428.800,466141.500,219865.700,253075.400,0.000
235857.800,258242.000,750000.100,750000.100,218319.300,459050.900,216808.400,248310.500,0.000
234403.700,256269.600,750000.100,750000.100,217484.400,454501.000,215191.800,247844.000,0.000
232152.800,254309.600,750000.100,750000.100,216322.300,450040.000,213049.800,246800.600,0.000
228980.800,251302.500,750000.100,750000.100,213408.200,444712.400,210181.500,243364.700,0.000
225317.800,247258.900,750000.100,750000.100,209093.500,438708.900,207066.400,238072.200,0.000
223064.500,244068.900,750000.100,750000.100,206104.700,433829.800,205031.300,234582.400,0.000
222528.900,243125.900,750000.100,750000.100,206121.800,431154.100,204276.400,235056.200,0.000
221124.800,242066.600,750000.100,750000.100,205727.400,428367.000,202920.400,234878.300,0.000
218777.600,239951.600,750000.100,745667.400,203606.200,424617.000,200806.400,232350.100,0.000
215881.100,236767.500,750000.100,721089.900,200076.400,420089.500,198390.100,227964.700,0.000
214281.600,234330.300,750000.100,699489.500,197749.000,416518.300,196963.900,225230.300,0.000
214274.900,233983.300,750000.100,681882.800,198251.400,414946.900,196709.200,226235.700,0.000
213396.200,233490.500,750000.100,664850.000,198330.600,413190.600,195837.700,226581.000,0.000
211561.800,231918.200,735421.300,647379.900,196699.000,410418.900,194193.000,224612.100,0.000
209156.600,229271.800,717260.700,629818.200,193657.900,406811.700,192218.000,220793.000,0.000
207978.800,227324.700,700881.300,614518.300,191758.000,404079.200,191177.900,218542.900,0.000
208320.600,227378.000,687069.500,602558.200,192583.700,403240.600,191250.400,219898.800,0.000
207794.200,227266.400,673519.600,590696.200,192977.600,402174.400,190706.100,220588.600,0.000
206315.100,226072.700,659574.600,577975.200,191670.200,400061.000,189379.100,218991.100,0.000
204272.900,223827.900,645448.100,564801.000,189003.000,397118.500,187728.700,215604.000,0.000
203380.100,222211.200,632755.800,553459.500,187392.600,394961.300,186948.300,213679.800,0.000
203959.300,222539.700,622327.500,545083.100,188429.500,394621.800,187239.300,215263.100,0.000
203682.900,222701.300,611943.500,536545.900,189049.600,394043.300,186925.400,216207.400,0.000
202449.600,221787.200,600958.300,526917.400,187995.100,392415.100,185832.700,214898.200,0.000
200634.200,219800.000,589583.100,516589.300,185556.900,389917.300,184389.600,211773.900,0.000
199942.900,218417.500,579448.100,507869.100,184151.400,388171.000,183791.800,210078.500,0.000
200686.800,218923.800,571383.100,501883.300,185334.400,388181.700,184239.700,211822.200,0.000
200590.000,219274.100,563231.800,495583.400,186110.900,387947.400,184091.100,212937.100,0.000
199541.600,218561.000,554358.800,488058.600,185235.500,386665.500,183167.900,211827.000,0.000
197900.000,216767.600,544969.400,479697.100,182973.500,384497.900,181883.800,208907.400,0.000
197363.300,215569.000,536696.500,472798.100,181726.500,383059.800,181435.000,207392.300,0.000
198238.200,216228.200,530361.300,468485.500,183028.300,383343.500,182006.300,209262.200,0.000
198269.200,216715.000,523839.300,463761.300,183917.000,383365.600,181978.000,210504.600,0.000
197357.800,216144.600,516515.300,457729.300,183168.600,382338.500,181177.800,209540.700,0.000
195851.300,214499.000,508592.400,450769.900,181041.500,380421.300,180010.800,206773.000,0.000
195417.800,213425.700,501687.700,445162.400,179899.500,379205.400,179656.800,205374.300,0.000
196391.300,214197.000,496646.200,442057.700,181287.400,379693.900,180319.800,207335.700,0.000
196529.200,214799.700,491359.400,438478.800,182274.400,379920.100,180388.700,208681.800,0.000
195722.500,214349.500,485218.800,433539.300,181634.200,379097.300,179686.600,207837.500,0.000
194313.800,212819.000,478416.400,427612.400,179610.000,377374.700,178607.800,205189.300,0.000
193966.700,211842.500,472563.100,422963.800,178548.300,376326.300,178322.800,203880.900,0.000
195009.400,212688.200,468508.800,420749.600,179996.900,376963.900,179047.300,205908.000,0.000
195226.000,213364.500,464168.800,418018.900,181045.400,377333.100,179183.500,207323.400,0.000
194495.600,212990.500,458928.100,413885.300,180469.600,376648.400,178548.200,206556.300,0.000
193171.400,211557.600,453000.100,408742.000,178533.500,375079.200,177544.300,204008.200,0.000
192890.700,210659.800,447971.200,404820.100,177541.600,374163.400,177326.500,202775.400,0.000
193983.100,211572.100,444690.300,403277.400,179038.200,374912.000,178104.400,204847.800,0.000
194243.200,212309.500,441086.800,401188.900,180139.200,375394.300,178288.400,206313.000,0.000
193571.800,212008.600,436562.100,397678.700,179628.800,374830.800,177707.400,205610.900,0.000
192298.400,210633.100,431313.700,393117.400,177746.400,373365.400,176748.800,203121.800,0.000
192066.600,209795.900,426935.100,389746.800,176802.500,372549.400,176574.800,201940.300,0.000
193208.900,210761.000,424274.700,388731.500,178340.400,373393.400,177397.600,204059.500,0.000
193521.100,211546.000,421265.800,387147.100,179480.800,373961.300,177626.700,205573.400,0.000
192891.300,211284.700,417308.700,384116.800,179008.800,373477.500,177085.200,204919.500,0.000
191665.500,209960.500,412610.200,380021.300,177173.400,372097.000,176169.200,202486.300,0.000
191471.700,209174.000,408753.700,377090.100,176271.800,371365.100,176032.200,201350.800,0.000
192642.700,210166.000,406585.700,376474.600,177829.700,372268.600,176882.700,203490.700,0.000
192992.600,210988.000,404061.700,375286.100,179003.000,372903.500,177143.200,205041.100,0.000
192395.600,210764.900,400566.900,372631.200,178565.800,372483.300,176630.300,204425.400,0.000
191202.000,209475.500,396313.800,368896.900,176759.800,371160.700,175744.700,202026.400,0.000
191030.700,208706.600,392879.800,366302.900,175877.000,370478.600,175630.400,200913.900,0.000
192229.400,209737.500,391123.000,366019.700,177462.900,371438.300,176503.500,203081.800,0.000
192596.000,210588.400,388984.600,365138.400,178654.900,372118.700,176774.700,204652.300,0.000
192020.200,210392.200,385867.400,362783.200,178239.400,371745.200,176276.900,204061.600,0.000
190852.100,209132.400,381982.000,359340.900,176463.300,370473.900,175412.100,201693.500,0.000
190700.400,208378.200,378896.000,357018.500,175594.300,369828.900,175316.700,200596.300,0.000
191910.100,209408.000,377466.300,356982.200,177179.500,370812.100,176198.900,202765.200,0.000
192299.600,210277.100,375656.700,356350.800,178387.400,371528.400,176495.900,204355.000,0.000
191754.200,210110.300,372864.000,354248.500,177996.700,371198.000,176032.300,203796.000,0.000
190604.300,208869.400,369280.400,351038.500,176232.900,369956.500,175183.400,201445.800,0.000
190450.900,208121.900,366471.400,348922.800,175363.100,369328.300,175083.500,200349.300,0.000
191666.800,209155.900,365319.300,349093.900,176959.100,370336.600,175973.600,202527.000,0.000
192080.500,210048.700,363789.500,348677.200,178186.400,371082.900,176288.000,204135.600,0.000
191543.600,209888.100,361256.400,346770.000,177807.000,370775.200,175827.700,203586.500,0.000
190393.200,208657.200,357921.300,343742.500,176056.800,369559.400,174981.800,201245.400,0.000
190253.400,207923.300,355356.000,341804.600,175196.600,368953.700,174893.600,200149.200,0.000
191530.900,209026.500,354488.800,342198.300,176845.300,370030.100,175845.900,202377.300,0.000
191965.400,209938.600,353208.900,341970.400,178096.300,370814.600,176194.300,204011.800,0.000
191425.500,209778.700,350891.800,340215.600,177713.800,370515.500,175736.200,203456.000,0.000
190271.400,208542.600,347759.000,337327.700,175949.700,369295.900,174878.400,201096.700,0.000
190124.100,207797.800,345391.100,335522.900,175076.600,368688.400,174778.300,199982.900,0.000
191382.500,208871.500,344696.200,336028.800,176690.700,369740.000,175698.000,202167.800,0.000
191811.000,209771.700,343594.300,335922.300,177924.000,370516.200,176026.800,203777.800,0.000
191291.500,209633.500,341480.400,334316.200,177554.100,370239.300,175578.700,203233.600,0.000
190160.900,208418.500,338557.800,331583.000,175812.900,369052.900,174747.200,200900.300,0.000
190061.300,207728.300,336413.300,329948.200,174975.500,368494.700,174697.800,199829.400,0.000
191334.900,208813.000,335907.200,330589.100,176589.000,369559.800,175634.900,202029.000,0.000
191773.000,209714.600,334979.100,330600.300,177808.700,370335.600,175967.800,203641.500,0.000
191261.700,209582.100,333035.500,329109.500,177431.200,370061.400,175525.300,203100.800,0.000
190132.800,208371.400,330274.700,326489.900,175685.200,368878.500,174699.700,200774.000,0.000
190007.000,207649.300,328255.000,324931.900,174809.100,368286.400,174620.700,199674.500,0.000
191258.500,208696.800,327864.200,325642.700,176370.400,369305.400,175519.700,201836.500,0.000
191685.100,209575.700,327065.100,325737.400,177555.400,370054.300,175837.000,203426.600,0.000
191178.600,209439.600,325265.800,324343.700,177166.300,369772.800,175402.300,202882.600,0.000
190076.500,208274.400,322673.500,321849.600,175461.800,368622.600,174610.400,200604.400,0.000
189944.200,207557.700,320787.700,320382.000,174590.800,368034.900,174535.800,199516.600,0.000
191205.400,208608.600,320533.300,321190.100,176150.300,369054.600,175439.700,201693.800,0.000
191648.600,209512.700,319878.800,321398.800,177349.800,369817.900,175771.400,203319.300,0.000
191141.800,209393.400,318207.900,320099.500,176977.800,369551.200,175346.500,202799.400,0.000
190021.700,208209.000,315712.100,317664.000,175256.700,368388.400,174542.100,200498.600,0.000
189890.700,207486.300,313932.400,316265.000,174380.500,367791.200,174459.700,199405.400,0.000
191155.200,208537.200,313786.200,317145.200,175939.000,368805.200,175361.500,201587.600,0.000
191605.700,209448.300,313245.100,317426.200,177145.500,369572.600,175698.400,203218.600,0.000
191106.200,209343.600,311696.300,316204.100,176780.700,369317.700,175286.300,202706.100,0.000
189994.800,208178.700,309328.400,313849.900,175073.900,368172.800,174497.500,200417.500,0.000
189869.900,207465.200,307668.800,312530.300,174208.000,367594.200,174428.200,199333.800,0.000
191146.600,208510.500,307630.300,313479.800,175753.600,368606.100,175335.500,201511.800,0.000
191609.300,209436.100,307202.300,313837.100,176967.100,369384.700,175678.800,203149.100,0.000
191104.200,209338.200,305751.600,312674.100,176611.300,369137.300,175259.000,202629.100,0.000
189987.300,208186.200,303484.500,310381.100,174919.800,368008.000,174468.700,200344.300,0.000
189866.100,207482.100,301933.300,309125.100,174057.100,367440.500,174402.800,199264.600,0.000
191141.000,208519.400,301992.000,310129.800,175581.600,368442.900,175300.900,201429.400,0.000
191598.100,209419.900,301652.100,310536.700,176767.600,369202.100,175634.600,203049.200,0.000
191090.300,209322.700,300296.100,309431.900,176411.200,368957.700,175219.900,202529.100,0.000
189963.700,208173.800,298113.500,307195.400,174735.900,367841.400,174440.500,200251.800,0.000
189836.100,207461.300,296631.300,305986.800,173881.200,367274.000,174375.900,199169.200,0.000
191118.900,208488.300,296760.900,307040.800,175401.400,368269.400,175267.300,201327.500,0.000
191580.800,209399.000,296500.500,307502.700,176595.200,369038.400,175601.800,202955.100,0.000
191064.300,209301.900,295219.100,306447.000,176247.500,368805.200,175191.100,202439.600,0.000
189930.900,208152.000,293114.200,304255.800,174577.300,367696.600,174409.700,200162.500,0.000
189797.600,207427.200,291703.400,303086.500,173715.400,367126.500,174335.700,199079.800,0.000
191093.900,208455.100,291913.900,304190.100,175231.300,368120.200,175227.000,201246.900,0.000
191560.800,209370.100,291731.500,304700.000,176426.700,368884.800,175568.600,202880.800,0.000
191047.900,209288.100,290526.300,303693.300,176096.300,368661.500,175171.900,202377.500,0.000
189913.800,208150.300,288489.700,301545.400,174446.000,367563.500,174404.400,200114.500,0.000
189785.500,207439.000,287147.900,300421.200,173597.300,366999.000,174339.100,199039.900,0.000
191081.600,208458.500,287413.000,301559.200,175101.700,367977.200,175214.500,201194.100,0.000
191544.300,209353.700,287284.700,302095.700,176277.600,368720.800,175539.300,202808.100,0.000
191027.900,209270.300,286149.400,301127.100,175951.000,368501.700,175143.600,202305.600,0.000
189889.600,208144.000,284186.900,299026.400,174321.400,367421.400,174379.600,200056.100,0.000
189756.400,207429.200,282905.200,297935.400,173478.400,366861.300,174306.900,198980.100,0.000
191058.600,208442.500,283234.000,299107.600,174977.700,367838.000,175185.700,201132.500,0.000
191534.300,209349.900,283179.500,299696.300,176168.700,368598.200,175532.900,202763.300,0.000
191021.400,209271.800,282107.300,298765.600,175852.500,368386.800,175150.000,202263.800,0.000
189891.400,208148.300,280210.300,296702.100,174239.100,367316.600,174398.800,200019.300,0.000
189746.800,207417.000,278969.600,295631.900,173391.000,366747.300,174311.400,198927.400,0.000
191055.700,208422.900,279350.800,296836.500,174887.400,367723.200,175187.100,201072.400,0.000
191555.100,209351.000,279368.900,297477.900,176096.300,368504.100,175551.500,202720.000,0.000
191045.100,209284.100,278356.200,296586.800,175788.900,368302.900,175176.400,202226.300,0.000
189894.100,208154.100,276495.600,294546.300,174171.000,367230.300,174408.800,199973.700,0.000
189749.700,207428.300,275307.000,293510.000,173331.400,366672.600,174323.800,198889.900,0.000
191049.000,208413.600,275718.300,294725.800,174800.500,367626.000,175178.200,201014.100,0.000
191518.200,209312.800,275755.300,295371.500,175979.000,368381.400,175511.900,202635.700,0.000
190999.800,209247.600,274785.000,294508.900,175680.700,368190.600,175134.500,202148.700,0.000
189854.800,208125.200,272981.500,292505.000,174083.300,367136.000,174387.800,199916.500,0.000
189719.700,207399.400,271847.400,291498.800,173246.600,366580.300,174313.600,198838.900,0.000
191034.200,208391.100,272315.700,292748.100,174717.600,367536.300,175170.800,200968.000,0.000
191513.300,209288.600,272405.100,293421.800,175895.200,368287.400,175501.900,202591.900,0.000
190991.900,209213.500,271477.400,292579.500,175591.700,368085.500,175116.100,202101.400,0.000
189846.700,208091.200,269718.900,290601.300,174000.800,367031.800,174371.000,199874.800,0.000
189712.900,207368.100,268625.600,289621.400,173167.000,366474.800,174291.000,198799.100,0.000
191025.600,208352.100,269127.800,290892.500,174632.800,367419.900,175144.200,200925.800,0.000
191508.800,209251.000,269258.300,291595.500,175819.400,368171.800,175482.700,202557.700,0.000
190990.600,209186.000,268373.800,290786.200,175535.000,367983.400,175113.500,202079.500,0.000
189856.100,208087.000,266669.100,288848.500,173976.500,366955.000,174390.100,199876.700,0.000
189717.700,207361.500,265609.200,287885.500,173148.900,366401.500,174310.500,198800.500,0.000
191023.900,208333.000,266139.500,289166.200,174599.900,367332.900,175151.000,200909.500,0.000
191489.700,209210.200,266291.000,289869.000,175759.200,368063.000,175471.800,202516.900,0.000
190959.400,209129.600,265440.800,289071.400,175463.600,367869.100,175089.400,202029.100,0.000
189806.200,208009.100,263761.500,287141.500,173890.700,366831.500,174347.300,199812.800,0.000
189656.200,207270.200,262732.600,286188.500,173049.300,366268.800,174261.200,198724.100,0.000
191008.900,208284.400,263346.800,287531.600,174534.800,367244.500,175149.400,200869.800,0.000
191521.100,209211.100,263584.000,288299.400,175736.800,368022.400,175516.800,202516.500,0.000
190995.400,209139.600,262774.600,287522.300,175441.200,367830.100,175141.000,202022.900,0.000
189853.800,208044.800,261144.200,285629.900,173895.100,366812.800,174414.300,199834.400,0.000
189712.800,207326.700,260158.400,284711.300,173079.200,366277.300,174337.600,198765.400,0.000
191054.500,208323.700,260780.100,286052.500,174545.100,367236.500,175197.000,200887.700,0.000
191539.900,209218.000,261014.600,286812.300,175723.300,367983.800,175531.000,202510.200,0.000
190996.300,209132.000,260213.200,286037.300,175427.000,367782.300,175145.000,202014.300,0.000
189843.000,208024.000,258593.600,284146.900,173873.900,366758.200,174416.800,199810.800,0.000
189688.500,207283.500,257617.500,283230.100,173045.900,366210.100,174336.700,198725.500,0.000
191008.300,208256.400,258240.100,284562.100,174488.300,367142.800,175173.100,200821.600,0.000
191502.500,209168.700,258514.400,285349.000,175677.500,367904.600,175510.300,202457.500,0.000
190981.300,209114.300,257774.500,284620.300,175406.400,367734.900,175142.300,201993.100,0.000
189832.000,208011.900,256201.400,282758.300,173857.500,366721.400,174419.100,199801.400,0.000
189683.900,207273.900,255266.500,281859.100,173021.600,366171.500,174336.100,198714.900,0.000
191008.300,208237.900,255928.700,283207.400,174450.500,367093.300,175166.400,200804.300,0.000
191517.700,209156.800,256240.800,284019.000,175640.000,367854.200,175512.500,202447.100,0.000
190998.500,209111.400,255524.000,283308.700,175380.100,367686.600,175155.700,201990.500,0.000
189839.400,208010.100,253960.500,281453.100,173841.800,366669.800,174429.800,199796.600,0.000
189688.400,207281.800,253041.100,280567.500,173028.300,366130.100,174343.700,198717.500,0.000
191026.500,208266.600,253732.500,281944.100,174485.700,367073.900,175187.400,200825.100,0.000
191523.300,209166.600,254057.400,282760.700,175670.300,367826.100,175528.900,202458.300,0.000
190991.300,209095.400,253352.200,282048.400,175389.200,367636.800,175152.200,201980.200,0.000
189832.900,207991.600,251819.300,280206.500,173850.500,366621.700,174427.300,199786.900,0.000
189683.700,207261.500,250926.700,279326.700,173029.000,366077.400,174344.300,198698.900,0.000
191015.000,208239.900,251627.800,280696.400,174466.600,367004.100,175166.900,200780.700,0.000
191500.500,209142.300,251962.600,281513.800,175648.000,367749.200,175491.100,202401.900,0.000
190968.800,209090.600,251287.000,280827.700,175393.300,367581.100,175131.100,201941.400,0.000
189813.800,207996.000,249780.400,279007.000,173868.500,366579.100,174413.800,199758.200,0.000
189666.500,207262.200,248911.100,278144.300,173049.300,366038.000,174333.700,198667.100,0.000
191008.400,208238.200,249646.000,279535.000,174493.300,366971.800,175169.900,200748.500,0.000
191519.500,209150.900,250033.600,280384.100,175686.700,367741.300,175515.100,202387.400,0.000
191004.400,209119.800,249403.400,279724.800,175440.900,367598.900,175168.000,201945.300,0.000
189843.300,208026.300,247920.500,277914.600,173910.600,366601.300,174448.800,199761.600,0.000
189683.900,207286.400,247066.500,277054.200,173078.300,366055.800,174358.600,198660.900,0.000
191028.100,208264.900,247825.300,278458.800,174513.300,366988.000,175192.200,200740.000,0.000
191533.600,209182.700,248223.700,279322.300,175707.100,367748.900,175531.000,202379.500,0.000
191001.500,209129.500,247592.200,278664.000,175453.300,367586.200,175170.800,201924.700,0.000
189836.300,208026.400,246115.300,276857.100,173925.600,366583.200,174450.900,199737.800,0.000
189668.200,207268.100,245259.500,275990.400,173084.300,366022.900,174352.500,198618.100,0.000
191014.100,208243.000,246021.800,277399.800,174523.300,366948.000,175179.200,200691.000,0.000
191531.500,209179.100,246445.700,278289.100,175744.100,367726.000,175527.800,202347.100,0.000
191008.500,209139.700,245843.600,277649.900,175511.400,367577.100,175179.000,201907.800,0.000
189836.900,208034.700,244385.100,275855.900,173994.800,366581.100,174461.200,199728.600,0.000
189661.400,207272.200,243537.000,274989.000,173150.800,366016.400,174356.800,198602.000,0.000
191013.500,208251.500,244317.600,276404.200,174588.700,366941.800,175184.800,200669.100,0.000
191534.800,209192.300,244760.500,277299.300,175811.000,367720.500,175531.500,202322.300,0.000
191006.300,209155.400,244170.600,276662.100,175574.300,367570.700,175169.300,201877.200,0.000
189842.100,208059.700,242746.400,274882.000,174056.600,366585.500,174451.400,199704.800,0.000
189661.700,207283.000,241922.100,274016.400,173190.200,366013.800,174334.900,198564.700,0.000
191009.200,208241.400,242714.300,275429.600,174592.000,366913.800,175148.100,200606.300,0.000
191537.900,209185.900,243178.700,276348.400,175815.800,367689.700,175508.000,202261.700,0.000
191013.800,209163.700,242605.200,275738.100,175607.700,367552.700,175165.000,201835.000,0.000
189836.800,208070.100,241173.600,273961.400,174104.700,366566.500,174452.800,199664.100,0.000
189663.400,207310.500,240363.300,273111.300,173261.900,366011.400,174354.000,198538.300,0.000
191026.200,208289.300,241185.500,274545.300,174687.500,366932.300,175180.400,200601.500,0.000
191553.800,209227.500,241665.900,275461.800,175897.300,367699.300,175526.900,202256.300,0.000
191028.400,209200.700,241114.400,274855.700,175672.300,367555.500,175174.600,201830.300,0.000
189854.200,208111.600,239711.700,273094.700,174169.900,366571.600,174459.500,199668.000,0.000
189670.900,207346.400,238910.400,272246.600,173316.800,366007.900,174351.700,198535.600,0.000
191032.100,208317.000,239741.200,273684.200,174727.900,366918.600,175174.800,200588.900,0.000
191569.500,209263.900,240249.500,274624.800,175947.800,367694.100,175536.400,202257.500,0.000
191040.700,209235.400,239713.800,274030.600,175727.600,367550.400,175186.700,201837.800,0.000
189857.600,208150.700,238322.600,272278.600,174235.300,366576.100,174471.600,199685.200,0.000
189665.600,207375.600,237527.200,271427.600,173380.000,366011.200,174356.800,198542.800,0.000
191017.800,208326.800,238354.500,272853.800,174774.700,366905.500,175162.700,200571.900,0.000
191559.700,209280.600,238877.700,273803.200,176002.200,367688.800,175521.900,202243.300,0.000
191044.500,209279.300,238375.600,273232.100,175810.100,367574.400,175189.000,201844.000,0.000
189854.500,208192.700,236995.000,271479.500,174317.600,366602.900,174469.800,199685.000,0.000
189656.400,207409.500,236205.100,270627.400,173450.300,366034.800,174353.300,198530.600,0.000
191022.800,208370.400,237052.800,272068.200,174848.800,366939.200,175169.700,200563.800,0.000
191564.700,209324.900,237583.100,273021.100,176074.700,367721.800,175520.000,202234.500,0.000
191036.800,209308.900,237075.100,272444.400,175872.100,367597.200,175173.700,201825.900,0.000
189859.200,208238.500,235718.700,270710.800,174400.100,366645.400,174473.900,199688.500,0.000
189662.300,207465.400,234948.000,269866.200,173547.500,366091.000,174358.500,198543.000,0.000
191028.800,208426.200,235809.800,271310.500,174940.900,366990.300,175165.200,200569.500,0.000
191573.800,209375.800,236360.900,272274.900,176155.800,367768.900,175523.000,202232.900,0.000
191052.000,209354.000,235880.100,271709.100,175943.700,367640.200,175182.200,201822.800,0.000
189878.300,208300.100,234553.900,269997.900,174482.700,366699.400,174478.600,199710.500,0.000
189661.900,207514.400,233779.700,269147.800,173609.000,366130.000,174347.900,198550.600,0.000
191020.100,208461.100,234638.800,270590.500,174986.500,367011.600,175148.400,200566.800,0.000
191562.700,209408.100,235190.600,271559.600,176204.700,367779.500,175502.400,202236.900,0.000
191054.900,209427.500,234731.000,271025.400,176033.700,367680.800,175184.800,201865.000,0.000
189864.300,208366.400,233396.100,269308.100,174570.700,366737.300,174486.800,199737.400,0.000
189645.100,207571.400,232621.400,268454.400,173694.200,366161.800,174359.400,198568.000,0.000
191008.700,208513.700,233487.300,269899.900,175074.500,367045.400,175155.700,200584.000,0.000
191569.000,209483.500,234062.800,270890.600,176316.400,367835.400,175515.300,202278.500,0.000
191047.300,209484.500,233599.100,270347.800,176135.600,367724.000,175179.100,201899.700,0.000
189856.100,208422.400,232275.200,268635.400,174676.900,366780.600,174478.200,199774.200,0.000
189642.900,207636.500,231524.700,267795.600,173810.600,366215.200,174363.100,198613.000,0.000
191004.500,208573.400,232403.600,269243.500,175182.300,367091.800,175161.200,200623.800,0.000
191563.800,209536.000,232995.300,270240.800,176419.700,367876.800,175521.500,202314.900,0.000
191041.900,209539.500,232548.600,269708.100,176247.800,367770.900,175184.000,201941.200,0.000
189873.300,208503.100,231258.800,268030.900,174830.300,366856.300,174490.600,199858.900,0.000
189670.300,207747.300,230533.400,267217.300,174003.600,366318.100,174369.500,198739.000,0.000
191060.000,208733.800,231456.300,268704.600,175430.600,367246.700,175192.200,200793.300,0.000
191638.600,209726.200,232074.900,269720.500,176694.500,368059.200,175569.800,202493.700,0.000
191106.000,209722.200,231628.300,269177.700,176512.200,367947.700,175227.200,202089.800,0.000
189894.700,208634.600,230307.000,267448.300,175033.300,366989.400,174511.500,199924.700,0.000
189662.400,207818.800,229551.800,266584.100,174137.000,366403.800,174370.500,198715.300,0.000
191028.800,208750.300,230447.300,268034.300,175496.300,367279.200,175167.100,200702.600,0.000
191589.600,209709.300,231054.500,269038.500,176731.000,368065.800,175536.300,202378.300,0.000
191066.400,209718.900,230622.100,268517.100,176569.000,367968.800,175213.100,201996.400,0.000
189865.900,208651.700,229311.400,266811.500,175116.800,367032.500,174516.100,199856.500,0.000
189637.700,207835.000,228554.700,265958.400,174228.500,366451.900,174390.500,198652.800,0.000
191017.900,208776.600,229455.800,267422.200,175600.900,367333.400,175188.600,200647.600,0.000
191591.800,209749.000,230078.000,268445.600,176847.700,368128.600,175551.600,202341.400,0.000
191072.000,209755.400,229655.400,267931.200,176680.200,368032.800,175218.700,201964.500,0.000
189866.500,208672.600,228350.200,266222.800,175215.700,367088.400,174498.400,199821.800,0.000
189641.700,207863.300,227609.300,265376.700,174334.300,366516.900,174359.100,198632.200,0.000
191015.000,208802.400,228515.200,266839.300,175704.100,367396.500,175154.400,200633.700,0.000
191585.600,209770.300,229141.400,267864.000,176948.000,368188.100,175518.700,202332.300,0.000
191081.400,209796.100,228746.000,267373.800,176800.900,368109.400,175206.000,201981.100,0.000
189880.200,208727.400,227458.300,265677.800,175347.600,367173.700,174497.800,199851.400,0.000
189638.300,207908.000,226713.700,264817.900,174444.300,366581.400,174346.600,198641.400,0.000
191005.900,208840.600,227633.100,266281.800,175794.800,367449.100,175135.300,200635.500,0.000
191587.500,209815.900,228290.500,267324.700,177033.100,368238.500,175512.700,202346.000,0.000
191091.100,209853.800,227926.400,266851.200,176879.200,368157.300,175208.300,202009.500,0.000
189882.500,208783.600,226659.500,265159.700,175401.400,367207.100,174498.600,199882.100,0.000
189652.000,207968.700,225947.000,264315.000,174493.700,366617.000,174356.800,198683.600,0.000
191031.300,208897.500,226880.400,265785.800,175841.900,367483.600,175152.900,200682.300,0.000
191608.400,209864.500,227531.700,266818.400,177076.400,368262.400,175519.400,202386.200,0.000
191093.800,209830.400,227122.100,266321.400,177026.100,368162.200,175196.800,202025.500,0.000
189875.800,208683.700,225775.500,264613.600,175771.800,367214.700,174492.300,199872.300,0.000
189632.900,207871.500,225041.800,263760.300,174863.700,366617.900,174347.300,198650.300,0.000
191020.300,208817.200,226006.500,265243.600,176192.500,367475.400,175140.200,200650.000,0.000
191600.600,209798.800,226699.500,266293.000,177397.600,368257.800,175517.600,202365.500,0.000
191103.900,209842.800,226366.500,265823.700,177208.000,368171.300,175206.400,202033.800,0.000
189902.100,208778.600,225120.800,264142.600,175706.500,367231.900,174498.200,199912.100,0.000
189650.500,207933.500,224397.900,263280.600,174719.600,366640.900,174329.600,198683.200,0.000
191018.100,208842.100,225329.200,264742.800,176030.500,367493.200,175106.300,200658.600,0.000
191600.500,209807.200,225995.200,265791.000,177250.300,368268.200,175487.500,202363.500,0.000
191103.400,209849.600,225647.400,265333.900,177108.600,368194.000,175185.700,202034.600,0.000
189887.800,208777.600,224384.800,263645.500,175639.500,367238.700,174474.400,199900.500,0.000
189633.100,207946.900,223653.000,262786.300,174715.000,366633.800,174324.400,198674.700,0.000
190986.600,208839.700,224564.500,264237.700,176039.000,367469.300,175105.900,200637.500,0.000
191580.600,209816.400,225244.400,265306.400,177290.600,368269.000,175499.900,202359.400,0.000
191110.600,209883.300,224922.800,264878.400,177182.200,368219.800,175223.000,202051.800,0.000
189913.700,208828.200,223684.600,263214.400,175736.500,367290.900,174524.700,199936.200,0.000
189662.000,207994.100,222971.400,262364.300,174817.100,366693.900,174373.100,198712.700,0.000
191020.200,208893.300,223899.000,263824.400,176137.900,367538.300,175146.800,200679.100,0.000
191609.400,209858.700,224580.100,264887.500,177381.300,368328.000,175525.000,202399.500,0.000
191108.200,209886.700,224233.100,264423.800,177234.700,368241.800,175215.000,202061.800,0.000
189892.500,208813.200,222979.000,262741.400,175771.700,367291.500,174495.400,199927.300,0.000
189627.700,207963.600,222255.800,261883.400,174844.800,366684.200,174340.600,198688.100,0.000
191001.300,208868.900,223199.400,263365.000,176188.000,367544.400,175146.100,200671.300,0.000
191590.000,209837.800,223878.900,264432.900,177439.400,368335.400,175527.900,202392.000,0.000
191091.300,209870.000,223527.600,263974.500,177298.500,368252.500,175212.200,202052.800,0.000
189904.800,208833.300,222302.300,262328.800,175877.300,367334.900,174511.000,199959.000,0.000
189632.500,207987.800,221578.600,261464.500,174949.300,366723.600,174346.100,198717.200,0.000
190997.800,208887.300,222520.500,262934.000,176277.400,367567.400,175138.300,200687.100,0.000
191589.200,209860.100,223218.800,264010.300,177535.300,368360.600,175523.900,202420.100,0.000
191110.900,209927.400,222906.500,263583.100,177424.800,368308.500,175231.100,202121.300,0.000
189913.400,208884.500,221679.800,261925.000,175993.100,367383.500,174528.700,200013.300,0.000
189633.300,208024.600,220946.100,261051.900,175053.400,366756.900,174356.000,198753.200,0.000
190989.800,208914.900,221878.700,262519.300,176379.800,367594.500,175139.000,200717.600,0.000
191591.900,209901.400,222581.600,263604.800,177650.100,368396.100,175527.000,202459.100,0.000
191097.200,209952.700,222252.900,263161.900,177530.400,368324.500,175213.200,202142.400,0.000
189888.900,208904.200,221021.600,261502.300,176096.200,367393.500,174499.700,200027.500,0.000
189615.700,208062.000,220305.700,260640.800,175169.400,366782.800,174337.600,198776.200,0.000
190987.900,208961.600,221260.800,262119.000,176504.400,367630.900,175136.900,200748.000,0.000
191614.500,209967.200,221997.500,263235.000,177797.500,368455.900,175550.400,202516.000,0.000
191146.800,210051.700,221709.000,262827.500,177710.000,368420.300,175261.500,202234.000,0.000
189933.600,209000.200,220483.700,261161.800,176267.100,367486.100,174536.900,200112.400,0.000
189655.400,208149.900,219769.200,260294.200,175329.900,366870.400,174367.600,198852.800,0.000
191014.300,209036.600,220713.200,261760.000,176645.800,367706.000,175147.300,200809.800,0.000
191610.400,210014.300,221423.600,262847.200,177909.400,368501.200,175531.400,202547.100,0.000
191120.700,210065.600,221108.600,262414.100,177793.700,368432.600,175222.100,202233.900,0.000
189935.800,209038.500,219907.100,260780.100,176383.300,367525.100,174526.400,200138.900,0.000
189673.900,208220.000,219214.400,259938.500,175479.400,366943.400,174385.500,198902.900,0.000
191036.900,209119.500,220166.800,261410.200,176801.500,367787.500,175177.100,200857.700,0.000
191641.700,210101.400,220888.100,262507.700,178068.900,368591.000,175568.700,202599.200,0.000
191151.100,210164.500,220582.600,262083.300,177959.600,368534.400,175260.000,202294.400,0.000
189952.100,209135.500,219379.500,260442.400,176544.500,367626.100,174554.100,200197.800,0.000
189661.900,208282.000,218661.700,259569.000,175606.800,367013.400,174381.700,198931.300,0.000
191027.000,209172.500,219618.800,261045.000,176931.300,367860.200,175174.800,200890.300,0.000
191634.800,210158.000,220343.800,262150.400,178207.900,368666.900,175565.600,202641.400,0.000
191138.800,210208.400,220037.900,261725.900,178100.900,368605.100,175259.700,202340.300,0.000
189941.800,209178.600,218836.900,260086.200,176684.100,367694.900,174553.800,200244.700,0.000
189643.900,208318.700,218117.600,259209.800,175740.400,367077.600,174378.100,198970.600,0.000
191000.600,209196.700,219067.000,260676.000,177049.600,367910.500,175163.900,200915.600,0.000
191618.200,210184.700,219804.000,261787.300,178321.900,368717.100,175559.600,202670.600,0.000
191135.000,210253.000,219519.400,261377.500,178216.100,368661.000,175250.300,202380.200,0.000
189932.400,209216.800,218328.500,259736.200,176782.000,367736.600,174536.400,200277.000,0.000
189662.300,208387.500,217650.300,258890.400,175858.900,367144.100,174387.300,199029.400,0.000
191027.300,209278.600,218624.300,260368.900,177175.900,367988.200,175183.000,200988.100,0.000
191650.700,210266.500,219376.800,261485.700,178446.000,368795.400,175582.800,202747.400,0.000
191173.900,210338.500,219100.200,261081.400,178343.100,368744.500,175277.100,202461.300,0.000
189984.200,209318.900,217922.000,259457.100,176932.200,367841.700,174570.200,200376.100,0.000
189686.100,208445.800,217206.500,258575.200,175965.500,367208.300,174381.100,199082.300,0.000
191033.000,209308.200,218154.600,260032.200,177260.100,368026.000,175157.600,201010.200,0.000
191650.900,210301.100,218899.900,261152.000,178546.500,368841.600,175562.300,202774.500,0.000
191165.600,210364.900,218608.800,260741.000,178446.600,368785.200,175252.500,202483.900,0.000
189961.100,209329.700,217415.700,259104.800,177030.800,367869.000,174537.500,200386.800,0.000
189652.000,208457.100,216697.000,258218.400,176073.500,367237.800,174353.700,199089.300,0.000
191003.200,209324.100,217654.500,259679.000,177369.900,368064.500,175140.000,201016.800,0.000
191645.800,210327.400,218428.300,260821.700,178668.800,368897.300,175563.800,202797.000,0.000
191188.000,210419.700,218169.500,260442.000,178596.000,368869.200,175276.900,202535.800,0.000
189986.100,209387.700,216977.400,258808.000,177178.100,367952.900,174560.900,200436.900,0.000
189665.600,208499.400,216248.600,257914.600,176204.700,367310.000,174365.800,199119.700,0.000
190996.800,209364.700,217198.000,259371.100,177504.100,368140.900,175146.900,201042.500,0.000
191617.800,210349.900,217949.300,260489.200,178784.200,368953.800,175547.800,202796.700,0.000
191186.600,210469.600,217723.200,260135.700,178734.800,368954.300,175287.100,202556.600,0.000
190029.300,209489.600,216590.200,258553.000,177365.700,368093.400,174616.200,200505.700,0.000
189703.500,208603.300,215865.600,257654.500,176387.100,367452.100,174418.800,199183.200,0.000
191046.900,209446.000,216813.500,259107.600,177662.800,368263.600,175194.700,201084.700,0.000
191646.300,210410.800,217548.700,260216.900,178919.500,369056.900,175581.200,202819.800,0.000
191176.800,210488.500,217280.300,259827.100,178834.100,369015.100,175286.600,202543.400,0.000
189992.300,209477.300,216116.400,258221.700,177438.800,368126.200,174587.500,200471.400,0.000
189663.500,208584.900,215385.800,257317.400,176450.400,367477.300,174384.200,199143.400,0.000
191003.100,209435.700,216335.300,258772.100,177730.700,368296.800,175160.800,201052.300,0.000
191633.900,210419.200,217095.400,259904.300,179008.500,369108.800,175564.800,202813.400,0.000
191168.100,210495.700,216834.400,259518.600,178920.800,369065.300,175269.300,202543.200,0.000
189975.500,209480.200,215666.000,257905.000,177515.200,368164.600,174559.400,200465.600,0.000
189660.900,208605.000,214957.000,257019.400,176547.300,367535.000,174373.200,199156.200,0.000
191002.700,209452.500,215908.900,258472.300,177823.900,368345.800,175156.700,201060.600,0.000
191613.000,210414.700,216650.500,259585.000,179076.400,369131.600,175551.000,202799.900,0.000
191171.300,210507.000,216407.300,259218.700,179002.000,369100.300,175271.700,202540.400,0.000
190006.600,209519.400,215266.200,257637.300,177627.000,368220.800,174589.600,200492.800,0.000
189664.800,208627.800,214536.600,256732.100,176639.000,367568.000,174383.600,199160.100,0.000
190986.100,209456.700,215475.100,258171.800,177900.900,368365.600,175141.000,201044.600,0.000
191602.700,210415.800,216222.000,259287.900,179158.500,369155.400,175528.300,202786.000,0.000
191157.200,210512.900,215984.400,258924.200,179082.900,369124.600,175243.800,202530.400,0.000
189993.500,209526.800,214853.700,257343.800,177705.100,368249.200,174560.300,200485.100,0.000
189670.200,208647.400,214149.500,256456.700,176727.000,367613.100,174374.500,199164.900,0.000
190996.100,209483.600,215099.600,257901.900,177991.300,368418.800,175147.700,201053.600,0.000
191633.700,210469.200,215874.000,259047.800,179276.500,369236.700,175560.800,202822.700,0.000
191212.800,210577.400,215659.500,258708.200,179229.300,369229.400,175298.700,202594.300,0.000
190051.200,209599.900,214527.800,257128.900,177858.100,368361.100,174613.900,200544.500,0.000
189700.900,208696.300,213793.000,256215.200,176857.600,367702.800,174398.800,199191.900,0.000
191016.300,209514.000,214723.700,257646.900,178106.000,368490.600,175153.500,201062.100,0.000
191643.500,210485.100,215484.300,258780.400,179376.400,369291.200,175552.500,202820.000,0.000
191207.000,210591.100,215260.400,258432.900,179321.000,369273.100,175278.600,202585.800,0.000
190018.400,209581.000,214112.800,256835.600,177926.300,368380.600,174578.400,200523.300,0.000
189672.300,208678.300,213385.300,255925.500,176925.100,367726.500,174369.600,199172.400,0.000
191002.600,209515.100,214337.500,257372.900,178184.500,368529.500,175145.000,201053.700,0.000
191634.600,210493.100,215109.900,258518.200,179459.400,369333.200,175552.900,202824.600,0.000
191200.300,210604.300,214891.600,258177.100,179408.000,369318.400,175275.500,202597.700,0.000
190019.000,209619.000,213756.700,256593.700,178030.500,368439.400,174576.000,200543.300,0.000
189664.300,208703.900,213021.200,255670.500,177016.100,367770.300,174355.500,199176.800,0.000
190993.300,209528.700,213970.000,257112.800,178271.500,368567.700,175129.800,201053.700,0.000
191643.000,210524.900,214761.500,258279.700,179569.500,369393.700,175553.700,202843.300,0.000
191233.800,210657.900,214566.600,257965.900,179542.500,369401.200,175299.500,202640.800,0.000
190049.600,209664.600,213426.200,256376.700,178156.500,368513.900,174600.300,200585.000,0.000
189684.100,208752.200,212688.300,255450.000,177141.000,367847.000,174383.500,199220.000,0.000
191005.400,209568.900,213630.200,256886.000,178387.000,368637.300,175147.300,201087.800,0.000
191653.200,210560.700,214420.300,258046.300,179676.600,369455.000,175566.700,202869.000,0.000
191230.200,210688.200,214219.800,257721.300,179641.300,369453.300,175301.900,202660.000,0.000
190035.700,209683.500,213071.000,256125.200,178246.500,368555.500,174590.200,200592.200,0.000
189672.800,208761.100,212330.300,255198.700,177222.000,367880.800,174368.600,199215.200,0.000
190983.700,209572.700,213262.900,256625.600,178455.200,368662.700,175119.300,201070.500,0.000
191608.800,210539.300,214030.800,257763.800,179719.200,369459.700,175508.600,202831.900,0.000
191188.100,210667.800,213837.500,257446.000,179684.600,369462.700,175244.500,202626.600,0.000
190049.400,209713.700,212750.300,255903.400,178340.500,368619.000,174584.000,200612.500,0.000
189723.000,208834.100,212056.400,255014.000,177357.000,367987.600,174405.900,199274.700,0.000
191070.800,209686.700,213034.800,256485.000,178634.200,368811.600,175203.200,201170.900,0.000
191704.800,210668.800,213817.900,257637.800,179912.100,369617.800,175606.300,202942.700,0.000
191256.700,210773.300,213599.600,257289.500,179850.300,369590.000,175310.000,202709.000,0.000
190064.100,209775.300,212465.200,255698.500,178453.500,368697.200,174593.300,200643.700,0.000
189710.800,208868.000,211747.900,254779.000,177435.000,368037.700,174383.800,199273.900,0.000
191031.500,209678.600,212702.300,256217.700,178677.400,368829.200,175157.900,201137.400,0.000
191661.800,210658.300,213487.100,257369.300,179957.400,369637.900,175565.900,202911.000,0.000
191228.900,210761.300,213275.300,257034.700,179903.500,369614.600,175285.900,202685.100,0.000
190054.000,209775.900,212152.800,255464.800,178529.000,368736.500,174593.900,200637.800,0.000
189686.100,208857.800,211419.600,254536.200,177500.200,368064.300,174372.900,199251.100,0.000
191009.600,209675.800,212369.800,255973.900,178740.800,368856.200,175143.500,201108.000,0.000
191665.100,210680.300,213173.900,257151.400,180040.500,369683.600,175567.000,202901.200,0.000
191255.000,210824.900,212995.100,256852.300,180023.700,369700.300,175311.300,202716.100,0.000
190059.200,209821.200,211856.500,255261.400,178625.300,368804.700,174596.200,200648.500,0.000
189691.600,208896.800,211119.700,254331.300,177593.000,368130.000,174371.400,199258.300,0.000
191008.200,209698.400,212059.100,255755.500,178817.000,368906.400,175125.300,201101.000,0.000
191667.600,210684.300,212863.500,256934.400,180106.400,369723.600,175542.700,202888.800,0.000
191249.400,210823.500,212678.000,256628.600,180082.500,369733.000,175276.000,202693.800,0.000
190065.800,209835.800,211546.500,255042.800,178695.400,368849.200,174569.500,200636.200,0.000
189723.500,208941.500,210836.300,254139.600,177690.400,368203.400,174371.600,199270.600,0.000
191036.300,209746.000,211784.800,255570.100,178923.600,368987.300,175137.500,201119.800,0.000
191688.900,210716.800,212576.800,256729.900,180191.800,369782.700,175551.800,202887.300,0.000
191258.200,210852.300,212385.300,256423.600,180164.600,369787.800,175288.700,202688.700,0.000
190052.900,209846.200,211238.600,254827.000,178759.300,368887.100,174567.000,200612.600,0.000
189669.400,208897.000,210485.300,253873.900,177696.500,368185.700,174330.200,199192.600,0.000
191042.100,209774.600,211495.500,255375.300,178992.300,369035.600,175148.600,201109.500,0.000
191697.800,210766.800,212308.400,256555.000,180279.900,369856.600,175559.700,202901.300,0.000
191251.900,210869.500,212102.200,256221.000,180217.000,369826.700,175268.800,202672.300,0.000
190055.500,209874.800,210969.500,254629.100,178823.000,368933.900,174558.000,200608.500,0.000
189694.700,208959.000,210245.100,253704.300,177797.700,368271.700,174341.100,199225.100,0.000
191008.800,209770.800,211194.800,255138.800,179028.400,369054.200,175106.400,201075.800,0.000
191674.800,210789.100,212023.900,256339.500,180346.000,369900.100,175548.000,202895.800,0.000
191248.200,210914.900,211832.000,256022.800,180301.500,369890.900,175265.500,202687.500,0.000
190056.700,209911.800,210700.200,254436.000,178897.100,368994.300,174547.100,200621.000,0.000
189681.600,208994.500,209975.100,253504.100,177864.700,368329.700,174332.300,199237.300,0.000
191007.600,209797.900,210939.000,254946.200,179096.300,369117.400,175101.900,201093.400,0.000
191653.900,210775.900,211740.100,256113.400,180368.700,369921.000,175512.300,202868.600,0.000
191244.000,210915.700,211570.100,255812.100,180338.500,369929.500,175262.500,202673.200,0.000
190104.400,209976.800,210496.100,254281.200,178998.500,369092.500,174592.000,200673.000,0.000
189725.300,209050.800,209767.500,253351.500,177962.800,368421.800,174364.300,199280.300,0.000
191039.000,209839.400,210717.400,254784.600,179177.700,369194.800,175125.800,201116.700,0.000
191696.300,210835.800,211535.000,255968.900,180472.100,370019.500,175553.800,202914.000,0.000
191264.700,210959.900,211349.400,255651.500,180432.000,370015.300,175281.600,202708.100,0.000
190099.200,209991.000,210249.900,254095.600,179060.800,369149.200,174590.300,200668.900,0.000
189713.300,209062.800,209513.200,253154.000,178010.700,368467.400,174354.700,199260.600,0.000
191022.400,209865.100,210463.200,254584.500,179225.600,369242.600,175113.100,201098.900,0.000
191672.600,210843.900,211272.500,255759.000,180501.900,370049.300,175527.800,202884.600,0.000
191241.200,210958.000,211085.500,255445.300,180454.500,370036.300,175252.800,202674.600,0.000
190063.000,209979.700,209977.000,253881.100,179079.100,369164.500,174555.200,200631.800,0.000
189684.500,209058.600,209250.200,252946.200,178042.300,368495.000,174333.300,199239.100,0.000
190997.600,209847.800,210199.000,254375.200,179252.700,369262.900,175094.100,201077.300,0.000
191673.500,210853.500,211030.700,255575.600,180554.100,370094.300,175529.400,202891.600,0.000
191257.400,210991.300,210859.300,255278.300,180525.000,370099.300,175263.900,202703.000,0.000
190066.800,209997.400,209742.300,253700.600,179132.600,369210.800,174557.800,200647.900,0.000
189688.500,209066.400,209013.200,252762.500,178084.500,368528.300,174335.400,199248.100,0.000
191003.200,209865.700,209965.700,254197.700,179298.000,369299.900,175097.100,201094.400,0.000
191657.600,210850.500,210779.700,255380.000,180581.000,370112.000,175517.400,202893.900,0.000
191255.700,210998.300,210626.000,255098.100,180566.200,370131.100,175274.400,202723.400,0.000
190080.500,210028.400,209527.600,253537.400,179190.100,369259.800,174579.400,200686.800,0.000
189680.600,209079.200,208783.300,252580.100,178121.800,368560.800,174335.000,199267.500,0.000
190990.700,209860.900,209729.200,254000.900,179319.900,369318.300,175087.300,201097.500,0.000
191664.700,210863.200,210564.900,255206.200,180621.900,370146.700,175521.200,202916.700,0.000
191251.700,211002.800,210404.800,254919.700,180600.400,370156.900,175267.600,202742.000,0.000
190064.800,210015.100,209298.800,253354.400,179216.300,369277.000,174562.100,200700.200,0.000
189675.700,209076.200,208563.800,252405.900,178154.000,368585.500,174317.600,199286.500,0.000
190988.400,209859.600,209516.700,253830.700,179352.600,369344.300,175069.400,201122.300,0.000
191658.700,210852.300,210349.400,255026.100,180643.600,370161.400,175498.000,202937.000,0.000
191250.100,210998.500,210195.600,254742.200,180627.000,370174.000,175247.300,202771.100,0.000
190072.500,210023.600,209098.900,253181.400,179250.500,369300.300,174552.900,200740.200,0.000
189686.800,209076.200,208368.100,252237.900,178188.300,368609.200,174324.000,199330.300,0.000
191018.800,209874.500,209339.700,253685.000,179408.900,369391.000,175100.000,201188.900,0.000
191688.400,210869.200,210173.100,254881.400,180705.800,370214.300,175525.000,203011.600,0.000
191274.600,211004.900,210008.900,254589.000,180678.500,370217.800,175258.500,202833.900,0.000
190085.100,210009.200,208893.400,253014.700,179282.400,369326.300,174547.700,200780.900,0.000
189705.900,209090.200,208176.500,252087.700,178241.800,368659.000,174333.600,199387.100,0.000
191028.400,209896.800,209145.900,253535.400,179466.400,369445.100,175115.900,201246.700,0.000
191700.300,210903.800,209987.900,254748.800,180782.100,370283.800,175556.200,203083.300,0.000
191290.400,211047.800,209832.200,254467.700,180770.500,370297.900,175294.800,202919.700,0.000
190097.200,210052.200,208718.200,252888.900,179377.200,369405.300,174575.500,200867.900,0.000
189693.400,209096.600,207975.200,251929.100,178305.900,368704.800,174330.900,199438.800,0.000
191011.800,209876.400,208932.400,253363.100,179513.800,369474.300,175098.100,201279.300,0.000
191707.300,210901.600,209793.400,254593.900,180846.300,370332.400,175552.600,203133.400,0.000
191296.400,211057.500,209647.600,254319.200,180844.800,370356.900,175299.800,202976.500,0.000
190104.800,210067.600,208544.300,252750.000,179459.800,369471.600,174590.200,200927.300,0.000
189709.800,209111.100,207807.200,251794.000,178390.300,368773.900,174349.900,199491.200,0.000
191011.400,209872.000,208747.800,253206.800,179576.600,369521.000,175094.500,201301.600,0.000
191700.500,210890.400,209608.200,254436.100,180904.800,370371.000,175547.100,203146.000,0.000
191310.600,211057.000,209479.100,254181.000,180918.900,370410.200,175310.300,203002.900,0.000
190119.900,210078.300,208374.600,252615.900,179542.300,369534.900,174593.200,200960.800,0.000
189706.500,209122.400,207627.500,251651.000,178464.700,368831.400,174342.500,199520.000,0.000
191018.600,209897.500,208582.400,253077.400,179662.900,369593.800,175110.100,201346.600,0.000
191712.800,210921.400,209444.300,254310.300,180993.100,370446.000,175571.200,203197.700,0.000
191313.500,211079.500,209302.800,254042.200,180989.500,370469.700,175323.800,203046.700,0.000
190123.000,210089.600,208194.000,252469.700,179598.000,369581.600,174598.300,200997.100,0.000
189715.200,209131.200,207447.500,251506.200,178518.800,368875.900,174341.600,199553.300,0.000
191022.700,209912.500,208403.400,252935.200,179721.400,369642.800,175104.400,201382.000,0.000
191706.200,210926.500,209260.300,254160.500,181043.100,370489.300,175550.700,203223.600,0.000
191322.700,211089.800,209134.200,253903.600,181046.800,370524.300,175305.400,203077.500,0.000
190137.700,210095.900,208030.000,252334.100,179650.200,369630.400,174585.100,201023.600,0.000
189721.200,209133.800,207281.700,251364.900,178563.000,368917.600,174331.900,199566.500,0.000
191032.300,209929.500,208245.500,252794.500,179773.900,369695.700,175110.000,201392.700,0.000
191710.600,210936.600,209095.800,254012.900,181080.600,370532.100,175548.100,203225.200,0.000
191307.900,211087.300,208954.500,253744.200,181066.000,370544.700,175283.500,203066.100,0.000
190128.700,210115.300,207863.800,252186.500,179681.100,369664.900,174577.100,201031.400,0.000
189713.000,209157.600,207118.000,251217.400,178595.100,368952.600,174327.400,199582.400,0.000
191014.000,209932.800,208072.400,252645.000,179788.800,369714.400,175096.700,201403.400,0.000
191679.200,210906.000,208899.800,253841.700,181065.900,370520.100,175523.200,203208.200,0.000
191300.400,211063.800,208769.900,253584.000,181060.700,370544.200,175282.900,203057.900,0.000
190153.100,210125.000,207708.700,252064.800,179719.000,369692.000,174593.800,201066.300,0.000
189736.300,209176.700,206972.100,251107.700,178646.800,368991.200,174349.200,199632.000,0.000
191014.300,209922.100,207901.300,252503.600,179811.600,369724.000,175089.500,201421.800,0.000
191697.200,210919.000,208752.300,253721.500,181114.200,370550.600,175524.000,203253.500,0.000
191323.500,211092.400,208635.600,253476.900,181129.000,370588.500,175277.200,203124.300,0.000
190153.300,210127.800,207551.700,251927.900,179754.100,369713.300,174562.800,201095.800,0.000
189714.400,209153.900,206792.900,250943.000,178649.000,368988.900,174300.500,199626.500,0.000
191013.200,209917.100,207746.600,252359.200,179831.100,369744.200,175065.000,201432.200,0.000
191705.500,210923.300,208605.200,253585.600,181138.000,370581.200,175512.400,203269.800,0.000
191299.700,211070.800,208458.300,253313.500,181098.000,370587.400,175252.300,203111.500,0.000
190144.300,210113.500,207388.300,251781.000,179724.500,369724.600,174561.600,201098.100,0.000
189748.700,209182.800,206671.200,250838.300,178662.800,369038.100,174328.200,199664.400,0.000
191019.300,209920.900,207601.300,252225.000,179814.300,369763.300,175060.900,201439.400,0.000
191682.800,210890.400,208433.100,253422.200,181086.600,370565.700,175481.300,203244.800,0.000
191305.100,211061.400,208310.600,253176.300,181095.900,370592.400,175238.000,203108.800,0.000
190148.400,210116.800,207246.900,251648.000,179746.700,369741.200,174556.000,201104.600,0.000
189738.700,209169.100,206515.300,250692.200,178674.800,369046.100,174329.700,199664.800,0.000
191050.200,209952.000,207480.300,252124.500,179874.000,369817.000,175104.400,201486.300,0.000
191714.900,210928.300,208308.600,253317.700,181149.500,370619.500,175503.700,203290.100,0.000
191308.400,211064.600,208161.000,253045.300,181126.400,370618.600,175227.300,203127.500,0.000
190144.200,210111.000,207090.200,251514.200,179771.000,369757.900,174532.800,201120.500,0.000
189734.200,209164.900,206358.300,250559.500,178694.600,369065.000,174294.100,199679.700,0.000
191037.300,209940.600,207313.100,251977.900,179883.800,369825.500,175063.200,201489.000,0.000
191711.300,210927.000,208158.000,253187.800,181179.000,370642.600,175500.200,203311.500,0.000
191330.000,211091.100,208035.700,252940.700,181186.600,370666.900,175257.400,203174.800,0.000
190156.000,210119.300,206952.000,251394.500,179817.500,369791.300,174555.000,201151.700,0.000
189736.000,209164.400,206204.200,250423.900,178727.000,369080.400,174305.400,199691.200,0.000
191030.600,209929.900,207149.600,251837.200,179908.400,369832.700,175063.600,201488.700,0.000
191727.800,210943.400,208012.800,253074.100,181233.000,370677.100,175516.000,203337.300,0.000
191315.700,211075.900,207858.200,252795.200,181214.400,370675.700,175236.000,203172.800,0.000
190137.100,210106.200,206767.700,251245.400,179839.800,369796.400,174519.200,201139.600,0.000
189728.800,209164.700,206034.900,250289.900,178767.100,369104.900,174283.800,199692.200,0.000
191043.600,209942.900,206999.700,251722.000,179967.400,369876.200,175060.600,201505.500,0.000
191733.100,210951.200,207859.000,252951.200,181282.600,370710.000,175507.300,203342.200,0.000
191335.200,211105.900,207725.000,252691.000,181282.100,370726.500,175254.200,203196.900,0.000
190173.100,210156.400,206654.800,251159.800,179929.400,369867.600,174556.000,201187.200,0.000
189746.700,209189.600,205903.400,250181.800,178831.000,369152.100,174293.200,199715.400,0.000
191021.100,209925.600,206830.300,251574.300,179986.200,369881.000,175034.400,201485.300,0.000
191705.300,210922.800,207682.500,252801.500,181298.100,370712.900,175480.300,203323.300,0.000
191327.100,211100.400,207564.100,252562.400,181316.600,370751.800,175238.700,203202.900,0.000
190159.300,210138.400,206487.500,251023.000,179951.300,369882.900,174534.700,201185.000,0.000
189721.300,209160.100,205726.900,250035.900,178842.700,369155.000,174269.800,199701.300,0.000
191011.200,209921.300,206672.100,251447.100,180019.500,369903.900,175030.200,201491.500,0.000
191696.200,210920.200,207526.900,252675.100,181329.300,370731.900,175471.200,203326.200,0.000
191330.300,211100.900,207423.000,252451.200,181356.600,370778.300,175241.000,203213.900,0.000
190171.700,210165.200,206363.200,250928.800,180013.400,369931.600,174550.300,201216.600,0.000
189729.000,209182.700,205597.300,249933.000,178897.500,369197.300,174279.200,199724.500,0.000
191013.600,209930.200,206531.500,251331.600,180062.200,369934.600,175031.400,201502.200,0.000
191697.000,210925.900,207385.800,252557.600,181371.400,370761.300,175470.200,203337.300,0.000
191316.500,211086.800,207265.300,252311.600,181375.400,370784.400,175223.700,203203.200,0.000
190154.800,210131.900,206197.800,250777.900,180014.500,369919.800,174525.400,201191.400,0.000
189719.100,209161.300,205442.600,249795.800,178912.400,369199.400,174263.000,199712.000,0.000
190992.500,209897.500,206365.900,251183.400,180061.500,369922.600,175000.700,201475.300,0.000
191678.600,210891.000,207218.900,252408.600,181368.000,370747.800,175442.300,203311.700,0.000
191313.300,211072.900,207114.800,252185.400,181395.700,370791.700,175208.400,203201.200,0.000
190151.000,210121.800,206046.800,250657.900,180037.600,369928.200,174501.000,201192.900,0.000
189717.200,209160.800,205295.500,249680.600,178942.100,369216.400,174243.300,199720.300,0.000
191009.100,209909.600,206240.400,251086.400,180111.900,369960.300,175001.700,201502.300,0.000
191695.500,210896.100,207090.700,252304.300,181410.400,370774.100,175439.200,203332.200,0.000
191301.100,211050.400,206961.600,252055.100,181414.200,370791.000,175187.100,203198.500,0.000
190147.000,210102.900,205901.500,250532.600,180066.000,369933.600,174496.100,201196.100,0.000
189729.200,209153.200,205165.700,249564.200,178979.900,369229.200,174251.000,199731.600,0.000
191011.600,209890.000,206099.200,250958.100,180136.400,369959.000,174998.600,201503.000,0.000
191710.900,210896.400,206966.800,252199.600,181459.000,370797.000,175449.000,203357.200,0.000
191328.200,211063.700,206847.600,251958.900,181473.900,370824.100,175201.800,203231.700,0.000
190162.700,210109.900,205779.600,250430.300,180118.300,369955.400,174503.900,201219.900,0.000
189711.500,209125.000,205016.100,249435.700,179004.500,369221.600,174232.600,199723.400,0.000
190982.500,209859.000,205941.700,250819.900,180154.700,369946.700,174973.100,201487.300,0.000
191665.000,210850.300,206793.900,252044.200,181459.600,370772.800,175413.800,203322.000,0.000
191293.300,211017.100,206679.200,251809.300,181469.000,370801.500,175174.000,203193.400,0.000
190165.800,210103.800,205646.200,250320.700,180156.100,369973.600,174499.400,201229.700,0.000
189726.100,209146.100,204899.300,249344.000,179065.900,369266.600,174241.300,199755.700,0.000
190995.300,209878.000,205824.900,250729.600,180214.300,369991.700,174978.900,201511.800,0.000
191685.800,210872.600,206680.800,251957.600,181524.100,370816.700,175420.200,203349.600,0.000
191316.400,211047.200,206571.800,251726.600,181546.000,370849.900,175178.500,203231.200,0.000
190162.800,210110.500,205516.500,250210.700,180206.600,369996.800,174483.400,201232.100,0.000
189720.100,209138.000,204761.100,249226.800,179104.500,369276.900,174221.800,199743.500,0.000
191000.900,209874.800,205693.100,250620.600,180262.300,370008.000,174971.000,201508.000,0.000
191697.800,210872.800,206556.100,251858.800,181579.600,370839.000,175418.000,203352.100,0.000
191319.600,211040.900,206444.300,251627.100,181601.700,370870.800,175174.600,203232.600,0.000
190163.500,210107.700,205394.000,250113.600,180265.100,370021.900,174482.800,201241.300,0.000
189709.600,209126.000,204629.000,249111.900,179147.500,369287.400,174207.700,199739.900,0.000
190982.400,209857.000,205555.900,250497.400,180297.000,370011.200,174947.500,201495.900,0.000
191675.100,210846.300,206416.600,251734.100,181608.500,370835.700,175390.400,203336.900,0.000
191325.000,211045.500,206334.200,251535.300,181657.800,370895.900,175176.400,203250.500,0.000
190175.900,210122.800,205290.800,250026.400,180330.400,370057.400,174493.600,201270.000,0.000
189726.400,209147.900,204527.500,249028.000,179216.600,369329.100,174219.400,199769.900,0.000
190989.900,209868.400,205441.500,250401.200,180354.500,370045.100,174951.100,201515.500,0.000
191691.300,210875.300,206314.500,251647.800,181679.500,370886.300,175400.700,203373.000,0.000
191329.600,211063.200,206221.300,251433.100,181715.000,370933.800,175167.200,203271.400,0.000
190181.400,210131.100,205173.600,249921.900,180378.800,370086.600,174474.800,201279.800,0.000
189724.600,209151.500,204409.000,248924.100,179267.900,369363.000,174202.900,199782.300,0.000
191005.600,209895.400,205344.200,250321.000,180428.900,370103.600,174956.900,201549.500,0.000
191697.000,210899.500,206207.700,251560.600,181744.500,370937.300,175406.000,203398.700,0.000
191323.600,211073.900,206102.400,251335.400,181766.700,370974.400,175170.000,203289.000,0.000
190175.300,210144.600,205057.200,249829.500,180432.000,370131.300,174486.000,201304.700,0.000
189724.900,209164.400,204295.500,248830.900,179310.800,369400.400,174211.200,199802.100,0.000
191006.000,209910.300,205231.600,250222.300,180463.300,370134.500,174961.200,201564.500,0.000
191706.500,210925.500,206109.100,251474.000,181792.900,370980.900,175411.800,203426.200,0.000
191336.200,211106.300,206008.100,251254.300,181821.300,371024.400,175171.600,203324.400,0.000
190169.800,210152.800,204948.900,249732.100,180468.200,370166.400,174469.600,201323.500,0.000
189712.800,209168.700,204181.900,248726.600,179343.300,369431.500,174189.300,199814.000,0.000
190992.200,209912.800,205119.000,250119.000,180494.500,370164.800,174938.400,201574.700,0.000
191697.800,210929.500,206000.800,251372.600,181827.000,371016.700,175398.100,203441.900,0.000
191333.100,211117.000,205905.700,251154.400,181861.500,371065.600,175168.000,203342.000,0.000
190178.800,210178.000,204851.800,249634.000,180513.300,370208.700,174470.600,201341.200,0.000
189724.600,209189.600,204087.600,248626.200,179382.800,369470.000,174194.200,199826.200,0.000
191004.100,209927.300,205024.000,250015.900,180526.600,370197.300,174942.500,201580.700,0.000
191708.700,210940.000,205901.600,251269.800,181853.900,371041.100,175399.200,203443.700,0.000
191341.900,211128.900,205802.400,251055.700,181885.500,371083.200,175165.300,203342.200,0.000
190181.300,210184.300,204748.800,249540.800,180538.700,370226.500,174469.300,201346.600,0.000
189727.300,209201.800,203989.000,248542.300,179415.500,369492.800,174197.500,199839.500,0.000
191000.100,209931.700,204916.300,249924.500,180552.200,370209.400,174938.100,201586.500,0.000
191701.200,210939.400,205787.900,251173.500,181874.000,371043.700,175390.900,203445.500,0.000
191333.000,211128.700,205694.500,250963.400,181913.500,371093.300,175162.300,203352.300,0.000
190174.700,210185.900,204643.200,249450.900,180571.100,370239.800,174471.300,201360.900,0.000
189716.500,209195.300,203875.900,248444.600,179445.400,369505.000,174197.500,199849.000,0.000
190989.800,209925.700,204801.700,249824.900,180584.800,370224.700,174938.700,201594.800,0.000
191692.500,210929.700,205676.600,251078.000,181911.300,371063.200,175395.000,203457.000,0.000
191321.900,211104.100,205571.200,250857.800,181941.300,371101.900,175161.000,203355.300,0.000
190176.500,210177.300,204532.300,249356.400,180615.300,370263.200,174478.000,201378.300,0.000
189727.800,209205.900,203783.900,248365.300,179504.200,369544.800,174212.500,199874.900,0.000
191005.600,209944.800,204719.200,249751.200,180649.800,370273.100,174957.200,201620.500,0.000
191709.400,210955.200,205594.400,251000.800,181976.900,371113.400,175407.600,203478.400,0.000
191337.700,211136.000,205492.000,250781.900,182010.900,371156.900,175168.100,203375.300,0.000
190180.600,210194.800,204436.800,249263.200,180668.300,370302.800,174465.300,201377.000,0.000
189721.600,209205.900,203671.500,248257.500,179543.200,369568.600,174188.700,199858.200,0.000
190993.700,209941.100,204601.700,249642.700,180687.000,370295.300,174934.100,201604.600,0.000
191699.800,210965.100,205484.000,250901.200,182025.200,371147.900,175391.000,203476.800,0.000
191328.500,211151.700,205385.500,250683.400,182060.200,371195.100,175151.900,203376.800,0.000
190179.200,210224.300,204339.900,249176.300,180729.100,370352.700,174461.100,201388.500,0.000
189729.500,209252.000,203584.800,248179.600,179616.000,369630.800,174197.200,199879.400,0.000
190993.500,209968.900,204504.400,249553.600,180747.800,370344.700,174930.200,201611.000,0.000
191701.800,210976.100,205381.300,250806.800,182070.800,371182.000,175379.200,203471.300,0.000
191339.200,211165.700,205292.800,250599.500,182110.600,371232.200,175152.300,203380.100,0.000
190185.400,210233.800,204249.500,249093.400,180777.700,370386.800,174466.900,201396.200,0.000
189716.900,209242.200,203478.200,248079.500,179641.100,369643.400,174184.400,199869.700,0.000
190992.000,209971.900,204409.600,249461.800,180779.500,370365.700,174929.000,201610.000,0.000
191684.900,210967.500,205277.800,250703.800,182092.300,371190.900,175373.900,203454.900,0.000
191313.300,211134.900,205172.000,250480.300,182110.300,371218.600,175131.600,203341.300,0.000
190183.500,210233.500,204146.200,248997.500,180802.300,370389.100,174453.000,201387.000,0.000
189718.300,209254.000,203381.400,247989.400,179679.500,369658.700,174176.500,199870.800,0.000
190992.500,209979.400,204308.400,249365.300,180814.200,370376.500,174920.600,201605.000,0.000
191706.500,210988.800,205191.600,250622.700,182143.200,371216.700,175375.100,203470.500,0.000
191343.900,211176.700,205103.400,250417.400,182183.700,371266.700,175142.500,203381.000,0.000
190194.700,210239.800,204061.100,248914.000,180851.400,370421.100,174454.600,201397.600,0.000
189735.100,209259.000,203294.900,247903.500,179724.000,369685.300,174177.300,199872.500,0.000
191002.500,209980.400,204219.000,249278.600,180854.800,370400.300,174919.800,201605.000,0.000
191702.600,210987.300,205093.700,250532.900,182178.300,371237.000,175373.300,203471.400,0.000
191330.500,211170.300,204995.600,250322.900,182214.200,371280.500,175135.200,203378.600,0.000
190169.000,210231.500,203943.900,248810.900,180874.300,370424.600,174433.600,201388.300,0.000
189702.800,209235.900,203175.100,247795.700,179741.700,369685.000,174152.200,199858.000,0.000
190992.300,209976.000,204116.000,249186.100,180891.300,370420.600,174907.100,201606.200,0.000
191725.700,211015.500,205020.800,250467.100,182245.200,371288.100,175382.600,203498.600,0.000
191368.400,211213.100,204942.300,250272.400,182297.300,371346.300,175155.800,203420.300,0.000
190203.200,210270.700,203887.700,248756.700,180953.700,370486.700,174448.500,201423.100,0.000
189734.400,209272.000,203112.700,247738.700,179813.200,369740.900,174163.600,199883.100,0.000
190994.400,209985.200,204030.400,249107.800,180938.500,370452.700,174902.700,201606.700,0.000
191699.500,210985.800,204908.600,250364.000,182266.200,371291.600,175357.300,203473.200,0.000
191333.500,211168.800,204817.100,250157.000,182306.100,371337.900,175121.400,203385.500,0.000
190176.500,210238.900,203770.900,248649.400,180973.300,370492.700,174424.900,201402.300,0.000
189708.600,209247.800,203003.800,247635.100,179842.100,369757.900,174150.400,199869.100,0.000
190985.700,209971.000,203933.100,249015.300,180977.700,370479.500,174899.600,201601.200,0.000
191715.200,210997.300,204831.100,250291.400,182322.900,371334.600,175371.300,203484.800,0.000
191359.200,211194.000,204750.600,250094.600,182372.600,371388.800,175147.400,203405.300,0.000
190211.800,210276.500,203720.000,248600.700,181053.000,370555.500,174465.300,201433.100,0.000
189736.800,209282.300,202944.700,247575.900,179911.200,369813.800,174180.900,199890.900,0.000
191006.800,210003.800,203869.300,248951.400,181040.800,370532.300,174923.600,201616.000,0.000
191713.800,211014.800,204754.300,250213.000,182373.600,371373.600,175380.000,203483.900,0.000
191353.900,211206.800,204672.100,250014.900,182421.900,371424.700,175152.400,203402.900,0.000
190197.800,210273.500,203625.700,248507.600,181082.500,370572.700,174451.700,201416.200,0.000
189722.000,209278.400,202851.400,247484.600,179935.300,369826.300,174169.400,199873.200,0.000
190984.200,209987.000,203768.400,248850.800,181049.700,370531.000,174904.800,201586.200,0.000
191706.500,211002.900,204662.100,250120.600,182387.800,371378.100,175369.600,203463.700,0.000
191352.000,211200.300,204583.100,249925.100,182439.800,371433.800,175147.300,203387.800,0.000
190199.400,210275.000,203545.400,248425.500,181110.200,370589.400,174455.100,201409.700,0.000
189714.400,209267.600,202763.100,247393.000,179956.000,369834.700,174162.300,199854.700,0.000
190983.800,209982.000,203686.200,248764.000,181078.100,370547.300,174900.500,201573.000,0.000
191708.200,211003.100,204585.800,250042.600,182421.300,371401.900,175363.600,203458.900,0.000
191348.500,211189.300,204500.000,249841.000,182463.200,371447.800,175129.200,203377.500,0.000
190185.100,210252.200,203449.100,248330.600,181120.300,370588.800,174420.100,201389.000,0.000
189693.900,209245.000,202660.700,247294.300,179961.000,369828.800,174120.300,199828.500,0.000
190970.500,209962.500,203591.900,248677.400,181090.800,370548.800,174873.300,201552.300,0.000
191702.700,210983.800,204496.000,249963.400,182436.100,371405.600,175348.600,203441.400,0.000
191358.600,211190.700,204426.900,249781.700,182497.600,371468.500,175131.800,203377.800,0.000
190211.400,210271.900,203392.700,248287.900,181171.900,370628.300,174443.600,201405.200,0.000
189721.600,209258.700,202603.300,247249.800,180011.000,369868.600,174150.400,199841.700,0.000
190990.000,209974.800,203524.800,248618.600,181130.600,370578.300,174889.600,201556.600,0.000
191714.300,210999.000,204421.300,249896.800,182472.100,371428.400,175353.800,203441.900,0.000
191359.400,211195.500,204342.900,249706.000,182521.800,371480.700,175126.500,203370.900,0.000
190208.600,210266.200,203304.100,248206.800,181188.000,370632.600,174436.100,201393.700,0.000
189712.200,209247.500,202510.800,247161.400,180019.600,369867.600,174138.400,199823.800,0.000
190969.800,209951.500,203424.700,248523.800,181129.000,370569.700,174872.700,201527.700,0.000
191693.500,210975.000,204323.100,249804.700,182469.200,371420.400,175341.200,203412.500,0.000
191340.900,211172.000,204247.400,249620.200,182520.000,371477.000,175116.700,203344.600,0.000
190199.500,210256.500,203219.100,248130.800,181199.900,370644.100,174426.200,201378.900,0.000
189720.000,209262.000,202443.900,247102.900,180053.000,369901.400,174143.600,199831.000,0.000
190981.300,209967.000,203355.200,248461.000,181156.400,370598.500,174880.100,201531.000,0.000
191710.500,210990.700,204253.400,249744.600,182500.300,371449.400,175352.000,203419.800,0.000
191356.100,211191.900,204180.300,249563.000,182562.700,371513.000,175129.000,203361.500,0.000
190199.600,210262.500,203139.500,248060.900,181230.700,370663.000,174428.900,201383.900,0.000
189705.600,209258.800,202350.700,247018.600,180068.300,369901.500,174131.900,199817.000,0.000
190967.400,209969.400,203267.800,248381.600,181182.000,370607.700,174869.600,201523.400,0.000
191709.700,211000.800,204179.900,249676.300,182540.900,371475.800,175352.200,203428.800,0.000
191369.500,211208.200,204114.300,249500.300,182606.800,371543.200,175135.100,203375.200,0.000
190220.800,210290.500,203078.300,248005.200,181278.600,370701.800,174441.300,201404.700,0.000
189716.300,209274.100,202282.200,246959.200,180110.600,369939.400,174140.900,199833.600,0.000
190966.300,209969.100,203185.200,248309.100,181210.400,370633.400,174864.000,201526.100,0.000
191676.900,210971.300,204066.600,249572.300,182530.300,371465.600,175309.900,203394.500,0.000
191325.200,211162.800,203987.000,249379.200,182573.100,371511.400,175080.200,203317.500,0.000
190204.300,210272.300,202980.700,247914.900,181279.700,370696.900,174409.200,201383.700,0.000
189718.300,209275.500,202206.500,246886.200,180130.200,369952.400,174126.700,199829.000,0.000
190974.200,209966.100,203115.600,248240.500,181230.100,370647.200,174862.200,201521.300,0.000
191700.500,210986.500,204012.400,249520.300,182566.900,371492.300,175329.100,203406.300,0.000
191348.900,211188.900,203939.000,249337.100,182623.800,371550.400,175108.000,203345.800,0.000
190203.900,210275.800,202910.800,247849.700,181305.000,370716.300,174421.800,201383.000,0.000
189710.700,209273.800,202127.500,246814.000,180148.200,369965.800,174130.200,199819.800,0.000
190976.000,209982.400,203046.500,248179.700,181261.400,370672.900,174872.500,201524.000,0.000
191711.500,211008.000,203952.600,249470.900,182611.300,371530.100,175350.100,203423.100,0.000
191357.000,211205.300,203878.600,249288.400,182667.200,371587.700,175122.300,203364.800,0.000
190209.200,210292.700,202850.200,247798.000,181345.200,370750.700,174428.000,201401.900,0.000
189706.800,209275.500,202052.800,246745.100,180171.100,369985.400,174119.500,199820.900,0.000
190972.500,209979.400,202967.500,248104.500,181279.400,370690.700,174856.700,201520.900,0.000
191710.700,211007.000,203877.100,249394.500,182633.300,371551.100,175333.400,203422.900,0.000
191360.500,211204.100,203804.200,249210.500,182688.100,371607.500,175108.000,203360.300,0.000
190211.000,210282.400,202775.000,247721.400,181365.100,370769.300,174415.900,201396.200,0.000
189716.400,209275.600,201992.600,246681.500,180204.700,370017.300,174122.400,199829.100,0.000
190983.900,209988.500,202916.000,248046.600,181319.100,370726.000,174867.500,201531.900,0.000
191721.700,211012.600,203827.400,249341.600,182674.500,371583.800,175346.400,203435.900,0.000
191372.300,211210.500,203755.700,249159.400,182732.300,371640.500,175121.300,203380.100,0.000
190227.300,210294.000,202727.000,247668.900,181408.000,370801.200,174428.900,201416.000,0.000
189723.000,209272.300,201928.600,246613.900,180231.300,370033.500,174124.500,199831.200,0.000
190982.300,209962.600,202836.200,247964.700,181327.500,370729.000,174855.600,201516.900,0.000
191725.300,210994.300,203749.500,249264.000,182680.900,371589.000,175332.100,203420.600,0.000
191377.700,211200.800,203682.600,249089.700,182743.300,371648.300,175109.800,203366.500,0.000
190230.200,210283.100,202653.700,247600.600,181419.800,370807.200,174414.200,201400.500,0.000
189723.400,209264.000,201859.100,246547.400,180240.700,370038.400,174110.600,199814.400,0.000
190975.600,209958.100,202768.400,247899.300,181335.300,370731.900,174845.100,201500.500,0.000
191710.800,210977.100,203674.300,249192.000,182682.000,371584.600,175317.200,203399.500,0.000
191373.600,211189.400,203616.200,249025.300,182752.000,371653.500,175102.000,203358.700,0.000
190233.000,210280.400,202594.000,247541.900,181437.600,370821.500,174417.600,201404.300,0.000
189732.700,209267.200,201801.200,246494.400,180269.000,370060.700,174126.000,199828.600,0.000
190981.800,209954.800,202702.400,247840.400,181361.300,370749.300,174857.000,201509.800,0.000
191707.300,210969.100,203596.500,249124.100,182700.600,371592.400,175318.600,203400.900,0.000
191365.000,211181.700,203534.500,248956.500,182769.200,371659.300,175099.200,203360.300,0.000
190242.700,210294.500,202532.100,247496.300,181474.300,370848.000,174431.300,201426.600,0.000
189752.300,209294.100,201751.300,246457.300,180316.400,370102.100,174145.800,199859.700,0.000
190997.800,209977.300,202647.000,247796.500,181401.500,370786.500,174869.600,201535.800,0.000
191728.400,210995.800,203548.000,249083.900,182745.700,371634.300,175338.100,203435.300,0.000
191389.100,211206.800,203487.000,248915.200,182815.000,371700.900,175117.400,203395.300,0.000
190245.800,210300.600,202461.400,247431.000,181500.400,370869.600,174425.300,201441.300,0.000
189733.200,209279.700,201657.200,246368.900,180317.000,370098.600,174116.200,199849.900,0.000
190989.900,209982.000,202569.400,247726.500,181416.000,370800.100,174850.900,201538.400,0.000
191737.400,211017.100,203489.600,249034.000,182777.000,371667.300,175333.100,203452.600,0.000
191387.800,211221.000,203423.300,248858.600,182837.100,371726.200,175106.900,203404.600,0.000
190240.200,210301.200,202396.000,247368.800,181512.500,370886.100,174410.000,201441.900,0.000
189737.900,209283.300,201602.100,246313.500,180334.300,370120.200,174108.800,199854.800,0.000
190994.200,209977.200,202511.700,247667.200,181428.800,370817.400,174845.900,201540.600,0.000
191734.300,211015.100,203424.500,248966.700,182782.400,371679.600,175321.800,203450.000,0.000
191387.600,211229.600,203363.300,248798.100,182850.000,371745.900,175106.000,203409.600,0.000
190243.800,210315.500,202341.000,247315.700,181531.800,370912.400,174421.000,201456.700,0.000
189726.800,209284.100,201531.400,246245.400,180338.400,370133.600,174108.500,199857.200,0.000
190982.600,209967.400,202434.500,247591.500,181424.300,370822.900,174839.300,201537.400,0.000
191732.400,211003.400,203352.200,248896.000,182779.100,371686.200,175320.000,203451.900,0.000
191388.500,211213.300,203292.500,248728.100,182847.300,371754.500,175102.400,203412.000,0.000
190246.000,210303.800,202271.500,247245.900,181530.300,370919.200,174410.100,201458.000,0.000
189734.000,209283.400,201473.800,246186.700,180347.100,370149.700,174102.100,199864.400,0.000
190992.900,209977.000,202386.400,247538.700,181437.900,370843.300,174841.700,201545.300,0.000
191731.300,211001.900,203298.000,248838.900,182790.400,371701.000,175319.800,203457.100,0.000
191374.100,211199.200,203222.900,248657.800,182845.700,371752.900,175085.600,203404.900,0.000
190225.100,210286.200,202199.000,247177.100,181531.000,370918.300,174395.600,201452.700,0.000
189713.800,209270.400,201400.000,246117.600,180351.400,370151.000,174090.400,199860.700,0.000
190970.800,209963.900,202307.800,247466.600,181440.400,370845.100,174825.100,201539.100,0.000
191737.800,211018.900,203244.500,248793.800,182817.700,371729.300,175328.300,203475.500,0.000
191414.500,211243.500,203204.700,248646.500,182910.100,371818.000,175132.000,203457.000,0.000
190260.900,210317.000,202171.900,247150.600,181583.800,370973.300,174432.000,201490.100,0.000
189745.200,209288.900,201364.000,246079.800,180390.900,370195.300,174118.600,199882.400,0.000
190995.300,209974.500,202266.800,247420.500,181475.500,370883.900,174847.300,201551.600,0.000
191740.700,211009.900,203185.000,248726.000,182835.200,371748.400,175325.600,203467.900,0.000
191401.900,211220.200,203127.200,248564.800,182909.200,371817.800,175106.400,203432.100,0.000
190258.800,210303.000,202103.600,247085.800,181597.100,370983.500,174416.200,201480.200,0.000
189742.900,209283.900,201299.100,246017.300,180410.400,370209.200,174106.300,199877.600,0.000
190990.800,209966.800,202199.500,247355.900,181488.000,370893.100,174833.200,201542.700,0.000
191733.900,210986.000,203114.900,248658.200,182839.300,371750.600,175314.000,203449.900,0.000
191398.700,211192.100,203057.800,248489.100,182903.500,371812.400,175097.700,203403.000,0.000
190277.300,210310.200,202055.800,247031.800,181613.000,370996.200,174419.000,201476.700,0.000
189756.700,209292.200,201254.200,245970.500,180432.700,370226.500,174110.100,199879.500,0.000
190999.300,209975.400,202153.300,247307.800,181512.500,370911.900,174839.600,201544.200,0.000
191742.900,211004.600,203072.000,248612.000,182870.700,371773.300,175318.100,203459.600,0.000
191407.500,211224.300,203023.000,248457.200,182952.600,371848.800,175105.000,203434.400,0.000
190264.900,210316.800,202005.200,246980.300,181642.200,371019.600,174415.700,201489.200,0.000
189747.400,209291.100,201203.500,245913.800,180453.900,370246.200,174107.800,199885.800,0.000
190990.200,209974.700,202100.700,247249.500,181529.300,370926.300,174829.000,201545.500,0.000
191731.600,211000.400,203013.200,248551.900,182883.000,371782.700,175301.000,203457.700,0.000
191398.300,211222.600,202964.400,248399.200,182965.200,371859.100,175092.800,203435.400,0.000
190260.700,210319.600,201951.400,246930.100,181660.600,371033.600,174407.500,201491.500,0.000
189739.200,209282.200,201142.000,245858.500,180465.100,370254.500,174089.300,199878.000,0.000
190991.800,209962.900,202042.700,247197.000,181541.700,370938.500,174818.900,201540.900,0.000
191752.100,211003.300,202971.800,248514.100,182909.100,371809.600,175311.500,203468.000,0.000
191411.800,211211.800,202912.900,248347.200,182978.600,371872.600,175089.800,203431.400,0.000
190264.800,210299.400,201888.800,246862.300,181659.200,371031.700,174390.900,201475.100,0.000
189746.700,209277.300,201085.000,245794.600,180472.600,370259.700,174081.800,199870.600,0.000
190988.300,209955.800,201980.100,247126.500,181549.100,370943.000,174806.600,201530.800,0.000
191732.100,210980.300,202896.200,248430.400,182902.600,371800.700,175284.700,203443.600,0.000
191403.400,211206.800,202854.500,248285.100,182991.600,371882.800,175082.900,203427.100,0.000
190278.400,210324.300,201856.000,246830.000,181701.500,371070.600,174414.200,201499.300,0.000
189754.500,209291.500,201040.800,245753.100,180503.400,370287.600,174095.200,199882.100,0.000
191009.700,209981.600,201946.000,247099.700,181590.700,370983.100,174828.100,201551.300,0.000
191760.800,211018.900,202868.600,248412.500,182955.600,371853.500,175310.500,203478.500,0.000
191418.400,211232.900,202811.300,248251.700,183030.800,371921.300,175087.400,203449.800,0.000
190281.100,210332.900,201796.800,246778.800,181723.600,371095.600,174397.400,201507.300,0.000
189748.600,209293.100,200981.900,245697.800,180521.700,370311.900,174077.300,199885.300,0.000
190993.300,209969.800,201877.500,247028.300,181589.700,370989.100,174802.700,201534.400,0.000
191747.000,211007.100,202802.600,248342.300,182954.800,371854.700,175289.500,203457.800,0.000
191412.300,211227.700,202754.900,248190.200,183039.400,371929.300,175079.500,203436.500,0.000
190271.800,210325.700,201741.500,246718.200,181733.300,371100.800,174395.700,201492.800,0.000
189746.900,209293.600,200934.400,245644.600,180537.400,370324.400,174086.900,199877.300,0.000
190994.400,209967.900,201831.400,246978.700,181609.100,371006.200,174814.400,201531.200,0.000
191746.500,211001.300,202751.100,248287.500,182969.700,371870.900,175292.800,203453.900,0.000
191418.200,211228.600,202707.400,248139.300,183055.800,371953.000,175083.200,203438.300,0.000
190279.700,210329.600,201693.400,246666.700,181748.100,371125.600,174393.300,201495.600,0.000
189748.600,209294.100,200880.400,245587.800,180546.000,370341.800,174074.700,199874.800,0.000
190989.500,209966.100,201772.300,246917.400,181613.200,371018.200,174801.300,201526.100,0.000
191741.900,210998.100,202695.500,248228.900,182974.800,371881.900,175289.500,203452.700,0.000
191411.300,211212.300,202646.500,248075.000,183052.500,371952.700,175076.800,203431.600,0.000
190286.500,210336.500,201648.400,246622.700,181765.600,371143.600,174399.100,201508.700,0.000
189752.600,209308.800,200838.000,245544.100,180568.500,370363.300,174080.600,199890.600,0.000
190992.200,209985.000,201733.100,246874.000,181638.600,371042.200,174805.900,201542.700,0.000
191745.000,211021.600,202656.700,248189.400,183004.400,371909.400,175290.200,203469.400,0.000
191411.300,211243.900,202610.600,248041.200,183092.600,371989.200,175079.300,203453.900,0.000
190272.500,210336.500,201596.500,246571.100,181785.700,371159.300,174394.300,201511.400,0.000
189742.100,209300.300,200785.000,245491.500,180583.900,370377.200,174080.800,199887.200,0.000
190983.200,209969.700,201676.900,246818.600,181650.900,371052.700,174806.600,201533.300,0.000
191736.800,211003.100,202600.300,248132.300,183014.800,371916.800,175289.600,203457.400,0.000
191402.700,211224.100,202552.800,247983.600,183100.000,371993.500,175074.600,203439.000,0.000
190266.100,210327.300,201540.900,246512.100,181796.100,371167.000,174388.900,201499.100,0.000
189738.000,209294.200,200729.300,245430.400,180595.500,370385.900,174073.600,199875.500,0.000
190980.700,209965.200,201621.800,246760.300,181663.100,371061.600,174798.200,201522.100,0.000
191733.600,210998.600,202545.100,248076.300,183025.400,371924.200,175278.200,203449.300,0.000
191403.600,211216.900,202502.000,247931.500,183114.800,372004.000,175066.600,203436.400,0.000
190290.000,210340.800,201512.400,246484.500,181834.800,371200.000,174401.600,201517.800,0.000
189760.600,209315.800,200706.500,245409.100,180639.000,370424.100,174093.600,199897.600,0.000
190990.100,209977.300,201588.900,246726.600,181693.900,371091.600,174805.800,201533.200,0.000
191743.700,211010.600,202512.100,248042.100,183058.800,371957.500,175288.500,203462.000,0.000
191418.300,211234.500,202471.500,247896.600,183151.000,372040.300,175084.200,203453.200,0.000
190285.600,210339.400,201467.300,246433.200,181853.700,371220.000,174399.700,201520.900,0.000
189747.600,209301.100,200651.000,245344.600,180643.000,370429.800,174077.000,199884.600,0.000
190984.600,209969.600,201542.500,246667.500,181703.700,371102.300,174800.200,201523.300,0.000
191733.000,210992.700,202458.600,247975.000,183056.900,371958.300,175276.500,203441.200,0.000
191398.500,211203.300,202402.800,247816.300,183129.300,372024.100,175056.300,203413.600,0.000
190285.900,210331.900,201415.000,246375.800,181856.600,371221.600,174386.400,201509.100,0.000
189750.400,209303.400,200607.800,245300.800,180661.000,370446.200,174072.300,199890.900,0.000
190984.900,209967.500,201495.400,246621.900,181718.600,371115.500,174791.000,201526.800,0.000
191749.500,211006.800,202426.500,247945.500,183086.800,371982.500,175280.300,203458.500,0.000
191422.900,211233.900,202387.200,247803.700,183180.000,372063.000,175073.900,203451.100,0.000
190281.800,210336.900,201377.700,246334.700,181880.700,371241.500,174386.900,201517.900,0.000
189740.500,209305.200,200557.200,245246.300,180671.800,370455.900,174066.500,199882.300,0.000
190977.400,209977.000,201444.900,246570.600,181732.900,371130.300,174790.600,201519.500,0.000
191734.400,211014.000,202372.100,247891.700,183101.200,371997.500,175278.200,203451.600,0.000
191415.200,211253.600,202343.400,247761.900,183205.500,372089.600,175082.800,203456.400,0.000
190286.100,210371.200,201346.900,246305.800,181918.500,371277.300,174407.500,201536.500,0.000
189738.300,209326.200,200523.700,245210.100,180707.100,370486.300,174082.600,199900.000,0.000
190964.900,209973.200,201401.700,246521.900,181756.500,371151.700,174800.100,201529.900,0.000
191731.300,211008.400,202329.300,247843.400,183119.900,372015.000,175288.800,203460.700,0.000
191414.300,211243.400,202292.100,247707.700,183215.800,372096.900,175083.900,203457.800,0.000
190274.700,210340.900,201281.600,246239.300,181911.200,371265.400,174386.900,201520.600,0.000
189731.500,209294.500,200460.900,245146.000,180697.000,370470.400,174060.900,199879.600,0.000
190971.000,209957.700,201348.500,246464.900,181754.700,371140.500,174783.400,201512.900,0.000
191732.600,210992.900,202279.500,247786.400,183122.800,372007.900,175273.700,203447.000,0.000
191409.800,211226.500,202243.900,247653.000,183218.900,372092.000,175067.600,203446.300,0.000
190279.300,210343.700,201241.100,246197.400,181925.400,371275.100,174383.000,201521.400,0.000
189723.800,209288.400,200412.300,245096.500,180701.300,370477.300,174050.200,199872.600,0.000
190961.900,209955.800,201299.200,246412.800,181755.100,371146.300,174771.300,201503.300,0.000
191728.200,210997.200,202233.000,247743.100,183126.800,372016.300,175266.300,203442.500,0.000
191406.300,211225.000,202199.300,247615.400,183227.600,372103.100,175067.200,203448.800,0.000
190276.300,210340.300,201200.800,246161.200,181939.700,371289.800,174387.300,201528.700,0.000
189739.300,209311.700,200389.800,245074.500,180734.300,370509.200,174069.900,199894.800,0.000
190971.300,209971.200,201272.500,246387.100,181782.900,371175.400,174789.100,201520.400,0.000
191737.800,211008.900,202208.100,247715.000,183155.200,372048.800,175287.000,203462.700,0.000
191410.600,211231.200,202166.900,247575.000,183249.300,372130.100,175075.900,203460.800,0.000
190280.400,210347.500,201162.500,246113.600,181953.800,371309.500,174386.200,201533.900,0.000
189734.000,209306.100,200338.600,245016.100,180734.800,370516.000,174056.300,199887.500,0.000
190968.600,209966.800,201222.300,246332.000,181788.200,371184.300,174776.900,201516.300,0.000
191738.200,211003.200,202161.700,247662.000,183165.300,372057.700,175270.600,203462.400,0.000
191418.800,211242.100,202129.900,247527.300,183261.400,372141.200,175062.700,203464.600,0.000
190285.600,210360.100,201126.600,246069.200,181967.800,371321.600,174378.000,201539.400,0.000
189735.900,209314.300,200304.400,244975.100,180753.300,370531.600,174056.200,199896.800,0.000
190971.100,209974.500,201189.600,246290.200,181804.500,371200.000,174779.300,201523.800,0.000
191733.700,211008.000,202119.300,247617.600,183172.500,372067.700,175265.300,203463.400,0.000
191414.200,211241.700,202088.800,247493.500,183275.900,372159.600,175063.400,203474.100,0.000
190287.000,210364.600,201096.500,246044.800,181990.200,371347.800,174385.900,201557.800,0.000
189734.900,209324.500,200275.900,244950.500,180777.200,370557.500,174062.700,199915.000,0.000
190961.300,209974.600,201157.000,246261.300,181826.300,371222.200,174784.300,201537.300,0.000
191726.400,211004.000,202086.100,247583.800,183192.900,372088.700,175272.000,203473.800,0.000
191412.200,211248.100,202055.900,247456.100,183299.000,372179.900,175067.300,203485.300,0.000
190287.200,210376.500,201059.900,246006.800,182015.500,371371.300,174387.100,201573.400,0.000
189730.800,209325.300,200230.300,244903.100,180790.600,370575.700,174051.100,199922.000,0.000
190957.300,209973.700,201108.000,246211.500,181833.300,371237.300,174763.300,201541.600,0.000
191730.400,211022.000,202048.100,247548.800,183214.000,372116.400,175262.800,203492.900,0.000
191413.500,211260.700,202019.000,247421.000,183321.000,372209.000,175063.400,203505.400,0.000
190285.200,210377.100,201019.500,245966.800,182034.600,371394.900,174379.300,201588.400,0.000
189733.500,209331.800,200195.300,244869.100,180815.500,370602.800,174053.900,199940.000,0.000
190971.000,210001.300,201085.600,246191.500,181874.000,371280.300,174784.000,201573.800,0.000
191736.800,211044.000,202021.700,247526.300,183255.300,372159.300,175281.900,203526.500,0.000
191417.600,211280.600,201988.700,247396.500,183357.900,372248.900,175081.400,203539.600,0.000
190290.100,210403.100,200990.500,245943.800,182067.500,371433.600,174399.900,201624.300,0.000
189729.800,209350.700,200158.700,244834.500,180840.300,370635.600,174065.500,199964.800,0.000
190953.000,210005.500,201035.800,246142.400,181882.700,371300.300,174777.100,201582.200,0.000
191719.200,211044.200,201967.200,247473.900,183257.300,372172.100,175262.700,203530.600,0.000
191400.600,211277.900,201935.200,247346.500,183363.600,372264.100,175056.400,203544.200,0.000
190278.100,210396.700,200941.300,245895.400,182075.900,371453.700,174373.400,201629.000,0.000
189730.600,209358.300,200118.200,244796.500,180857.000,370664.300,174046.000,199977.500,0.000
190958.000,210004.200,200992.000,246097.800,181891.800,371318.900,174761.300,201583.500,0.000
191732.600,211044.100,201929.800,247432.700,183266.100,372191.100,175260.000,203531.500,0.000
191424.300,211297.500,201910.700,247319.600,183385.600,372295.500,175069.000,203562.600,0.000
190292.100,210416.200,200913.100,245867.800,182098.600,371481.200,174387.900,201647.300,0.000
189730.400,209354.000,200079.100,244754.800,180863.700,370678.000,174056.100,199978.900,0.000
190960.300,210008.300,200955.700,246062.100,181903.300,371341.100,174776.600,201590.800,0.000
191727.200,211048.900,201890.000,247395.900,183279.000,372215.200,175267.100,203538.900,0.000
191415.700,211290.000,201865.300,247275.300,183389.400,372308.700,175063.300,203557.100,0.000
190289.500,210411.600,200870.000,245822.300,182101.100,371495.900,174376.900,201641.900,0.000
189729.500,209360.000,200039.400,244711.000,180870.800,370695.200,174044.600,199978.000,0.000
190955.300,210002.800,200913.100,246011.000,181906.200,371351.500,174761.000,201582.700,0.000
191722.600,211028.500,201840.600,247332.700,183266.800,372211.400,175249.400,203514.200,0.000
191408.300,211252.700,201809.300,247204.000,183362.400,372295.700,175049.700,203518.400,0.000
190300.700,210394.800,200832.500,245779.100,182099.000,371500.100,174381.700,201632.600,0.000
189731.000,209334.900,199993.300,244660.700,180861.300,370688.800,174038.600,199963.900,0.000
190948.500,209971.800,200859.800,245952.700,181890.300,371337.100,174743.800,201560.300,0.000
191728.200,211024.600,201809.300,247301.400,183283.300,372225.200,175250.500,203523.700,0.000
191420.200,211269.400,201791.000,247186.300,183398.100,372322.200,175059.900,203549.400,0.000
190294.200,210389.700,200799.000,245737.800,182111.600,371509.100,174381.100,201636.300,0.000
189723.000,209323.300,199957.200,244615.200,180869.100,370698.400,174037.100,199957.000,0.000
190933.400,209963.500,200822.800,245905.900,181900.400,371351.800,174745.600,201554.900,0.000
191713.100,211017.500,201772.000,247254.700,183293.800,372241.300,175254.800,203519.600,0.000
191398.400,211254.000,201744.300,247129.900,183401.800,372330.300,175052.500,203538.200,0.000
190279.800,210382.100,200754.300,245685.100,182123.000,371521.100,174374.700,201633.000,0.000
189732.300,209343.900,199933.800,244588.900,180908.900,370737.600,174053.300,199981.800,0.000
190963.100,209994.500,200811.800,245894.500,181951.800,371402.900,174771.500,201590.300,0.000
191740.100,211035.600,201751.000,247231.000,183330.000,372279.800,175265.800,203540.000,0.000
191427.000,211275.500,201723.500,247111.300,183439.000,372374.500,175061.600,203559.600,0.000
190296.300,210395.200,200724.100,245659.600,182150.500,371562.100,174373.100,201641.300,0.000
189728.200,209331.200,199882.100,244537.700,180910.000,370751.600,174030.100,199959.700,0.000
190953.800,209979.600,200758.400,245841.600,181950.200,371415.200,174750.700,201565.300,0.000
191732.400,211022.700,201703.100,247184.200,183333.800,372293.900,175253.900,203523.300,0.000
191425.400,211268.500,201681.400,247067.300,183447.700,372388.200,175057.600,203547.400,0.000
190303.800,210390.500,200689.700,245620.400,182162.800,371576.000,174373.400,201636.700,0.000
189740.600,209337.500,199856.300,244507.400,180928.200,370773.500,174036.300,199965.100,0.000
190957.000,209981.100,200723.100,245799.100,181956.700,371423.700,174745.000,201557.800,0.000
191727.500,211020.200,201660.900,247137.700,183334.300,372295.400,175239.400,203509.200,0.000
191417.600,211264.300,201640.100,247024.700,183450.300,372391.000,175042.200,203536.500,0.000
190296.100,210395.600,200651.700,245582.000,182175.400,371586.000,174361.400,201631.000,0.000
189730.800,209341.600,199818.200,244463.100,180942.400,370784.300,174024.300,199957.200,0.000
190950.600,209983.900,200689.100,245758.800,181975.900,371442.200,174740.300,201556.200,0.000
191725.300,211026.300,201632.200,247099.300,183359.100,372321.300,175238.100,203512.200,0.000
191417.700,211266.000,201613.200,246984.900,183473.700,372417.800,175040.800,203539.400,0.000
190297.700,210388.300,200623.700,245541.800,182192.400,371608.000,174361.000,201633.100,0.000
189732.700,209335.800,199788.500,244425.000,180957.500,370805.700,174024.700,199960.600,0.000
190955.300,209986.700,200663.000,245725.000,181996.200,371466.600,174744.100,201562.800,0.000
191733.600,211028.900,201604.500,247068.500,183381.600,372344.700,175243.300,203520.800,0.000
191423.100,211265.000,201579.300,246949.100,183490.900,372432.700,175044.900,203542.100,0.000
190301.900,210389.700,200588.600,245506.200,182211.800,371622.400,174367.900,201637.600,0.000
189728.900,209328.800,199747.200,244385.200,180971.000,370814.800,174025.500,199960.000,0.000
190953.400,209968.500,200617.900,245681.500,182002.100,371469.300,174741.300,201555.700,0.000
191736.800,211011.900,201562.300,247026.000,183386.400,372344.800,175243.500,203515.000,0.000
191430.400,211259.200,201544.700,246914.600,183503.600,372439.800,175050.200,203545.100,0.000
190306.800,210388.800,200556.900,245473.500,182227.300,371634.500,174369.400,201641.600,0.000
189741.500,209339.600,199722.600,244357.100,180994.300,370833.600,174028.500,199965.800,0.000
190958.100,209982.100,200588.500,245647.400,182023.000,371484.400,174737.700,201554.700,0.000
191737.700,211027.600,201531.700,246992.100,183409.100,372362.800,175239.600,203513.200,0.000
191426.200,211272.900,201509.100,246876.500,183527.000,372460.800,175042.000,203542.500,0.000
190301.500,210395.100,200520.000,245434.700,182251.600,371656.300,174368.100,201642.200,0.000
189734.700,209337.000,199683.700,244312.900,181012.100,370849.400,174033.500,199963.700,0.000
190949.300,209976.600,200549.500,245599.900,182033.000,371495.500,174741.800,201548.300,0.000
191726.000,211027.600,201496.300,246948.800,183423.500,372377.600,175240.700,203511.800,0.000
191417.900,211274.800,201478.100,246839.500,183548.100,372480.100,175042.300,203547.500,0.000
190291.400,210397.800,200485.000,245391.900,182264.100,371665.200,174358.200,201639.300,0.000
189711.300,209320.800,199636.200,244261.100,181011.100,370845.800,174013.300,199946.100,0.000
190932.700,209958.000,200501.600,245550.000,182033.700,371494.100,174723.900,201530.300,0.000
191708.300,211009.100,201445.500,246897.700,183419.900,372371.800,175222.800,203491.700,0.000
191397.900,211256.500,201427.300,246788.400,183541.200,372471.000,175029.500,203526.500,0.000
190294.600,210407.300,200456.100,245365.300,182281.700,371683.700,174367.300,201641.200,0.000
189732.400,209359.200,199623.400,244249.200,181049.000,370885.000,174035.500,199965.700,0.000
190943.300,209984.000,200480.300,245526.700,182063.800,371525.600,174739.100,201542.000,0.000
191727.500,211028.700,201429.800,246876.900,183455.300,372408.200,175240.700,203512.400,0.000
191427.600,211280.900,201415.500,246772.100,183579.700,372511.600,175045.300,203553.100,0.000
190308.700,210412.100,200427.000,245329.500,182301.500,371702.700,174361.400,201649.300,0.000
189734.400,209356.600,199584.200,244203.500,181058.800,370894.200,174015.600,199962.000,0.000
190945.200,209989.700,200441.900,245487.100,182075.400,371538.400,174723.300,201540.600,0.000
191725.900,211034.400,201389.600,246836.900,183464.800,372420.000,175228.800,203508.200,0.000
191420.300,211283.000,201370.000,246726.400,183584.600,372517.000,175031.500,203543.400,0.000
190304.500,210415.300,200382.200,245286.600,182308.100,371710.500,174352.500,201643.900,0.000
189730.000,209353.000,199538.800,244158.300,181062.500,370900.500,174008.300,199954.900,0.000
190946.800,209985.700,200401.600,245442.100,182084.300,371549.600,174719.900,201534.400,0.000
191724.400,211024.300,201340.400,246782.400,183465.200,372423.800,175217.800,203489.200,0.000
191412.600,211259.000,201315.600,246664.600,183574.900,372512.400,175018.100,203510.700,0.000
190312.100,210399.900,200346.200,245244.000,182321.200,371717.400,174353.400,201633.600,0.000
189737.700,209341.600,199505.500,244118.500,181079.900,370906.300,174009.200,199946.100,0.000
190955.800,209985.700,200373.000,245408.900,182103.800,371557.600,174725.400,201525.800,0.000
191736.600,211033.700,201321.600,246761.400,183497.300,372440.500,175230.400,203492.600,0.000
191437.700,211287.400,201312.300,246661.500,183627.800,372547.200,175036.200,203536.900,0.000
190323.900,210422.300,200329.300,245225.600,182358.200,371746.400,174356.400,201640.900,0.000
189741.100,209346.900,199477.500,244087.800,181100.500,370924.300,174005.900,199938.300,0.000
190956.000,209983.800,200342.500,245378.600,182124.200,371576.200,174719.000,201520.800,0.000
191738.000,211035.200,201289.900,246731.800,183514.600,372457.800,175219.000,203487.300,0.000
191432.500,211283.400,201272.600,246623.800,183637.600,372556.300,175020.700,203524.100,0.000
190306.200,210407.200,200279.200,245176.100,182355.800,371742.300,174332.700,201616.400,0.000
189722.600,209342.200,199429.900,244042.800,181105.300,370929.100,173988.200,199919.000,0.000
190939.200,209978.400,200292.400,245328.400,182123.800,371578.900,174704.500,201497.100,0.000
191727.700,211029.800,201243.800,246684.900,183518.500,372463.500,175211.000,203469.200,0.000
191425.800,211282.200,201231.100,246582.100,183642.200,372564.800,175016.000,203511.400,0.000
190310.200,210420.300,200250.600,245148.500,182371.100,371764.400,174339.100,201618.000,0.000
189746.900,209378.500,199423.000,244035.500,181139.300,370971.600,174009.300,199941.500,0.000
190964.500,210017.100,200290.300,245324.300,182162.200,371623.800,174724.700,201521.500,0.000
191747.000,211061.200,201238.700,246675.500,183551.500,372501.100,175222.100,203487.700,0.000
191445.200,211312.200,201231.300,246576.800,183682.600,372607.800,175030.300,203537.700,0.000
190321.400,210436.900,200242.000,245134.400,182403.100,371796.800,174344.600,201637.200,0.000
189723.900,209348.400,199378.000,243984.000,181133.400,370966.200,173982.100,199922.400,0.000
190931.100,209965.100,200229.400,245255.300,182134.900,371599.400,174681.300,201481.600,0.000
191731.200,211025.600,201192.200,246621.200,183535.800,372489.800,175200.400,203460.700,0.000
191442.700,211288.200,201189.300,246531.500,183672.700,372599.500,175023.100,203515.600,0.000
190323.100,210421.500,200203.400,245094.300,182397.900,371793.100,174343.000,201619.800,0.000
189737.400,209357.700,199355.500,243958.400,181146.700,370980.800,173996.100,199921.500,0.000
190940.000,209973.500,200205.300,245226.100,182148.300,371611.900,174694.500,201479.800,0.000
191731.100,211026.700,201157.600,246585.600,183542.100,372495.300,175200.000,203454.100,0.000
191432.200,211283.300,201150.300,246492.600,183676.500,372604.000,175008.500,203510.000,0.000
190315.800,210420.400,200170.300,245062.500,182410.500,371807.500,174330.300,201625.100,0.000
189728.700,209353.000,199321.200,243924.500,181156.800,370994.400,173982.000,199923.800,0.000
190939.700,209982.000,200178.900,245198.900,182169.200,371637.600,174689.900,201489.500,0.000
191732.200,211035.800,201133.900,246557.600,183565.900,372526.100,175196.100,203467.000,0.000
191435.000,211296.800,201129.700,246466.600,183702.700,372638.100,175011.000,203524.100,0.000
190309.400,210426.300,200139.900,245025.500,182427.300,371829.300,174329.000,201625.500,0.000
189713.700,209348.900,199280.200,243877.000,181164.000,371005.400,173977.200,199910.800,0.000
190924.000,209977.500,200138.200,245153.600,182173.400,371646.100,174688.500,201472.900,0.000
191720.400,211035.900,201098.500,246518.800,183575.000,372537.100,175200.800,203453.500,0.000
191422.500,211291.300,201089.400,246421.600,183704.600,372640.000,175008.200,203504.700,0.000
190309.700,210432.300,200114.200,244990.700,182439.200,371838.800,174330.700,201616.700,0.000
189724.100,209368.600,199270.400,243857.800,181187.800,371029.200,173980.100,199916.100,0.000
190938.300,210002.100,200132.300,245138.700,182195.000,371674.000,174689.700,201481.400,0.000
191729.900,211053.000,201087.800,246498.400,183587.300,372556.300,175198.000,203458.500,0.000
191437.200,211322.200,201084.500,246412.500,183730.100,372672.800,175010.400,203524.100,0.000
190317.900,210468.800,200105.700,244982.800,182469.500,371877.500,174330.700,201642.100,0.000
189726.400,209390.700,199254.700,243840.800,181210.000,371060.300,173983.100,199936.700,0.000
190939.700,210020.100,200115.900,245120.100,182220.100,371705.300,174695.100,201502.600,0.000
191731.800,211078.000,201073.700,246485.900,183620.800,372596.300,175203.800,203484.800,0.000
191428.800,211326.600,201061.600,246385.600,183747.700,372696.800,175006.700,203534.000,0.000
190321.100,210479.800,200094.400,244967.400,182495.100,371907.700,174339.000,201658.200,0.000
189732.300,209421.700,199245.600,243829.200,181241.900,371096.500,173995.500,199954.200,0.000
190930.000,210036.500,200090.400,245093.400,182238.500,371728.800,174696.600,201505.000,0.000
191725.700,211087.100,201045.300,246453.800,183638.500,372617.500,175205.000,203488.100,0.000
191436.400,211353.100,201043.400,246366.100,183782.100,372732.700,175016.200,203556.600,0.000
190320.800,210503.300,200064.800,244939.200,182520.500,371937.000,174337.600,201675.400,0.000
189717.500,209418.700,199203.300,243790.800,181255.900,371115.300,173981.600,199960.000,0.000
190925.900,210041.300,200059.200,245064.800,182263.100,371757.900,174688.400,201520.800,0.000
191728.700,211111.800,201026.100,246438.400,183674.500,372656.000,175201.700,203516.000,0.000
191439.200,211383.900,201028.600,246355.000,183821.500,372773.400,175016.000,203588.700,0.000
190327.600,210536.500,200053.700,244932.600,182570.500,371987.900,174341.700,201719.000,0.000
189726.800,209460.400,199192.900,243783.800,181310.300,371171.000,173986.500,200009.600,0.000
190924.400,210077.200,200039.800,245048.600,182309.600,371807.400,174689.000,201562.900,0.000
191719.700,211142.000,200997.500,246411.700,183712.500,372698.600,175200.200,203547.800,0.000
191431.800,211415.100,201002.500,246330.100,183865.100,372823.400,175015.200,203625.400,0.000
190322.400,210557.400,200028.700,244901.900,182604.500,372030.000,174334.700,201750.300,0.000
189734.600,209495.700,199178.800,243756.500,181346.300,371216.500,173983.800,200042.400,0.000
190951.200,210137.800,200047.100,245041.000,182367.000,371875.900,174703.100,201611.500,0.000
191750.300,211203.000,201010.900,246409.800,183773.400,372776.000,175216.800,203597.400,0.000
191448.200,211453.400,200998.100,246308.000,183899.500,372880.000,175022.000,203646.300,0.000
190346.900,210620.000,200033.300,244896.100,182658.300,372098.400,174354.300,201791.000,0.000
189737.200,209545.600,199169.000,243745.400,181397.400,371279.300,173993.900,200079.800,0.000
190935.900,210166.700,200015.500,245009.600,182398.600,371918.500,174696.900,201628.700,0.000
191736.700,211227.900,200979.200,246379.100,183808.400,372817.600,175212.400,203620.600,0.000
191450.000,211507.400,200983.900,246300.700,183965.300,372943.900,175029.500,203697.200,0.000
190339.100,210667.800,200017.200,244884.300,182723.500,372165.600,174356.000,201829.200,0.000
189742.300,209602.100,199159.300,243733.800,181464.200,371351.200,173999.500,200110.100,0.000
190953.000,210234.500,200017.600,245008.400,182478.700,372003.100,174712.500,201667.600,0.000
191761.300,211302.700,200990.300,246388.500,183901.300,372912.800,175234.800,203670.800,0.000
191473.600,211572.100,200991.800,246304.400,184050.900,373033.000,175047.100,203740.400,0.000
190367.300,210740.100,200023.600,244886.400,182808.800,372252.900,174370.700,201871.000,0.000
189758.900,209674.500,199161.200,243729.500,181552.000,371439.400,174009.800,200150.800,0.000
190955.900,210294.500,200007.800,244988.200,182556.100,372081.100,174714.400,201697.300,0.000
191758.800,211361.500,200973.500,246360.100,183976.100,372988.400,175232.800,203694.000,0.000
191469.600,211639.800,200978.000,246280.400,184137.300,373119.900,175046.900,203771.600,0.000
190363.200,210801.600,200013.400,244865.400,182900.300,372345.800,174376.800,201908.100,0.000
189765.000,209737.900,199158.300,243716.500,181649.100,371539.100,174022.000,200190.100,0.000
190971.700,210376.500,200013.700,244986.800,182666.600,372192.300,174729.300,201740.800,0.000
191777.400,211455.000,200983.900,246364.900,184097.600,373105.900,175247.100,203743.100,0.000
191493.600,211747.000,200997.200,246291.700,184274.400,373248.300,175066.700,203831.100,0.000
190378.000,210907.900,200023.800,244862.900,183032.900,372468.800,174383.200,201957.300,0.000
189774.300,209841.400,199163.000,243705.800,181779.200,371659.600,174023.900,200233.700,0.000
190974.100,210468.800,200014.000,244973.800,182797.000,372312.900,174728.600,201781.600,0.000
191782.900,211556.200,200987.200,246356.400,184235.300,373234.600,175247.800,203789.400,0.000
191499.600,211854.900,201000.800,246285.200,184419.000,373384.500,175068.500,203885.300,0.000
190389.000,211030.300,200035.000,244867.100,183189.500,372618.100,174395.600,202023.900,0.000
189781.700,209970.500,199175.600,243710.300,181942.400,371813.400,174038.900,200302.800,0.000
190983.100,210602.200,200027.700,244973.600,182962.300,372468.000,174745.800,201851.300,0.000
191792.700,211689.600,201005.800,246360.400,184407.000,373395.200,175268.200,203862.400,0.000
191507.000,211988.300,201018.600,246290.500,184591.100,373546.000,175082.900,203953.700,0.000
190400.700,211176.000,200060.900,244880.200,183374.900,372793.100,174409.000,202101.300,0.000
189789.900,210119.500,199197.800,243715.500,182129.500,371993.500,174041.200,200376.600,0.000
190984.900,210752.000,200044.700,244973.700,183151.700,372649.500,174740.300,201917.400,0.000
191785.300,211838.400,201016.500,246356.300,184599.900,373578.800,175258.300,203924.000,0.000
191505.600,212149.300,201037.300,246295.800,184800.900,373744.200,175084.600,204026.700,0.000
190412.400,211353.700,200090.100,244896.500,183605.400,373007.400,174426.100,202188.300,0.000
189809.300,210315.100,199237.900,243743.600,182378.700,372224.200,174071.900,200475.800,0.000
191005.600,210957.700,200090.200,245006.300,183410.600,372894.600,174776.400,202026.500,0.000
191826.100,212066.800,201077.900,246401.400,184878.500,373844.200,175310.300,204054.800,0.000
191545.700,212387.500,201101.400,246340.500,185090.200,374016.600,175139.000,204165.000,0.000
190434.500,211579.800,200141.900,244926.000,183885.900,373269.600,174465.600,202313.500,0.000
189819.000,210532.800,199284.000,243765.300,182657.000,372482.700,174103.300,200594.800,0.000
191012.700,211177.400,200133.600,245023.500,183691.900,373151.500,174802.700,202140.300,0.000
191823.700,212286.000,201112.500,246409.700,185158.100,374097.800,175323.900,204161.400,0.000
191540.900,212598.700,201131.100,246340.400,185362.500,374264.000,175145.600,204263.500,0.000
190442.800,211811.700,200186.100,244941.600,184177.100,373538.300,174484.400,202428.700,0.000
189830.800,210774.600,199328.500,243783.800,182955.000,372762.200,174121.300,200710.900,0.000
191017.800,211407.300,200168.200,245031.500,183979.300,373426.500,174810.000,202245.300,0.000
191835.800,212517.800,201154.600,246425.200,185452.500,374383.600,175338.800,204273.100,0.000
191552.500,212839.700,201177.000,246362.200,185664.600,374558.600,175162.800,204380.200,0.000
190436.100,212032.500,200211.600,244944.600,184462.800,373813.200,174484.300,202525.700,0.000
189822.000,210991.100,199354.100,243786.900,183244.300,373039.300,174123.500,200806.400,0.000
191019.300,211639.600,200206.700,245049.200,184285.600,373721.100,174829.300,202353.100,0.000
191837.300,212745.400,201185.500,246434.700,185753.200,374671.300,175355.000,204373.000,0.000
191556.200,213061.000,201200.900,246367.100,185961.600,374844.700,175172.700,204476.100,0.000
190447.100,212259.300,200241.200,244958.500,184765.700,374106.200,174499.100,202627.200,0.000
189836.000,211219.900,199383.500,243800.000,183544.000,373329.000,174140.100,200904.500,0.000
191030.800,211868.100,200232.600,245056.600,184585.500,374009.600,174843.100,202448.100,0.000
191841.700,212974.700,201213.600,246443.900,186058.400,374962.300,175366.800,204469.500,0.000
191551.700,213281.600,201225.300,246366.800,186261.700,375128.400,175180.400,204565.700,0.000
190437.900,212468.900,200261.100,244949.300,185059.100,374384.000,174502.000,202708.800,0.000
189827.700,211421.900,199399.800,243789.500,183832.500,373605.300,174140.700,200983.700,0.000
191013.400,212054.600,200232.700,245033.000,184855.900,374270.000,174833.500,202513.200,0.000
191820.900,213153.500,201206.500,246414.400,186320.700,375214.200,175352.700,204527.900,0.000
191555.600,213488.500,201241.600,246362.800,186544.400,375403.000,175184.500,204643.000,0.000
190472.900,212709.300,200303.800,244973.700,185367.200,374688.800,174528.500,202812.900,0.000
189863.000,211672.100,199448.000,243816.100,184149.900,373920.500,174172.100,201094.300,0.000
191054.400,212319.000,200295.000,245070.300,185192.300,374603.500,174879.300,202635.000,0.000
191867.200,213428.600,201277.100,246459.100,186669.700,375562.000,175406.600,204657.800,0.000
191573.300,213731.200,201283.600,246379.300,186869.500,375727.800,175215.100,204744.600,0.000
190478.200,212934.900,200331.900,244975.700,185682.500,374996.000,174545.900,202900.800,0.000
189864.400,211898.500,199473.200,243815.400,184465.300,374224.600,174187.300,201178.500,0.000
191043.800,212531.500,200309.000,245059.000,185494.000,374897.400,174883.300,202707.400,0.000
191845.800,213628.500,201280.800,246437.700,186956.000,375846.800,175398.300,204717.500,0.000
191570.500,213940.400,201296.600,246368.800,187161.300,376023.800,175219.200,204811.700,0.000
190483.400,213155.800,200352.000,244975.900,185985.200,375304.700,174555.600,202983.600,0.000
189862.900,212118.400,199489.400,243811.800,184764.100,374530.000,174186.500,201257.400,0.000
191054.800,212761.400,200334.300,245061.400,185800.700,375209.800,174886.600,202790.800,0.000
191872.100,213861.000,201314.000,246446.600,187270.900,376162.800,175411.700,204808.200,0.000
191595.700,214180.500,201338.200,246386.300,187490.900,376347.600,175238.400,204916.200,0.000
190499.100,213403.900,200397.200,244993.400,186322.000,375637.200,174575.100,203086.700,0.000
189863.700,212343.100,199518.400,243810.300,185081.000,374846.400,174190.800,201335.500,0.000
191049.400,212978.300,200356.400,245057.200,186110.700,375518.100,174892.000,202860.200,0.000
191866.100,214084.700,201337.200,246450.600,187588.300,376476.100,175420.400,204883.500,0.000
191579.800,214383.100,201342.900,246377.600,187788.400,376641.400,175231.500,204977.800,0.000
190474.300,213570.000,200374.500,244959.100,186581.900,375896.400,174549.600,203117.400,0.000
189856.500,212517.400,199504.800,243786.400,185344.600,375112.700,174183.200,201372.400,0.000
191042.400,213151.000,200344.400,245031.800,186367.000,375783.900,174885.300,202892.500,0.000
191860.100,214243.100,201323.000,246418.700,187827.300,376731.000,175414.500,204905.400,0.000
191582.800,214549.100,201339.100,246349.200,188023.700,376897.200,175232.700,205000.900,0.000
190459.900,213714.900,200360.100,244916.900,186793.200,376132.000,174532.400,203123.500,0.000
189836.100,212647.800,199486.100,243741.700,185540.800,375336.000,174159.300,201372.200,0.000
191021.500,213261.500,200320.200,244987.900,186555.500,376001.300,174859.000,202890.600,0.000
191839.300,214342.200,201291.100,246371.800,188005.900,376934.900,175382.300,204899.700,0.000
191569.900,214644.100,201311.500,246310.300,188204.700,377101.400,175209.300,205004.600,0.000
190480.400,213830.600,200358.700,244907.500,186997.100,376359.400,174542.300,203157.500,0.000
189857.300,212751.200,199480.800,243727.200,185730.400,375551.900,174169.200,201398.300,0.000
191037.500,213353.600,200305.500,244959.400,186718.700,376194.500,174862.800,202898.300,0.000
191850.800,214420.500,201271.800,246338.600,188147.400,377114.300,175381.700,204894.300,0.000
191565.300,214691.700,201274.900,246259.400,188313.700,377253.500,175192.900,204974.100,0.000
190461.200,213849.300,200307.900,244843.700,187080.600,376487.300,174518.500,203107.500,0.000
189829.800,212756.300,199417.500,243650.800,185793.200,375659.100,174139.400,201333.000,0.000
191000.800,213337.700,200229.600,244870.500,186760.400,376282.800,174824.000,202816.500,0.000
191812.900,214387.300,201190.900,246245.700,188182.200,377193.800,175342.400,204810.800,0.000
191548.500,214678.600,201213.100,246190.000,188367.600,377348.200,175171.800,204912.100,0.000
190449.700,213858.900,200257.700,244786.900,187145.900,376590.500,174497.300,203058.100,0.000
189819.500,212773.700,199376.800,243604.600,185867.900,375772.200,174117.400,201291.800,0.000
191001.600,213367.100,200200.500,244835.500,186849.700,376408.800,174809.300,202787.300,0.000
191824.000,214439.700,201176.800,246225.300,188289.800,377336.700,175338.400,204798.900,0.000
191540.900,214712.100,201182.600,246152.300,188455.500,377474.300,175152.400,204883.300,0.000
190443.800,213882.600,200222.700,244743.800,187227.300,376712.500,174482.700,203024.600,0.000
189815.200,212805.100,199346.400,243568.200,185957.500,375904.800,174114.300,201268.000,0.000
190992.800,213397.400,200171.000,244803.100,186939.800,376544.900,174808.100,202765.100,0.000
191804.200,214468.700,201137.300,246183.100,188368.800,377463.500,175325.000,204765.600,0.000
191542.600,214770.600,201166.000,246134.700,188561.500,377627.900,175159.700,204876.600,0.000
190450.400,213950.700,200213.200,244731.700,187343.300,376876.300,174490.200,203028.100,0.000
189814.200,212855.400,199322.000,243535.000,186053.700,376048.400,174103.700,201250.700,0.000
190988.000,213438.100,200137.800,244754.600,187021.900,376675.100,174790.200,202735.600,0.000
191808.000,214500.800,201108.000,246139.500,188448.500,377591.700,175310.800,204740.000,0.000
191550.300,214791.600,201135.600,246092.400,188636.800,377750.200,175142.700,204852.300,0.000
190458.200,213964.000,200176.500,244689.000,187402.200,376984.000,174473.800,202996.200,0.000
189821.800,212866.700,199288.500,243497.000,186104.800,376153.200,174095.300,201220.300,0.000
190998.700,213444.900,200108.400,244722.300,187066.100,376778.000,174786.900,202706.700,0.000
191816.700,214503.000,201080.200,246109.900,188488.200,377690.200,175311.100,204712.600,0.000
191540.000,214774.900,201092.500,246046.300,188655.500,377824.600,175132.000,204807.500,0.000
190434.300,213928.500,200126.300,244635.300,187417.500,377050.200,174452.300,202948.700,0.000
189805.100,212831.800,199242.600,243450.700,186132.200,376224.900,174075.800,201182.400,0.000
190981.500,213422.300,200063.400,244678.400,187103.100,376853.600,174766.400,202673.600,0.000
191805.300,214499.400,201047.300,246075.400,188545.000,377782.100,175302.200,204695.000,0.000
191550.000,214816.400,201088.200,246042.300,188759.100,377960.300,175145.700,204830.800,0.000
190456.700,214009.300,200142.700,244651.800,187556.300,377217.800,174479.000,202998.600,0.000
189827.500,212941.100,199272.500,243474.700,186297.200,376419.400,174112.300,201247.400,0.000
191006.100,213545.800,200104.800,244710.800,187296.100,377074.500,174814.300,202757.100,0.000
191834.100,214635.300,201095.100,246118.400,188760.600,378023.300,175355.800,204797.000,0.000
191566.400,214943.400,201120.900,246069.600,188965.300,378191.000,175181.600,204918.900,0.000
190470.500,214139.800,200170.400,244675.300,187766.900,377451.000,174512.500,203085.500,0.000
189831.900,213066.600,199291.800,243494.400,186506.200,376649.700,174138.100,201330.200,0.000
191005.900,213665.100,200115.300,244726.000,187493.900,377295.300,174830.100,202831.000,0.000
191836.400,214754.100,201103.600,246132.400,188952.400,378240.500,175367.400,204866.400,0.000
191559.700,215045.500,201118.900,246074.300,189143.600,378397.800,175182.500,204979.600,0.000
190465.400,214234.000,200165.300,244676.400,187935.500,377652.800,174506.000,203142.200,0.000
189825.700,213157.900,199280.600,243487.600,186664.500,376846.100,174127.100,201379.800,0.000
190990.000,213742.000,200090.900,244704.500,187632.900,377476.200,174812.900,202863.900,0.000
191807.100,214810.600,201061.200,246089.700,189065.900,378400.200,175340.100,204875.500,0.000
191541.100,215098.500,201078.000,246025.900,189243.700,378548.400,175163.200,204975.000,0.000
190469.900,214311.000,200147.700,244654.700,188060.800,377824.800,174509.600,203169.900,0.000
189830.300,213232.300,199266.400,243469.200,186792.100,377018.400,174132.000,201409.100,0.000
191002.200,213813.100,200082.500,244687.000,187760.600,377650.600,174820.300,202890.200,0.000
191828.800,214880.400,201064.500,246083.800,189199.800,378582.200,175351.300,204910.600,0.000
191564.600,215170.100,201085.800,246029.900,189384.500,378735.700,175179.200,205022.800,0.000
190477.800,214363.000,200138.300,244639.700,188177.300,377990.600,174514.900,203192.500,0.000
189829.200,213262.800,199239.100,243434.900,186882.800,377161.400,174125.400,201408.800,0.000
191003.300,213845.500,200055.500,244656.000,187852.700,377793.600,174819.500,202893.700,0.000
191825.300,214913.900,201033.900,246049.200,189289.300,378720.300,175346.100,204913.900,0.000
191565.200,215211.500,201065.000,246003.600,189483.300,378883.200,175175.200,205033.500,0.000
190471.200,214394.600,200112.200,244603.400,188267.200,378132.400,174501.700,203190.900,0.000
189831.200,213308.300,199225.800,243412.400,186984.100,377315.000,174123.700,201417.900,0.000
191003.400,213894.900,200044.200,244636.400,187954.800,377950.800,174818.500,202904.000,0.000
191830.300,214968.100,201023.700,246035.400,189393.600,378881.200,175351.700,204928.200,0.000
191556.400,215256.200,201043.800,245982.100,189580.100,379034.700,175173.800,205042.500,0.000
190462.500,214442.000,200095.300,244586.600,188367.800,378284.400,174504.400,203205.600,0.000
189818.600,213350.800,199207.800,243389.400,187081.600,377464.000,174123.800,201429.700,0.000
190985.300,213921.000,200014.400,244598.500,188036.700,378080.700,174807.300,202901.500,0.000
191818.000,214991.900,200997.900,246002.200,189483.700,379012.800,175343.500,204934.000,0.000
191568.000,215297.600,201036.300,245967.600,189691.400,379185.700,175178.000,205067.900,0.000
