EEG 1, EEG 2, EEG 3, EEG 4, EEG 5, EEG 6, EEG 7, EEG 8, TRIG
750000.100,750000.100,750000.100,750000.100,750000.100,750000.100,750000.100,750000.100,0.000
750000.100,750000.100,750000.100,750000.100,750000.100,750000.100,750000.100,750000.100,0.000
646792.600,750000.100,750000.100,750000.100,750000.100,750000.100,750000.100,750000.100,0.000
542214.400,750000.100,750000.100,750000.100,750000.100,661358.900,750000.100,750000.100,0.000
483907.200,697052.300,750000.100,750000.100,750000.100,593709.400,750000.100,750000.100,0.000
463063.500,661759.600,750000.100,750000.100,750000.100,568153.800,750000.100,750000.100,0.000
443367.900,632944.500,750000.100,750000.100,750000.100,547407.500,750000.100,750000.100,0.000
421845.200,605084.400,750000.100,750000.100,750000.100,526859.000,750000.100,750000.100,0.000
402438.500,580038.400,750000.100,750000.100,750000.100,508319.800,750000.100,750000.100,0.000
391012.600,560479.300,750000.100,750000.100,750000.100,494210.600,750000.100,750000.100,0.000
383633.300,544292.900,750000.100,750000.100,750000.100,482765.600,750000.100,750000.100,0.000
372708.300,527382.300,750000.100,750000.100,750000.100,470398.100,750000.100,750000.100,0.000
359090.100,509934.700,750000.100,750000.100,750000.100,457244.100,750000.100,750000.100,0.000
346423.100,493847.100,750000.100,750000.100,750000.100,445079.800,750000.100,750000.100,0.000
340165.300,481764.300,750000.100,750000.100,750000.100,436238.700,750000.100,750000.100,0.000
336989.600,471994.300,750000.100,750000.100,750000.100,429285.400,750000.100,750000.100,0.000
330166.800,460947.700,750000.100,750000.100,750000.100,421081.100,750000.100,750000.100,0.000
320469.000,448866.800,750000.100,750000.100,750000.100,411795.700,750000.100,750000.100,0.000
311284.900,437578.200,750000.100,750000.100,750000.100,403092.100,750000.100,750000.100,0.000
307706.900,429580.200,750000.100,750000.100,750000.100,397172.600,750000.100,750000.100,0.000
306739.800,423390.800,750000.100,750000.100,750000.100,392772.800,750000.100,750000.100,0.000
302148.100,415710.400,750000.100,750000.100,750000.100,386999.000,750000.100,750000.100,0.000
294742.000,406836.900,750000.100,750000.100,750000.100,380062.700,750000.100,750000.100,0.000
287678.100,398497.200,750000.100,750000.100,750000.100,373538.600,750000.100,750000.100,0.000
285665.700,393000.600,750000.100,750000.100,750000.100,369453.500,750000.100,750000.100,0.000
285994.700,389025.100,750000.100,750000.100,750000.100,366672.900,750000.100,750000.100,0.000
282836.700,383504.400,750000.100,750000.100,750000.100,362500.600,750000.100,750000.100,0.000
276828.700,376654.300,750000.100,750000.100,750000.100,357076.800,750000.100,750000.100,0.000
270999.800,370131.400,750000.100,750000.100,750000.100,351908.800,750000.100,750000.100,0.000
269979.800,366251.800,750000.100,750000.100,750000.100,349016.300,750000.100,750000.100,0.000
271121.800,363720.800,750000.100,750000.100,750000.100,347295.900,750000.100,750000.100,0.000
268854.000,359603.900,750000.100,750000.100,750000.100,344162.600,750000.100,750000.100,0.000
263797.500,354126.100,750000.100,750000.100,750000.100,339769.300,750000.100,750000.100,0.000
258851.900,348880.000,750000.100,750000.100,750000.100,335557.800,750000.100,750000.100,0.000
258469.800,346088.200,750000.100,750000.100,750000.100,333474.100,750000.100,750000.100,0.000
260143.400,344531.700,750000.100,750000.100,750000.100,332472.900,750000.100,750000.100,0.000
258492.900,341394.600,750000.100,750000.100,750000.100,330074.900,750000.100,750000.100,0.000
254108.900,336884.500,750000.100,750000.100,750000.100,326420.900,750000.100,750000.100,0.000
249785.000,332537.500,750000.100,750000.100,750000.100,322895.900,750000.100,750000.100,0.000
249881.900,330543.500,750000.100,750000.100,750000.100,321415.800,750000.100,750000.100,0.000
251948.800,329713.500,750000.100,750000.100,750000.100,320967.600,750000.100,750000.100,0.000
250739.700,327291.400,750000.100,750000.100,750000.100,319120.300,750000.100,750000.100,0.000
246837.800,323494.100,750000.100,750000.100,750000.100,316010.400,750000.100,750000.100,0.000
242971.500,319821.200,750000.100,750000.100,750000.100,313006.100,750000.100,750000.100,0.000
243408.500,318409.800,750000.100,750000.100,750000.100,311968.000,750000.100,750000.100,0.000
245736.100,318091.100,750000.100,750000.100,750000.100,311896.000,750000.100,750000.100,0.000
244845.400,316189.500,750000.100,750000.100,750000.100,310443.100,750000.100,750000.100,0.000
241286.000,312906.800,750000.100,750000.100,750000.100,307728.600,750000.100,750000.100,0.000
237750.500,309723.900,750000.100,750000.100,750000.100,305099.800,750000.100,750000.100,0.000
238426.100,308735.600,750000.100,750000.100,750000.100,304389.100,750000.100,750000.100,0.000
240955.500,308803.800,750000.100,750000.100,750000.100,304615.000,750000.100,750000.100,0.000
240295.400,307287.400,750000.100,750000.100,750000.100,303453.000,750000.100,750000.100,0.000
236998.100,304385.900,750000.100,750000.100,750000.100,301039.900,750000.100,750000.100,0.000
233722.900,301582.500,750000.100,750000.100,750000.100,298703.500,750000.100,750000.100,0.000
234583.400,300925.200,749203.100,749706.900,749155.500,298247.500,749652.700,750000.100,0.000
237255.400,301291.500,747583.600,748086.400,747536.000,298703.100,748035.100,748411.600,0.000
236769.300,300079.500,746027.700,746529.700,745979.900,297775.600,746478.800,746855.300,0.000
233672.500,297493.500,744554.100,745055.400,744506.600,295601.900,745002.800,745376.800,0.000
230570.700,294963.800,743171.800,743672.000,743124.200,293480.200,743617.600,743988.300,0.000
231572.400,294557.800,741878.100,742378.200,741831.000,293215.000,742325.300,742694.900,0.000
234359.700,295152.600,740638.300,741137.900,740591.000,293843.700,741087.700,741458.900,0.000
234021.200,294178.800,739445.200,739943.900,739398.300,293102.400,739894.300,740265.300,0.000
231081.400,291823.200,738315.900,738813.900,738269.300,291110.300,738763.000,739131.200,0.000
228138.100,289526.800,737260.900,737757.900,737214.800,289171.600,737705.300,738070.800,0.000
229240.200,289311.600,736276.100,736772.800,736230.000,289053.800,736721.600,737086.400,0.000
232112.400,290085.300,735328.000,735824.100,735281.900,289816.700,735775.500,736142.300,0.000
231873.300,289294.700,734411.600,734907.600,734365.500,289214.700,734859.400,735225.900,0.000
229043.800,287119.900,733546.600,734041.700,733500.700,287362.800,733992.600,734356.100,0.000
226211.400,284995.300,732743.100,733238.400,732698.600,285557.900,733186.500,733547.400,0.000
227395.800,284935.400,731998.600,732493.500,731954.100,285563.200,732442.600,732803.600,0.000
230336.200,285852.200,731279.400,731773.500,731234.100,286438.600,731725.300,732088.400,0.000
230178.000,285204.900,730582.700,731076.400,730537.000,285947.900,731028.500,731391.400,0.000
227438.000,283178.200,729923.200,730416.500,729878.100,284208.300,730367.300,730727.800,0.000
224689.400,281191.800,729312.100,729805.500,729268.100,282508.400,729753.400,730111.800,0.000
225952.500,281269.100,728750.600,729243.800,728706.300,282615.600,729193.000,729550.900,0.000
228945.200,282306.700,728207.100,728699.800,728162.300,283579.800,728651.900,729011.400,0.000
228840.400,281772.600,727673.900,728166.100,727628.500,283174.600,728118.700,728478.200,0.000
226170.900,279861.700,727173.400,727665.400,727128.800,281530.400,727616.800,727973.400,0.000
223499.200,277997.100,726713.800,727205.600,726670.400,279927.400,727154.300,727509.100,0.000
224820.900,278179.500,726296.200,726787.600,726252.100,280114.400,726737.400,727092.400,0.000
227851.100,279309.300,725886.800,726378.000,725842.000,281147.900,726331.100,726687.600,0.000
227793.400,278872.400,725482.300,725973.300,725437.600,280814.200,725926.900,726283.700,0.000
225170.500,277052.700,725100.300,725590.900,725056.300,279233.600,725542.500,725897.300,0.000
222548.400,275276.100,724754.600,725245.200,724711.200,277695.300,725194.000,725546.700,0.000
223907.400,275541.800,724446.600,724936.900,724402.400,277947.000,724886.900,725239.100,0.000
226970.600,276743.500,724139.500,724630.100,724095.200,279037.500,724583.300,724936.800,0.000
226943.400,276369.000,723829.800,724319.900,723785.400,278749.400,724273.600,724627.500,0.000
224364.100,274621.000,723538.300,724028.100,723494.400,277222.500,723979.900,724332.300,0.000
221792.400,272923.600,723279.100,723768.600,723235.500,275742.200,723717.500,724067.900,0.000
223194.200,273263.900,723053.600,723543.100,723010.200,276047.300,723492.900,723843.400,0.000
226279.200,274526.500,722826.900,723316.000,722782.900,277183.900,723269.100,723621.400,0.000
226286.300,274221.900,722590.200,723079.300,722546.600,276945.600,723032.600,723385.300,0.000
223741.400,272540.600,722370.000,722858.900,722326.500,275466.100,722809.900,723160.900,0.000
221198.900,270900.000,722178.400,722667.600,722135.800,274031.200,722615.700,722964.400,0.000
222620.500,271283.800,722011.800,722501.300,721969.300,274370.100,722450.300,722799.200,0.000
225710.000,272578.800,721838.100,722326.800,721794.400,275521.200,722279.600,722629.900,0.000
225693.400,272287.200,721660.600,722149.300,721617.000,275295.300,722102.600,722453.500,0.000
223198.200,270666.500,721491.400,721980.400,721448.800,273859.100,721931.100,722280.600,0.000
220720.800,269097.200,721343.700,721832.300,721301.400,272474.100,721780.300,722127.300,0.000
222161.900,269531.500,721224.400,721713.200,721182.000,272850.200,721662.400,722009.600,0.000
225287.600,270889.200,721098.900,721587.800,721055.900,274054.300,721540.200,721888.600,0.000
225338.500,270669.100,720960.300,721448.900,720917.200,273891.000,721401.900,721751.000,0.000
222831.200,269071.800,720828.900,721317.300,720786.200,272477.200,721267.900,721615.600,0.000
220317.000,267513.500,720720.700,721208.900,720678.400,271096.600,721156.400,721502.200,0.000
221777.100,267983.700,720638.500,721126.700,720596.100,271502.100,721075.300,721421.200,0.000
224906.900,269366.800,720541.900,721029.800,720498.900,272723.300,720981.900,721329.300,0.000
224971.700,269189.500,720431.100,720918.800,720388.100,272579.900,720871.300,721219.400,0.000
222483.500,267636.000,720331.800,720819.800,720289.800,271204.400,720769.900,721116.200,0.000
219986.100,266104.300,720252.400,720740.800,720210.900,269855.700,720687.600,721031.800,0.000
221474.100,266618.100,720193.200,720681.200,720150.700,270286.100,720628.900,720972.600,0.000
224626.800,268042.200,720125.300,720613.100,720082.300,271540.000,720564.700,720910.600,0.000
224695.700,267885.600,720041.200,720528.900,719998.200,271419.900,720480.700,720827.400,0.000
222210.700,266349.800,719961.200,720448.800,719918.300,270053.900,720398.000,720743.500,0.000
219726.700,264850.700,719898.900,720386.400,719856.800,268723.100,720332.300,720675.900,0.000
221202.500,265367.500,719858.900,720346.800,719817.500,269163.600,720294.000,720637.500,0.000
224358.700,266813.400,719806.600,720294.300,719764.900,270429.000,720245.400,720590.700,0.000
224444.300,266691.500,719739.700,720227.500,719697.700,270335.000,720178.700,720524.500,0.000
221968.200,265179.800,719676.800,720164.600,719635.100,268983.400,720112.800,720457.200,0.000
219482.300,263692.800,719632.600,720120.400,719591.200,267664.700,720065.400,720407.800,0.000
220964.700,264230.900,719606.800,720094.300,719565.100,268115.800,720040.600,720383.200,0.000
224134.600,265695.500,719566.700,720054.100,719524.800,269400.500,720004.400,720348.300,0.000
224241.800,265604.400,719510.400,719997.800,719468.300,269327.900,719948.600,720292.900,0.000
221798.500,264141.100,719461.600,719949.300,719419.600,268016.400,719897.300,720240.000,0.000
219308.300,262671.300,719425.700,719913.500,719384.300,266706.100,719858.400,720199.200,0.000
220788.000,263225.200,719410.600,719898.500,719368.900,267166.700,719844.800,720185.400,0.000
223956.300,264712.500,719382.100,719870.000,719339.700,268461.200,719819.600,720162.300,0.000
224067.800,264644.400,719335.500,719823.200,719293.600,268400.800,719773.300,720116.600,0.000
221616.700,263185.600,719293.000,719780.800,719251.800,267096.300,719728.300,720069.700,0.000
219129.700,261724.100,719266.800,719754.300,719225.600,265796.700,719698.500,720037.900,0.000
220619.900,262294.300,719262.000,719749.600,719220.900,266274.400,719695.000,720034.800,0.000
223812.100,263809.400,719241.500,719729.100,719200.300,267595.000,719678.400,720020.000,0.000
223928.100,263755.400,719203.200,719690.600,719161.900,267551.400,719640.800,719982.600,0.000
221464.900,262300.500,719162.900,719650.400,719122.200,266244.200,719597.600,719937.900,0.000
218970.700,260841.500,719140.100,719627.500,719099.800,264946.300,719571.400,719909.800,0.000
220479.500,261433.300,719140.500,719628.100,719099.800,265437.400,719573.100,719911.600,0.000
223677.600,262962.200,719126.800,719614.100,719085.500,266770.100,719562.900,719903.100,0.000
223775.900,262903.700,719094.600,719581.800,719053.300,266724.700,719531.100,719871.800,0.000
221303.400,261446.000,719063.300,719550.300,719022.400,265421.800,719496.900,719836.300,0.000
218872.600,260054.000,719051.600,719538.400,719011.100,264176.400,719482.200,719819.400,0.000
220414.700,260692.200,719054.100,719541.400,719013.600,264703.600,719486.100,719823.600,0.000
223573.700,262211.100,719040.300,719527.800,718999.600,266020.600,719476.100,719815.800,0.000
223639.900,262144.400,719012.200,719499.200,718971.300,265960.800,719448.100,719788.100,0.000
221176.300,260706.400,718983.900,719470.700,718943.000,264667.600,719416.700,719755.000,0.000
218743.500,259315.500,718970.800,719458.300,718930.800,263423.500,719400.900,719736.800,0.000
220296.500,259957.100,718978.100,719465.500,718937.900,263964.600,719409.600,719745.900,0.000
223470.400,261495.400,718970.100,719457.200,718929.300,265298.300,719405.300,719743.800,0.000
223535.200,261437.900,718944.100,719430.800,718902.800,265244.400,719379.200,719718.300,0.000
221070.100,260008.700,718917.900,719404.700,718877.100,263956.300,719350.300,719687.600,0.000
218648.900,258637.400,718908.100,719395.300,718868.200,262724.600,719337.600,719672.500,0.000
220214.600,259305.800,718920.400,719407.500,718880.300,263281.000,719351.100,719686.500,0.000
223378.800,260840.500,718916.000,719402.400,718875.100,264621.300,719350.200,719687.400,0.000
223450.000,260791.700,718894.400,719380.500,718853.400,264578.100,719328.900,719666.400,0.000
221002.800,259383.600,718874.900,719361.100,718834.600,263310.500,719306.500,719642.300,0.000
218577.400,258016.200,718868.400,719354.200,718828.400,262082.800,719296.700,719630.200,0.000
220130.400,258677.900,718879.000,719364.800,718838.700,262631.800,719309.100,719642.900,0.000
223309.000,260231.600,718873.400,719359.100,718832.500,263979.900,719307.300,719643.300,0.000
223399.100,260203.700,718851.700,719338.000,718810.900,263954.300,719286.400,719622.700,0.000
220955.300,258806.800,718833.400,719319.700,718793.300,262695.500,719264.900,719599.900,0.000
218521.300,257444.400,718829.400,719315.000,718789.800,261471.500,719257.600,719590.100,0.000
220060.000,258100.900,718840.600,719325.800,718800.300,262018.700,719270.300,719602.600,0.000
223247.300,259670.100,718840.100,719325.100,718799.100,263382.400,719272.900,719608.000,0.000
223350.700,259662.600,718821.300,719305.800,718780.300,263373.000,719254.900,719590.100,0.000
220896.600,258266.200,718802.600,719287.100,718762.700,262115.600,719233.400,719566.900,0.000
218453.300,256901.000,718800.500,719284.600,718760.800,260890.600,719227.600,719558.800,0.000
220011.900,257581.000,718815.800,719299.800,718775.900,261456.200,719244.200,719575.900,0.000
223188.400,259146.500,718814.100,719298.500,718774.400,262820.800,719247.300,719580.900,0.000
223265.100,259127.900,718796.900,719280.900,718757.300,262801.800,719230.600,719564.400,0.000
220882.700,257789.200,718780.600,719263.800,718740.700,261591.600,719210.700,719543.200,0.000
218491.800,256472.500,718775.600,719257.900,718736.200,260410.700,719202.600,719532.400,0.000
219967.400,257102.700,718789.600,719271.600,718750.100,260934.200,719217.900,719548.200,0.000
223086.100,258631.100,718790.600,719272.400,718750.300,262264.600,719222.600,719555.400,0.000
223214.600,258643.000,718774.600,719256.400,718734.700,262278.000,719207.300,719540.100,0.000
220857.700,257326.900,718759.700,719241.000,718720.000,261089.000,719189.600,719520.600,0.000
218436.300,255987.900,718757.400,719237.800,718717.900,259894.000,719184.100,719512.500,0.000
219928.300,256632.700,718773.900,719253.800,718734.600,260430.100,719202.000,719530.700,0.000
223051.800,258168.000,718774.400,719254.400,718734.600,261763.400,719206.400,719537.600,0.000
223186.500,258191.800,718758.800,719238.600,718718.900,261782.400,719191.300,719522.900,0.000
220809.600,256864.600,718742.800,719221.500,718703.300,260590.900,719172.400,719502.400,0.000
218397.800,255540.400,718741.200,719218.800,718702.300,259406.200,719167.700,719494.800,0.000
219902.400,256197.400,718758.600,719235.600,718719.400,259953.100,719186.000,719513.600,0.000
223022.400,257734.800,718758.900,719235.900,718719.100,261289.100,719189.700,719520.500,0.000
223142.600,257752.400,718740.800,719216.900,718700.900,261299.400,719172.300,719503.400,0.000
220780.200,256442.400,718722.700,719194.900,718684.800,260111.400,719152.900,719481.700,0.000
218380.900,255136.300,718720.000,719185.100,718685.400,258939.300,719149.800,719475.800,0.000
219887.600,255803.600,718739.100,719201.300,718705.600,259498.500,719171.500,719498.200,0.000
223008.300,257352.900,718742.100,719203.600,718708.100,260843.600,719177.900,719507.700,0.000
223138.700,257390.700,718729.100,719186.800,718696.500,260873.800,719167.100,719496.800,0.000
220740.700,256059.300,718709.800,719160.100,718680.700,259674.200,719148.300,719475.400,0.000
218311.100,254732.000,718703.100,719145.000,718677.400,258484.500,719141.300,719465.900,0.000
219830.100,255407.900,718720.000,719158.400,718695.600,259049.000,719160.600,719486.300,0.000
222958.100,256963.400,718723.900,719161.500,718699.300,260404.500,719168.200,719496.500,0.000
223073.000,256984.600,718705.300,719138.400,718682.400,260424.600,719151.400,719480.400,0.000
220708.600,255679.300,718690.000,719113.700,718670.600,259248.400,719136.600,719463.500,0.000
218316.700,254383.300,718686.700,719099.300,718670.700,258087.900,719133.800,719457.400,0.000
219827.900,255060.500,718704.400,719112.900,718690.100,258652.400,719154.400,719478.400,0.000
222947.200,256613.500,718706.400,719114.800,718692.300,260000.300,719160.200,719487.100,0.000
223062.500,256641.300,718686.500,719088.600,718673.500,260024.100,719142.000,719469.300,0.000
220694.600,255341.900,718668.600,719055.600,718659.300,258852.100,719124.300,719449.800,0.000
218294.300,254047.800,718665.700,719026.800,718660.600,257690.600,719121.800,719444.300,0.000
219813.400,254731.800,718685.900,719032.100,718682.100,258267.900,719145.000,719468.000,0.000
222948.100,256300.300,718691.300,719010.300,718687.200,259631.200,719154.600,719480.100,0.000
223068.400,256336.200,718663.300,717790.900,718672.000,259659.900,719139.100,719465.100,0.000
220692.500,255027.700,718631.800,713323.500,718656.600,258487.300,719119.500,719443.600,0.000
218296.300,253732.700,718624.400,708266.400,718656.100,257332.300,719115.100,719436.600,0.000
219812.800,254416.600,718640.300,706551.400,718673.500,257904.800,719134.400,719456.300,0.000
222929.400,255975.000,718644.500,706644.000,718676.800,259260.800,719141.800,719466.500,0.000
223071.800,256039.800,718632.300,704570.100,718666.400,259311.300,719131.800,719456.800,0.000
220698.600,254745.200,718615.900,700202.100,718653.500,258143.000,719115.600,719438.500,0.000
218294.100,253448.000,718613.600,695510.100,718653.800,256986.500,719111.900,719432.100,0.000
219815.600,254140.500,718632.800,693944.800,718673.100,257566.800,719133.300,719453.600,0.000
222935.100,255705.800,718633.600,694142.100,718673.600,258930.000,719137.400,719460.900,0.000
223050.100,255746.400,718613.400,692313.900,718656.400,258966.600,719120.800,719444.900,0.000
220676.000,254449.500,718602.400,688557.600,718644.900,257801.500,719105.600,719428.100,0.000
218284.400,253163.600,718606.600,684348.100,718648.100,256654.500,719105.600,719424.600,0.000
219796.600,253847.700,718624.800,683197.200,718665.700,257234.000,719124.600,719444.100,0.000
222913.100,255424.800,718629.100,683788.400,718669.600,258597.300,719132.600,719455.200,0.000
223027.300,255473.800,718615.300,682197.600,718655.900,258637.500,719119.300,719442.300,0.000
220663.000,254184.000,718604.300,678340.000,718644.800,257482.100,719105.200,719425.700,0.000
218275.200,252895.300,718606.200,674160.100,718646.800,256342.900,719103.700,719421.300,0.000
219787.700,253577.300,718623.400,673064.100,718663.800,256918.900,719122.400,719440.400,0.000
222903.000,255154.400,718628.800,673715.300,718668.400,258287.600,719131.000,719452.300,0.000
223026.600,255216.800,718619.400,672196.200,718658.100,258338.000,719121.600,719443.800,0.000
220655.000,253924.100,718609.300,668397.600,718647.800,257178.700,719108.100,719427.500,0.000
218272.500,252647.500,718614.100,664276.800,718652.300,256039.200,719109.200,719424.800,0.000
219798.000,253345.300,718633.100,663253.900,718671.000,256629.200,719128.700,719445.800,0.000
222908.800,254921.000,718635.200,663967.600,718672.400,258000.500,719134.900,719454.900,0.000
223020.300,254975.800,718622.600,662501.400,718659.900,258044.300,719122.600,719443.300,0.000
220651.800,253690.900,718613.700,658769.500,718650.200,256894.000,719109.600,719427.900,0.000
218273.600,252417.400,718618.000,654720.000,718653.300,255765.500,719109.600,719424.800,0.000
219805.500,253121.400,718637.800,653766.600,718672.800,256362.100,719130.900,719446.200,0.000
222920.300,254703.100,718642.400,654547.400,718677.400,257737.200,719140.100,719458.500,0.000
223025.600,254751.500,718629.000,653141.200,718663.300,257778.500,719126.800,719445.800,0.000
220656.200,253468.800,718618.800,649470.600,718652.900,256624.700,719112.200,719429.400,0.000
218273.200,252196.400,718620.900,645482.800,718654.300,255491.100,719109.900,719423.900,0.000
219804.600,252905.600,718642.600,644596.800,718675.100,256091.100,719132.600,719446.900,0.000
222913.300,254483.500,718650.100,645440.600,718682.300,257468.300,719143.800,719461.100,0.000
222993.300,254514.900,718634.800,644071.700,718666.600,257491.800,719128.600,719446.600,0.000
220633.700,253233.200,718624.000,640463.500,718655.400,256341.600,719114.300,719429.800,0.000
218293.200,251988.100,718628.200,636566.400,718658.800,255232.000,719114.500,719426.300,0.000
219812.300,252689.100,718645.800,635730.100,718675.900,255821.200,719132.900,719445.800,0.000
222914.900,254260.300,718647.000,636625.400,718677.300,257187.100,719138.400,719454.400,0.000
223016.200,254305.000,718634.300,635338.400,718664.300,257229.100,719126.100,719442.400,0.000
220644.200,253016.300,718622.600,631782.600,718651.800,256074.000,719110.600,719424.600,0.000
218268.400,251748.800,718625.900,627916.100,718654.600,254941.300,719109.300,719420.300,0.000
219800.700,252458.600,718645.600,627148.900,718673.500,255539.400,719130.100,719441.700,0.000
222919.100,254048.700,718652.900,628117.500,718680.400,256924.400,719141.600,719456.400,0.000
223013.100,254094.200,718640.000,626881.300,718668.000,256964.300,719128.800,719444.200,0.000
220641.200,252813.400,718631.700,623387.500,718659.100,255816.000,719116.600,719430.000,0.000
218275.000,251552.300,718635.500,619589.600,718662.200,254698.500,719116.300,719425.900,0.000
219820.400,252278.000,718654.100,618890.900,718680.100,255307.700,719136.300,719446.200,0.000
222916.500,253859.400,718657.700,619900.600,718683.200,256679.000,719143.400,719457.000,0.000
223012.800,253911.500,718645.200,618725.000,718670.900,256724.900,719131.300,719445.600,0.000
220647.800,252640.300,718635.200,615294.800,718659.900,255585.800,719117.300,719428.800,0.000
218279.600,251383.500,718639.100,611555.200,718663.700,254471.300,719117.300,719425.100,0.000
219819.700,252101.000,718657.900,610911.000,718682.200,255083.600,719137.400,719445.800,0.000
222928.400,253689.200,718664.500,611991.000,718688.300,256473.200,719148.100,719460.100,0.000
223020.400,253738.000,718649.600,610864.100,718672.900,256518.700,719133.300,719445.800,0.000
220646.200,252456.200,718640.600,607479.700,718663.700,255373.400,719120.600,719430.200,0.000
218291.200,251211.500,718646.400,603800.700,718668.900,254266.200,719122.100,719428.300,0.000
219840.200,251940.100,718664.900,603215.100,718686.500,254883.100,719141.600,719448.900,0.000
222929.700,253520.900,718668.100,604331.400,718689.400,256258.100,719149.000,719459.900,0.000
223020.300,253578.200,718656.300,603258.500,718677.300,256305.800,719137.400,719448.600,0.000
220651.000,252306.300,718646.700,599930.400,718667.300,255162.400,719123.800,719432.300,0.000
218284.100,251052.200,718648.500,596294.600,718668.400,254046.900,719121.200,719426.100,0.000
219826.600,251773.500,718669.300,595757.700,718688.600,254659.000,719143.300,719448.600,0.000
222927.500,253349.800,718673.100,596930.800,718692.200,256036.500,719151.600,719460.600,0.000
223025.400,253403.600,718660.800,595911.700,718680.100,256086.100,719139.900,719449.800,0.000
220651.800,252129.100,718651.200,592630.600,718669.900,254943.200,719126.100,719432.900,0.000
218281.300,250874.900,718654.300,589042.100,718672.200,253824.900,719124.900,719427.900,0.000
219822.300,251601.300,718673.500,588555.300,718690.600,254437.800,719145.100,719449.100,0.000
222911.200,253183.700,718677.800,589771.400,718694.300,255815.500,719153.800,719461.800,0.000
222994.300,253227.300,718661.900,588789.500,718678.400,255859.000,719137.800,719446.600,0.000
220624.700,251946.500,718652.900,585553.300,718669.100,254717.200,719124.800,719430.400,0.000
218283.000,250709.300,718661.800,582031.100,718677.200,253623.700,719129.100,719430.600,0.000
219841.000,251446.900,718682.600,581603.900,718697.900,254254.100,719151.800,719453.900,0.000
222927.800,253020.700,718685.300,582866.000,718700.400,255631.100,719158.600,719464.900,0.000
223005.500,253058.700,718672.000,581929.300,718687.200,255672.100,719145.600,719452.900,0.000
220632.600,251776.900,718660.600,578735.900,718675.100,254523.400,719130.400,719434.600,0.000
218270.300,250526.000,718663.000,575239.800,718676.800,253409.300,719128.600,719427.900,0.000
219820.900,251256.200,718684.600,574857.800,718698.300,254035.900,719151.600,719452.400,0.000
222916.500,252844.400,718689.400,576173.600,718703.100,255422.700,719160.200,719465.400,0.000
223008.300,252904.300,718678.300,575288.300,718691.300,255473.900,719149.200,719454.900,0.000
220632.400,251628.200,718668.900,572139.900,718681.400,254332.000,719136.100,719438.700,0.000
218274.500,250381.500,718671.500,568695.300,718683.300,253226.700,719134.100,719432.500,0.000
219831.800,251121.500,718691.300,568356.700,718703.100,253855.400,719155.900,719455.300,0.000
222916.100,252706.500,718695.700,569708.800,718707.300,255237.600,719164.800,719468.400,0.000
223002.600,252763.600,718684.900,568867.700,718695.800,255292.300,719153.600,719458.300,0.000
220620.200,251483.900,718675.300,565755.300,718685.600,254148.600,719139.900,719441.400,0.000
218259.100,250238.600,718678.600,562346.600,718688.600,253043.500,719139.300,719435.800,0.000
219820.100,250978.700,718695.200,562048.800,718705.000,253672.200,719157.300,719454.900,0.000
222905.500,252561.800,718698.200,563437.800,718707.900,255050.400,719164.600,719467.000,0.000
222971.300,252597.800,718685.300,562617.200,718694.900,255088.500,719152.100,719455.200,0.000
220600.200,251326.500,718676.400,559551.900,718685.300,253951.700,719138.900,719438.700,0.000
218250.300,250087.300,718681.600,556189.700,718689.800,252852.600,719139.700,719434.800,0.000
219811.600,250827.700,718701.300,555934.900,718709.300,253484.200,719161.100,719457.400,0.000
222900.200,252413.700,718702.500,557366.100,718710.400,254863.100,719166.200,719467.600,0.000
222978.000,252468.200,718691.500,556593.100,718699.100,254909.600,719155.300,719457.300,0.000
220588.200,251181.000,718680.900,553552.000,718688.200,253759.400,719141.600,719439.300,0.000
218234.800,249935.000,718685.000,550228.300,718691.700,252657.300,719141.800,719434.400,0.000
219802.700,250682.200,718703.800,550017.000,718710.900,253290.300,719161.900,719456.200,0.000
222898.100,252279.500,718710.000,551495.300,718716.600,254679.800,719172.300,719471.700,0.000
222957.600,252314.700,718695.500,550742.900,718701.900,254711.700,719158.000,719458.200,0.000
220564.700,251027.600,718684.700,547733.200,718690.500,253560.800,719143.400,719439.800,0.000
218214.000,249783.100,718687.600,544449.600,718692.800,252463.400,719142.400,719432.900,0.000
219788.800,250535.300,718706.900,544280.900,718711.400,253100.700,719163.400,719454.900,0.000
222865.600,252119.100,718709.800,545783.900,718714.000,254479.500,719169.900,719467.100,0.000
222887.000,252131.200,718694.600,545037.800,718699.000,254490.100,719154.700,719453.000,0.000
220522.800,250854.500,718687.000,542081.600,718691.100,253352.000,719143.400,719437.800,0.000
218225.500,249648.700,718692.300,538876.400,718696.300,252286.800,719144.600,719433.300,0.000
219792.900,250393.300,718709.000,538742.100,718712.600,252922.000,719162.900,719453.500,0.000
222867.800,251972.500,718713.100,540280.600,718716.600,254300.500,719171.300,719467.400,0.000
222937.900,252024.500,718701.900,539613.100,718705.000,254347.100,719160.400,719456.800,0.000
220554.300,250748.200,718690.800,536677.800,718693.400,253196.000,719145.600,719437.800,0.000
218202.900,249504.400,718693.200,533461.900,718695.300,252096.600,719143.400,719429.800,0.000
219771.500,250247.300,718711.800,533363.700,718713.300,252734.700,719163.600,719451.400,0.000
222846.900,251825.000,718713.500,534936.100,718714.900,254113.700,719169.800,719463.600,0.000
222908.500,251864.800,718700.700,534290.100,718702.100,254150.900,719157.300,719452.100,0.000
220530.900,250592.400,718689.200,531390.300,718690.300,253004.700,719141.700,719432.300,0.000
218185.800,249350.500,718692.400,528212.300,718692.800,251906.100,719140.500,719424.800,0.000
219773.000,250108.000,718714.000,528163.800,718714.500,252553.400,719163.900,719450.000,0.000
222837.200,251678.800,718715.400,529765.100,718715.600,253927.400,719169.600,719462.400,0.000
222898.000,251720.900,718700.600,529151.200,718701.100,253963.000,719155.200,719448.700,0.000
220524.400,250453.000,718692.500,526290.900,718692.300,252825.300,719143.100,719431.800,0.000
218175.800,249212.400,718692.800,523135.200,718692.100,251723.400,719139.200,719420.800,0.000
219746.500,249956.300,718708.200,523098.700,718707.300,252357.500,719156.100,719439.600,0.000
222814.900,251533.800,718711.400,524731.400,718710.200,253734.100,719163.500,719453.600,0.000
222883.700,251589.300,718702.900,524159.300,718701.700,253786.200,719155.300,719446.300,0.000
220491.700,250310.800,718691.900,521318.500,718690.300,252640.900,719140.900,719426.900,0.000
218141.900,249070.100,718693.900,518199.400,718692.100,251540.800,719138.700,719417.200,0.000
219735.600,249842.300,718713.400,518219.300,718711.000,252195.800,719159.800,719439.800,0.000
222797.800,251421.600,718713.800,519883.600,718711.400,253570.600,719164.300,719452.000,0.000
222843.100,251453.600,718696.900,519319.300,718694.100,253597.600,719147.800,719436.300,0.000
220460.100,250179.400,718687.000,516510.700,718683.900,252457.400,719134.300,719417.100,0.000
218118.400,248945.800,718689.600,513425.300,718685.900,251368.100,719132.200,719407.000,0.000
219696.800,249695.500,718708.700,513462.900,718704.800,252014.900,719152.900,719430.600,0.000
222772.800,251282.800,718712.800,515163.600,718708.800,253397.800,719161.300,719447.200,0.000
222823.300,251320.300,718696.600,514633.000,718692.600,253430.100,719145.000,719432.100,0.000
220439.600,250046.500,718686.100,511847.100,718681.600,252284.900,719130.600,719411.800,0.000
218107.200,248822.800,718691.900,508795.600,718687.200,251200.300,719132.800,719403.800,0.000
219698.900,249584.900,718710.800,508871.600,718705.600,251853.500,719152.900,719426.900,0.000
222757.000,251153.300,718711.600,510588.300,718706.300,253228.400,719158.100,719441.800,0.000
222815.300,251195.400,718699.600,510082.200,718694.400,253264.500,719146.800,719431.500,0.000
220437.500,249921.000,718688.400,507322.600,718682.600,252123.000,719132.000,719409.500,0.000
218109.700,248697.200,718691.400,504304.500,718685.300,251043.500,719130.700,719396.900,0.000
219698.400,249457.200,718709.100,504406.800,718702.600,251696.100,719149.900,719419.600,0.000
222763.900,251039.400,718711.800,506160.400,718705.400,253077.000,719156.500,719437.600,0.000
222826.900,251093.300,718700.300,505697.800,718694.000,253122.500,719145.400,719428.100,0.000
220441.200,249821.300,718690.500,502966.500,718683.800,251980.800,719131.800,719406.500,0.000
218098.000,248588.700,718691.400,499960.400,718684.300,250888.000,719128.800,719389.400,0.000
219686.500,249353.000,718710.900,500097.200,718703.800,251546.300,719149.700,719415.200,0.000
222748.200,250934.300,718714.200,501877.700,718706.900,252930.900,719157.100,719435.800,0.000
222794.000,250973.700,718699.600,501425.300,718692.500,252965.700,719143.600,719423.500,0.000
220407.100,249705.100,718689.800,498718.600,718681.800,251823.300,719129.800,719400.100,0.000
218075.900,248482.800,718692.200,495745.700,718683.600,250740.900,719127.900,719378.800,0.000
219664.300,249241.500,718709.300,495901.600,718700.800,251396.500,719146.600,719404.200,0.000
222715.100,250806.400,718712.300,497693.800,718703.900,252775.400,719153.800,719429.000,0.000
222767.800,250847.900,718699.000,497266.300,718690.200,252816.400,719140.700,719417.700,0.000
220388.000,249577.900,718687.400,494586.400,718678.100,251675.400,719125.100,719389.800,0.000
218055.500,248354.900,718688.800,491639.300,718679.100,250592.600,719122.800,719331.800,0.000
219645.000,249114.900,718707.500,491825.200,718697.600,251252.300,719142.900,719373.100,0.000
222711.300,250700.900,718713.800,493659.800,718704.100,252646.300,719153.900,719426.100,0.000
222746.200,250734.800,718696.300,493244.700,718686.900,252680.400,719137.300,719411.100,0.000
220347.800,249452.200,718682.800,490569.800,718672.900,251528.800,719119.700,719357.900,0.000
218014.100,248232.600,718686.400,487647.700,718675.900,250449.000,719113.300,719044.800,0.000
219624.500,249013.700,718707.300,487877.100,718696.700,251122.600,719137.400,719186.400,0.000
222678.500,250590.600,718710.800,489724.800,718699.900,252501.900,719148.600,719414.200,0.000
222722.500,250631.200,718698.100,489340.400,718687.100,252538.100,719136.400,719407.500,0.000
220332.200,249357.000,718687.000,486695.800,718675.900,251393.600,719120.800,719298.500,0.000
217996.800,248130.300,718686.900,483787.300,718675.800,250306.100,719109.200,718617.600,0.000
219597.000,248900.200,718705.300,484021.800,718693.400,250964.900,719131.000,718879.800,0.000
222656.400,250484.600,718709.600,485896.600,718697.500,252352.400,719145.800,719394.100,0.000
222699.300,250526.900,718698.100,485535.600,718686.100,252394.000,719134.700,719401.500,0.000
220316.500,249260.900,718685.800,482916.300,718673.700,251254.600,719116.400,719178.900,0.000
217987.900,248040.500,718687.400,480039.300,718675.400,250175.400,719105.900,718091.100,0.000
219585.500,248806.300,718705.700,480296.400,718693.200,250835.900,719128.300,718493.600,0.000
222629.100,250373.500,718709.600,482178.000,718696.400,252213.300,719143.600,719355.400,0.000
222645.400,250400.100,718697.300,481810.500,718684.100,252238.600,719132.400,719392.400,0.000
220262.600,249129.800,718685.000,479209.600,718672.000,251098.700,719113.600,718987.800,0.000
217977.200,247935.000,718686.700,476385.100,718673.900,250044.900,719103.100,717478.900,0.000
219585.900,248707.300,718705.600,476671.700,718692.300,250713.600,719125.300,718015.500,0.000
222638.900,250283.000,718708.500,478582.900,718695.000,252098.500,719140.800,719284.400,0.000
222677.600,250323.300,718696.500,478258.300,718682.300,252140.100,719129.900,719374.500,0.000
220282.500,249051.700,718682.600,475669.300,718668.500,250995.300,719107.300,718692.800,0.000
217954.600,247836.000,718682.100,472827.400,718668.000,249915.400,719095.500,716800.400,0.000
219563.500,248608.500,718701.900,473136.400,718688.000,250585.300,719118.900,717458.500,0.000
222616.300,250182.500,718705.400,475064.300,718690.700,251968.000,719135.600,719164.800,0.000
222646.300,250213.400,718691.800,474746.900,718676.900,251999.800,719123.500,719325.100,0.000
220270.500,248957.900,718682.800,472188.300,718667.600,250868.000,719103.500,718274.400,0.000
217950.500,247744.500,718685.400,469374.300,718670.100,249794.600,719096.700,716101.400,0.000
219568.100,248523.200,718704.300,469705.700,718688.900,250466.200,719118.800,716849.800,0.000
222623.200,250100.200,718709.800,471658.800,718694.400,251851.900,719137.400,718978.600,0.000
222645.300,250121.300,718694.900,471357.600,718679.200,251879.600,719124.100,719219.800,0.000
220256.600,248853.700,718678.700,468808.800,718663.300,250736.400,719095.500,717724.600,0.000
217925.900,247631.700,718676.800,466006.200,718660.900,249653.400,719086.100,715354.000,0.000
219537.600,248406.400,718696.100,466354.200,718679.900,250320.000,719107.600,716153.800,0.000
222583.300,249974.900,718699.600,468315.200,718683.400,251695.900,719122.200,718605.600,0.000
222619.000,250016.200,718686.800,468038.800,718670.400,251730.200,719111.800,718945.100,0.000
220225.000,248747.800,718674.000,465510.900,718657.700,250592.000,719087.500,717066.000,0.000
217914.900,247545.400,718680.300,462744.900,718664.300,249528.000,719087.800,714626.300,0.000
219533.400,248326.500,718699.100,463120.800,718682.900,250202.000,719108.700,715465.200,0.000
222582.300,249904.000,718698.500,465108.300,718682.000,251583.000,719114.100,718030.300,0.000
222609.500,249939.200,718684.700,464850.700,718668.300,251618.300,719101.300,718386.000,0.000
220208.600,248658.500,718674.000,462335.400,718657.300,250476.900,719084.800,716381.700,0.000
217890.100,247451.300,718676.500,459577.600,718659.100,249404.400,719081.900,713904.000,0.000
219506.300,248236.200,718695.400,459972.000,718677.900,250082.100,719103.100,714762.100,0.000
222541.800,249805.500,718698.300,461971.700,718680.800,251464.800,719111.800,717394.300,0.000
222568.000,249841.500,718684.300,461728.200,718667.100,251501.300,719098.400,717745.800,0.000
220186.600,248584.800,718672.600,459240.100,718655.100,250375.100,719081.900,715678.900,0.000
217864.500,247366.100,718675.500,456498.400,718657.600,249305.500,719080.300,713199.800,0.000
219482.000,248141.800,718695.400,456911.300,718677.200,249982.400,719102.100,714064.500,0.000
222537.800,249729.200,718700.100,458938.400,718682.300,251373.600,719112.300,716743.400,0.000
222568.800,249769.900,718687.200,458710.400,718668.900,251411.600,719100.100,717095.100,0.000
220176.600,248501.500,718675.900,456232.600,718657.400,250278.200,719084.200,714977.000,0.000
217851.700,247283.100,718677.400,453505.400,718658.600,249205.200,719080.800,712512.600,0.000
219467.900,248064.100,718693.800,453925.200,718674.900,249874.400,719098.800,713365.200,0.000
222517.100,249647.400,718697.700,455963.700,718678.400,251263.800,719107.600,716047.800,0.000
222541.200,249682.500,718681.900,455749.800,718662.500,251298.300,719092.400,716391.800,0.000
220150.800,248416.800,718672.000,453288.000,718652.300,250163.000,719077.800,714251.300,0.000
217848.700,247217.200,718676.900,450595.400,718656.800,249108.000,719077.800,711834.800,0.000
219473.800,247997.100,718693.600,451044.100,718673.100,249787.200,719096.300,712693.600,0.000
222512.300,249567.900,718694.100,453090.100,718673.800,251163.300,719102.400,715346.300,0.000
222541.800,249611.000,718681.800,452896.100,718661.300,251202.100,719090.400,715688.900,0.000
220151.200,248344.600,718671.600,450445.100,718651.200,250066.300,719076.100,713549.900,0.000
217841.600,247137.300,718674.300,447759.800,718653.300,249001.300,719073.600,711155.000,0.000
219468.300,247922.200,718691.900,448226.200,718670.900,249680.600,719093.300,712005.600,0.000
222508.600,249498.800,718695.200,450295.300,718674.000,251068.200,719102.100,714639.800,0.000
222520.800,249523.600,718678.900,450098.600,718657.800,251090.800,719085.800,714959.000,0.000
220131.900,248265.800,718669.100,447666.800,718647.800,249955.500,719071.700,712842.100,0.000
217814.900,247057.400,718671.000,444992.100,718649.100,248887.400,719068.900,710477.900,0.000
219437.900,247837.200,718684.500,445471.500,718663.100,249562.600,719084.600,711316.700,0.000
222476.100,249412.000,718685.600,447550.200,718664.400,250945.100,719090.800,713909.800,0.000
222493.500,249447.500,718672.200,447376.500,718650.600,250979.300,719077.900,714232.100,0.000
220095.000,248179.800,718661.400,444952.900,718639.400,249844.100,719062.700,712139.700,0.000
217779.000,246967.700,718661.000,442286.900,718638.400,248770.700,719057.700,709799.600,0.000
219413.900,247757.400,718679.300,442787.700,718656.800,249455.700,719077.800,710642.200,0.000
222451.700,249331.800,718682.600,444881.500,718660.400,250841.300,719086.300,713203.400,0.000
222465.900,249363.800,718667.700,444718.900,718645.100,250875.500,719071.600,713515.200,0.000
220071.200,248095.700,718658.100,442309.400,718635.300,249740.700,719058.300,711452.100,0.000
217768.300,246890.300,718663.000,439670.700,718639.600,248682.800,719058.700,709154.100,0.000
219406.500,247678.300,718680.900,440191.200,718657.800,249372.900,719078.400,709993.400,0.000
222443.100,249251.900,718684.400,442300.600,718661.800,250761.100,719087.100,712525.200,0.000
222451.900,249281.800,718669.800,442149.100,718647.100,250791.500,719072.900,712829.400,0.000
220055.600,248021.000,718658.600,439751.600,718635.400,249654.400,719057.400,710791.600,0.000
217741.900,246811.900,718658.100,437116.800,718634.400,248584.600,719052.400,708502.400,0.000
219376.900,247601.500,718678.300,437648.900,718654.300,249271.400,719074.300,709336.900,0.000
222397.700,249160.200,718677.200,439753.900,718653.400,250640.500,719078.000,711826.100,0.000
222365.300,249155.800,718660.800,439572.400,718637.100,250639.200,719061.800,712080.600,0.000
219990.900,247900.000,718649.600,437197.300,718625.900,249509.000,719046.600,710072.100,0.000
217728.800,246729.300,718652.100,434623.600,718627.900,248475.400,719045.200,707843.400,0.000
219369.700,247528.700,718671.500,435181.000,718646.700,249171.500,719066.600,708683.100,0.000
222404.000,249107.700,718674.900,437319.300,718650.600,250558.400,719074.700,711169.500,0.000
222411.200,249139.800,718659.400,437192.200,718635.300,250589.300,719059.600,711460.000,0.000
220007.200,247868.200,718646.400,434815.000,718621.400,249449.600,719042.600,709454.800,0.000
217703.000,246666.300,718647.900,432212.800,718622.800,248388.900,719039.600,707203.500,0.000
219353.900,247468.900,718669.600,432782.900,718644.900,249087.000,719063.400,708048.300,0.000
222389.900,249045.800,718673.000,434930.900,718648.300,250473.800,719071.700,710520.700,0.000
222391.400,249072.700,718657.500,434810.400,718632.600,250499.100,719056.400,710804.000,0.000
219981.000,247796.800,718643.100,432435.700,718617.800,249351.100,719037.900,708805.100,0.000
217693.300,246609.200,718649.600,429862.000,718623.800,248305.500,719040.400,706578.300,0.000
219340.200,247403.000,718666.900,430435.300,718641.100,248993.600,719059.500,707408.700,0.000
222365.500,248968.800,718665.500,432581.000,718639.800,250367.900,719062.700,709855.400,0.000
222374.000,249002.800,718653.600,432476.900,718627.800,250400.600,719050.900,710139.600,0.000
219978.500,247737.900,718641.800,430126.600,718615.700,249266.000,719035.100,708161.100,0.000
217684.200,246542.600,718646.900,427555.700,718620.300,248213.500,719035.900,705931.900,0.000
219330.600,247334.900,718665.100,428145.500,718638.800,248905.300,719056.400,706764.400,0.000
222361.400,248907.800,718666.100,430312.100,718639.800,250287.300,719061.800,709210.000,0.000
222378.000,248952.700,718652.800,430225.900,718626.900,250327.800,719049.400,709502.000,0.000
219973.900,247683.500,718642.900,427887.200,718616.400,249197.300,719034.900,707537.300,0.000
217667.500,246481.900,718643.300,425318.100,718616.500,248135.600,719031.300,705306.800,0.000
219320.200,247281.300,718661.100,425923.600,718634.300,248828.100,719050.900,706140.800,0.000
222349.500,248847.600,718662.900,428102.300,718636.000,250209.600,719056.900,708579.800,0.000
222355.400,248875.300,718649.200,428015.000,718621.900,250236.000,719043.400,708853.800,0.000
219960.000,247613.900,718637.800,425687.800,718610.100,249100.900,719028.300,706889.900,0.000
217667.400,246420.200,718643.300,423148.500,718615.600,248055.300,719030.400,704676.700,0.000
219322.800,247222.900,718663.700,423773.300,718635.700,248756.000,719052.400,705518.100,0.000
222353.300,248795.700,718668.300,425966.900,718640.400,250143.400,719061.600,707958.600,0.000
222363.200,248833.600,718654.800,425891.200,718627.200,250177.100,719048.400,708236.900,0.000
219960.800,247564.400,718641.000,423564.900,718613.600,249037.400,719031.100,706273.300,0.000
217671.000,246372.100,718644.800,421032.200,718616.500,247989.200,719030.400,704062.800,0.000
219339.100,247180.400,718663.000,421671.800,718634.400,248696.000,719050.600,704910.800,0.000
222365.800,248746.700,718665.200,423868.800,718636.700,250078.000,719057.400,707339.600,0.000
222359.500,248766.800,718653.900,423794.400,718625.700,250101.300,719046.200,707606.800,0.000
219950.800,247490.600,718644.800,421479.100,718616.600,248963.700,719033.700,705644.100,0.000
217666.300,246305.000,718648.800,418959.200,718620.000,247921.200,719033.900,703437.700,0.000
219327.100,247114.500,718664.700,419600.300,718636.100,248620.500,719051.400,704277.900,0.000
222354.900,248691.900,718667.000,421809.000,718638.500,250005.900,719057.700,706708.400,0.000
222351.200,248719.000,718652.900,421747.300,718624.400,250035.800,719044.000,706980.500,0.000
219945.700,247453.000,718644.800,419448.500,718616.100,248909.600,719032.300,705031.200,0.000
217647.800,246258.500,718648.600,416935.700,718619.400,247860.000,719032.100,702823.600,0.000
219310.500,247069.000,718665.800,417593.300,718636.300,248559.800,719051.200,703667.600,0.000
222346.600,248653.300,718668.200,419818.600,718639.100,249952.100,719058.300,706101.300,0.000
222341.600,248680.600,718654.800,419766.700,718625.800,249982.000,719045.100,706371.800,0.000
219934.100,247413.500,718644.800,417470.300,718615.600,248847.400,719031.800,704419.200,0.000
217641.700,246223.800,718648.300,414961.900,718618.600,247798.400,719031.300,702213.500,0.000
219299.100,247023.600,718664.300,415621.600,718634.600,248495.600,719048.900,703055.800,0.000
222314.100,248584.100,718666.300,417843.300,718636.600,249875.300,719055.600,705476.100,0.000
222306.300,248610.100,718650.400,417792.800,718621.300,249899.100,719040.400,705737.700,0.000
219907.700,247353.600,718644.800,415511.300,718615.100,248775.000,719031.300,703794.600,0.000
217613.200,246157.200,718647.500,413010.500,718616.900,247723.000,719029.400,701586.900,0.000
219281.200,246967.900,718666.200,413691.800,718635.300,248430.800,719049.300,702440.800,0.000
222300.500,248539.200,718666.200,415919.200,718636.300,249806.500,719053.900,704859.000,0.000
222292.700,248567.800,718654.600,415882.000,718624.800,249834.800,719043.100,705126.800,0.000
219888.600,247305.600,718645.100,413605.600,718615.100,248702.000,719030.100,703174.800,0.000
217594.600,246112.100,718647.400,411116.400,718617.100,247650.000,719028.600,700969.200,0.000
219269.500,246928.300,718668.200,411812.800,718637.600,248359.500,719050.900,701827.900,0.000
222291.200,248498.600,718668.500,414053.900,718638.100,249739.300,719055.800,704250.100,0.000
222270.600,248513.200,718650.600,414010.500,718620.100,249754.700,719038.100,704504.300,0.000
219864.300,247246.200,718639.600,411737.100,718608.900,248620.200,719023.100,702551.700,0.000
217574.000,246056.900,718642.900,409257.900,718612.100,247572.800,719023.100,700350.800,0.000
219243.700,246863.600,718661.200,409954.600,718630.300,248274.800,719042.800,701202.300,0.000
222270.300,248434.800,718665.800,412210.100,718634.600,249663.700,719051.400,703626.900,0.000
222266.700,248466.400,718651.600,412187.800,718620.800,249692.300,719038.300,703890.600,0.000
219860.200,247201.600,718642.100,409918.400,718611.200,248559.200,719025.600,701935.900,0.000
217570.300,246010.000,718642.700,407444.900,718611.200,247512.100,719022.500,699735.200,0.000
219247.500,246819.800,718660.400,408153.200,718628.600,248216.800,719041.400,700589.300,0.000
222254.900,248378.500,718660.600,410396.700,718628.900,249585.100,719045.600,702995.600,0.000
222202.500,248374.200,718648.100,410346.300,718616.500,249588.900,719033.100,703226.400,0.000
219818.200,247116.100,718638.100,408096.900,718605.900,248460.500,719019.400,701280.000,0.000
217585.400,245958.500,718639.800,405673.000,718607.300,247440.300,719017.900,699114.900,0.000
219266.800,246773.000,718656.200,406394.600,718624.200,248152.800,719036.300,699974.300,0.000
222276.600,248332.600,718655.200,408648.800,718623.200,249527.600,719039.200,702383.200,0.000
222262.900,248355.000,718644.800,408638.600,718612.300,249554.200,719028.800,702644.900,0.000
219848.500,247076.500,718633.500,406379.600,718601.100,248411.800,719014.500,700682.800,0.000
217566.400,245880.600,718634.600,403922.800,718602.000,247361.900,719012.400,698482.100,0.000
219266.300,246712.000,718655.400,404669.700,718622.900,248086.800,719035.200,699359.100,0.000
222280.600,248277.000,718654.800,406938.400,718622.600,249464.700,719038.600,701771.800,0.000
222254.000,248296.000,718641.900,406922.300,718608.900,249481.200,719025.200,702019.700,0.000
219842.100,247029.200,718631.300,404675.500,718598.300,248342.300,719011.600,700063.600,0.000
217555.900,245834.600,718632.700,402227.300,718599.500,247291.100,719009.300,697862.900,0.000
219243.400,246651.000,718650.800,402971.900,718617.900,248007.500,719029.300,698729.700,0.000
222265.300,248223.000,718652.500,405250.800,718619.700,249389.100,719034.600,701146.600,0.000
222244.100,248240.800,718638.600,405245.600,718605.600,249408.000,719020.900,701396.300,0.000
219834.900,246976.200,718627.800,403007.200,718594.900,248272.200,719007.100,699440.800,0.000
217558.900,245795.500,718631.500,400574.500,718598.300,247229.400,719007.400,697250.000,0.000
219245.000,246615.200,718649.100,401327.800,718615.900,247944.900,719026.500,698117.000,0.000
222256.000,248182.100,718650.900,403616.900,718618.100,249329.100,719032.900,700532.900,0.000
222232.600,248203.800,718639.100,403622.300,718606.000,249349.400,719021.300,700785.600,0.000
219819.500,246935.300,718629.100,401391.000,718595.900,248211.500,719008.100,698829.400,0.000
217537.800,245746.000,718629.700,398960.400,718595.900,247165.300,719005.500,696631.100,0.000
219230.000,246567.700,718646.900,399721.800,718613.400,247881.800,719023.800,697497.800,0.000
222249.000,248140.700,718651.400,402023.100,718618.300,249269.900,719032.300,699917.800,0.000
222222.700,248156.100,718637.700,402031.600,718604.100,249289.800,719018.600,700166.100,0.000
219805.600,246878.600,718624.200,399798.300,718590.200,248149.100,719001.800,698200.800,0.000
217543.100,245706.300,718629.800,397392.900,718595.500,247123.800,719004.300,696021.800,0.000
219239.700,246534.000,718647.800,398163.000,718613.800,247843.800,719024.200,696892.800,0.000
222245.500,248098.900,718648.900,400455.300,718614.400,249220.100,719029.000,699298.400,0.000
222209.900,248107.100,718634.400,400467.600,718600.100,249235.600,719014.400,699542.400,0.000
219792.800,246832.900,718622.200,398241.100,718588.100,248094.600,718999.100,697580.200,0.000
217521.300,245650.100,718625.700,395829.800,718590.800,247056.300,718999.300,695392.300,0.000
219213.000,246467.300,718643.900,396603.800,718608.900,247772.500,719019.200,696262.700,0.000
222222.900,248034.100,718644.400,398908.800,718609.500,249151.300,719023.400,698674.200,0.000
222192.500,248054.400,718629.000,398932.400,718594.400,249171.500,719008.100,698922.400,0.000
219772.700,246784.900,718618.800,396716.100,718583.800,248032.900,718993.900,696961.600,0.000
217501.500,245605.600,718620.800,394315.800,718585.600,246996.000,718983.400,694776.000,0.000
219198.600,246427.400,718637.300,395099.800,718601.800,247712.000,719006.900,695648.400,0.000
222213.900,248002.500,718641.600,397418.900,718606.000,249101.100,719020.000,698068.400,0.000
222174.700,248012.400,718628.100,397445.400,718592.400,249118.300,719006.400,698314.300,0.000
219755.000,246736.700,718617.300,395236.600,718582.100,247980.500,718991.800,696307.200,0.000
217482.400,245552.600,718619.200,392836.000,718583.500,246934.900,718987.500,693597.200,0.000
219179.300,246376.700,718638.800,393627.800,718603.200,247652.100,719009.800,694719.900,0.000
222193.600,247949.400,718640.700,395951.600,718605.900,249036.100,719018.600,697864.900,0.000
222161.900,247968.900,718627.500,395988.900,718592.800,249057.800,719006.100,698171.400,0.000
219748.000,246704.300,718617.500,393787.600,718581.800,247921.200,718991.400,696150.300,0.000
217486.000,245529.800,718622.100,391404.300,718586.100,246886.300,718991.200,693429.800,0.000
219187.300,246355.200,718642.100,392209.000,718606.300,247605.800,719013.100,694593.100,0.000
222194.400,247923.100,718644.800,394536.100,718609.300,248984.600,719021.300,697758.600,0.000
222157.800,247937.700,718628.300,394569.500,718592.800,248997.400,719005.100,698062.700,0.000
219732.400,246658.400,718614.500,392363.700,718578.600,247851.700,718987.500,696012.700,0.000
217464.800,245476.400,718619.200,389982.300,718582.900,246813.600,718988.000,693270.800,0.000
219174.200,246311.600,718637.800,390798.300,718601.400,247541.600,719007.900,694473.800,0.000
222184.700,247881.100,718637.800,393129.900,718601.600,248923.900,719013.400,697662.600,0.000
222142.900,247888.700,718624.400,393170.600,718588.400,248940.900,719001.000,697977.900,0.000
219719.000,246608.600,718613.800,390971.900,718577.400,247800.500,718986.300,695932.600,0.000
217448.400,245426.500,718615.700,388593.100,718579.600,246761.400,718984.100,693186.000,0.000
219162.800,246265.600,718636.100,389418.400,718599.600,247490.000,719005.700,694373.900,0.000
222174.300,247837.300,718638.700,391755.500,718602.300,248871.100,719013.800,697587.700,0.000
222129.000,247845.800,718622.800,391792.500,718586.200,248880.700,718998.500,697906.100,0.000
219703.400,246568.500,718611.700,389599.000,718574.800,247739.900,718983.300,695849.000,0.000
217440.500,245391.600,718614.900,387232.600,718577.900,246705.900,718982.300,693105.000,0.000
219150.900,246223.200,718634.000,388061.300,718597.000,247431.200,719003.200,694314.100,0.000
222169.500,247798.900,718637.600,390410.400,718600.100,248818.800,719012.200,697531.400,0.000
222131.500,247813.200,718624.600,390459.900,718587.000,248836.500,719000.100,697853.500,0.000
219703.700,246535.800,718611.800,388268.500,718574.400,247693.600,718982.800,695791.900,0.000
217428.300,245346.400,718616.200,385905.200,718578.500,246657.100,718983.100,693045.900,0.000
219151.200,246188.200,718636.000,386747.300,718598.400,247389.800,719004.800,694264.300,0.000
222162.800,247757.300,718636.800,389093.700,718599.800,248768.000,719011.300,697473.600,0.000
222115.500,247759.400,718619.600,389138.000,718582.300,248774.800,718994.500,697786.900,0.000
219691.200,246482.400,718609.700,386955.000,718572.500,247634.600,718979.600,695729.800,0.000
217419.000,245296.700,718610.500,384588.400,718573.700,246590.800,718976.500,692973.300,0.000
219133.500,246132.200,718630.300,385431.600,718592.600,247320.800,718998.300,694148.300,0.000
222136.800,247699.100,718634.600,387784.100,718597.100,248704.600,719007.800,697398.300,0.000
222045.800,247670.400,718618.900,387801.200,718581.600,248688.000,718993.300,697703.300,0.000
219648.700,246409.600,718606.100,385632.100,718568.800,247553.900,718975.400,695641.100,0.000
217423.800,245257.700,718608.100,383312.400,718570.400,246541.600,718973.100,692919.800,0.000
219130.300,246085.500,718625.100,384156.800,718587.300,247267.800,718992.600,694114.800,0.000
222133.700,247651.000,718627.700,386516.000,718590.000,248653.600,719000.600,697363.600,0.000
222105.200,247679.900,718617.400,386593.500,718579.600,248682.200,718991.200,697719.100,0.000
219692.700,246418.200,718609.400,384437.200,718571.600,247556.400,718978.500,695663.300,0.000
217412.800,245227.800,718608.400,382077.800,718570.500,246506.900,718973.300,692897.100,0.000
219122.200,246059.400,718626.100,382927.700,718588.100,247228.300,718993.600,694092.600,0.000
222128.700,247628.500,718630.700,385291.800,718593.100,248609.300,719003.700,697342.800,0.000
222093.700,247645.000,718620.300,385367.000,718582.300,248628.400,718993.400,697692.200,0.000
219672.800,246373.600,718610.100,383205.300,718571.900,247491.600,718978.100,695627.400,0.000
217404.300,245195.200,718613.000,380865.900,718575.400,246457.400,718977.700,692878.300,0.000
219121.900,246031.600,718630.500,381727.700,718592.500,247186.300,718997.400,694082.100,0.000
222129.800,247600.700,718633.100,384094.700,718595.100,248565.900,719004.900,697328.900,0.000
222080.000,247607.100,718619.900,384164.000,718581.300,248577.300,718992.300,697667.400,0.000
219656.100,246334.800,718610.300,382006.200,718571.700,247441.300,718977.700,695589.900,0.000
217393.400,245160.500,718613.000,379672.700,718574.300,246409.000,718976.700,692841.400,0.000
219111.500,245997.900,718631.100,380542.200,718592.400,247139.000,718996.800,694071.500,0.000
222106.600,247556.000,718631.500,382908.000,718592.800,248513.400,719002.600,697312.500,0.000
222057.100,247564.300,718614.600,382974.500,718575.700,248520.200,718986.800,697644.400,0.000
219631.700,246291.300,718604.300,380817.600,718565.900,247380.800,718972.300,695552.200,0.000
217372.000,245116.800,718609.000,378491.100,718570.500,246347.800,718973.400,692802.900,0.000
219095.300,245956.700,718628.800,379367.100,718590.200,247081.800,718994.400,694056.400,0.000
222097.100,247520.200,718630.400,381742.500,718591.800,248463.800,719001.600,697303.600,0.000
222050.800,247527.500,718618.400,381827.100,718579.800,248480.600,718990.000,697643.400,0.000
219638.100,246264.900,718609.600,379682.700,718570.800,247349.000,718976.200,695569.600,0.000
217385.100,245097.100,718614.500,377364.700,718575.400,246320.300,718977.800,692825.500,0.000
219107.500,245932.000,718630.600,378242.800,718591.400,247047.400,718995.600,694051.200,0.000
222111.800,247497.600,718631.500,380627.100,718592.500,248428.800,719001.900,697298.600,0.000
222053.600,247496.200,718614.100,380702.200,718575.000,248434.100,718984.700,697627.300,0.000
219620.500,246216.500,718604.300,378547.000,718565.200,247290.700,718970.300,695529.200,0.000
217365.400,245051.000,718608.900,376232.900,718569.600,246264.400,718971.500,692788.000,0.000
219081.600,245881.600,718623.900,377114.700,718584.700,246991.500,718988.100,694039.900,0.000
222079.300,247445.500,718626.900,379497.800,718587.900,248369.100,718996.800,697284.300,0.000
222029.800,247456.200,718614.500,379584.800,718575.700,248383.900,718985.400,697622.200,0.000
219603.900,246182.400,718606.100,377438.300,718566.900,247245.000,718972.300,695527.100,0.000
217350.400,245006.200,718608.600,375123.600,718568.600,246210.400,718970.900,692775.300,0.000
219083.300,245852.600,718625.400,376021.400,718585.400,246947.900,718989.500,694036.200,0.000
222079.500,247415.400,718626.500,378405.100,718587.200,248322.800,718996.400,697276.300,0.000
222023.800,247416.900,718613.400,378486.900,718574.100,248329.800,718984.200,697603.300,0.000
219607.200,246150.500,718606.800,376355.400,718566.900,247201.100,718972.400,695516.800,0.000
217363.500,244991.300,718612.300,374061.000,718572.300,246183.000,718974.400,692783.600,0.000
219095.000,245835.300,718629.600,374961.400,718589.700,246917.400,718993.300,694044.300,0.000
222092.800,247398.500,718629.700,377350.700,718589.900,248295.600,718999.100,697285.900,0.000
222026.400,247391.600,718613.400,377427.300,718573.300,248296.700,718982.900,697607.100,0.000
219599.100,246117.500,718603.400,375286.100,718563.300,247157.000,718968.100,695511.100,0.000
217359.500,244959.400,718609.300,372994.300,718568.900,246140.500,718970.300,692778.700,0.000
219095.200,245807.000,718627.600,373902.100,718587.300,246881.300,718990.300,694044.900,0.000
222089.700,247369.400,718631.400,376295.800,718590.600,248261.300,718999.300,697287.800,0.000
222023.900,247364.400,718616.600,376380.300,718576.000,248263.400,718985.600,697607.400,0.000
219595.400,246088.300,718605.100,374243.900,718564.800,247124.000,718969.800,695507.100,0.000
217347.000,244923.000,718607.300,371946.000,718566.700,246098.400,718967.600,692760.400,0.000
219086.000,245772.300,718627.400,372861.000,718586.800,246844.500,718989.100,694027.000,0.000
222096.100,247347.800,718634.600,375271.200,718594.100,248237.800,719002.100,697281.800,0.000
222039.800,247351.400,718620.100,375363.900,718579.200,248243.700,718988.000,697608.600,0.000
219602.700,246068.900,718606.300,373226.100,718565.400,247094.900,718969.800,695504.300,0.000
217355.900,244903.300,718611.800,370937.100,718570.600,246070.700,718971.600,692762.100,0.000
219092.400,245751.000,718632.500,371857.700,718591.400,246816.300,718993.900,694011.300,0.000
222096.700,247326.100,718637.800,374271.600,718596.800,248208.000,719004.800,697283.700,0.000
222049.200,247341.400,718626.800,374383.200,718585.100,248228.600,718994.100,697635.200,0.000
219617.400,246062.900,718614.200,372249.800,718572.700,247082.400,718977.600,695529.800,0.000
217360.400,244888.500,718614.500,369953.000,718573.200,246046.000,718974.300,692775.800,0.000
219086.000,245725.100,718631.900,370865.600,718590.900,246775.300,718992.800,694013.100,0.000
222078.700,247284.400,718631.600,373267.500,718590.400,248147.200,718997.900,697269.100,0.000
222010.800,247275.400,718615.600,373365.300,718574.400,248150.200,718982.500,697605.500,0.000
219581.000,245996.700,718604.900,371238.300,718563.600,247008.300,718967.800,695491.400,0.000
217336.800,244832.300,718607.800,368953.700,718565.900,245982.500,718966.900,692747.800,0.000
219081.200,245688.600,718627.100,369881.300,718585.400,246727.200,718987.700,694035.800,0.000
222070.900,247255.300,718629.900,372284.300,718588.300,248103.300,718995.800,697274.400,0.000
221960.300,247224.500,718616.100,372344.100,718574.000,248079.900,718982.300,697559.300,0.000
219556.500,245962.700,718604.600,370234.700,718562.500,246950.800,718966.400,695469.800,0.000
217362.500,244834.900,718609.900,368001.700,718568.000,245962.400,718968.400,692773.700,0.000
219107.800,245696.900,718631.700,368946.200,718590.200,246717.100,718992.000,694057.000,0.000
222100.400,247261.700,718633.900,371361.600,718592.400,248097.900,718999.500,697300.900,0.000
222031.000,247259.600,718619.900,371464.600,718578.300,248100.600,718986.300,697622.600,0.000
219597.300,245980.900,718609.900,369341.400,718568.400,246958.900,718971.900,695519.800,0.000
217352.800,244814.000,718613.400,367065.400,718571.400,245936.400,718971.900,692777.600,0.000
219084.100,245651.900,718629.400,367994.400,718587.500,246672.100,718989.300,694038.800,0.000
222080.800,247220.400,718633.300,370412.600,718591.800,248056.900,718998.800,697284.600,0.000
222020.900,247224.500,718623.600,370526.100,718581.600,248071.300,718990.000,697615.100,0.000
219593.800,245951.400,718614.100,368413.700,718571.900,246933.700,718975.600,695517.600,0.000
217334.200,244772.400,718613.400,366128.600,718570.700,245898.500,718971.300,692763.800,0.000
219076.100,245624.100,718631.500,367064.200,718588.900,246639.500,718991.000,694032.700,0.000
222072.200,247192.000,718634.200,369490.900,718592.100,248024.200,718999.300,697283.100,0.000
222003.300,247192.300,718620.600,369602.800,718578.500,248030.400,718986.200,697606.100,0.000
219570.200,245920.200,718609.900,367489.000,718567.300,246893.200,718970.400,695504.900,0.000
217327.200,244759.900,718613.600,365221.700,718570.900,245869.600,718970.800,692762.100,0.000
219069.500,245609.300,718633.000,366164.400,718590.400,246613.300,718991.800,694013.500,0.000
222063.100,247170.800,718633.000,368583.900,718590.800,247992.700,718997.400,697269.600,0.000
221997.700,247167.600,718619.200,368697.300,718577.100,248000.200,718984.400,697603.700,0.000
219562.200,245885.700,718606.200,366579.300,718564.000,246852.500,718966.900,695494.100,0.000
217320.600,244723.500,718612.800,364322.300,718570.400,245836.700,718969.600,692757.100,0.000
219064.300,245571.800,718629.900,365271.100,718587.400,246580.300,718988.300,694008.400,0.000
222066.600,247140.800,718631.100,367696.600,718588.400,247959.200,718995.100,697266.400,0.000
222011.500,247150.800,718622.600,367821.300,718579.500,247973.500,718987.200,697609.800,0.000
219573.800,245866.700,718609.900,365706.200,718567.100,246830.700,718970.200,695489.300,0.000
217320.900,244687.800,718610.900,363435.300,718567.800,245799.800,718967.900,692742.900,0.000
219075.200,245540.900,718630.800,364396.100,718587.900,246550.700,718988.900,694044.300,0.000
222067.600,247102.200,718632.100,366821.000,718589.300,247926.200,718995.700,697281.400,0.000
221990.000,247093.000,718615.900,366930.100,718572.800,247924.600,718980.000,697592.100,0.000
219551.700,245811.300,718603.600,364817.200,718560.500,246778.300,718963.000,695470.400,0.000
217319.300,244656.000,718607.900,362569.100,718564.300,245762.500,718963.300,692743.300,0.000
219073.800,245516.300,718628.000,363534.100,718584.800,246513.000,718985.500,694046.100,0.000
222057.700,247075.200,718628.800,365956.500,718585.800,247884.800,718991.800,697277.400,0.000
221979.500,247067.100,718616.100,366069.800,718572.800,247884.500,718979.500,697590.300,0.000
219552.700,245797.700,718607.000,363974.800,718563.800,246751.000,718966.300,695495.500,0.000
217322.400,244648.000,718613.600,361736.600,718570.400,245744.800,718969.300,692770.900,0.000
219077.500,245507.900,718632.700,362704.700,718589.200,246496.600,718989.600,694048.900,0.000
222060.600,247065.900,718635.300,365135.600,718591.800,247872.900,718997.400,697284.900,0.000
221992.200,247069.700,718621.600,365255.800,718577.900,247878.200,718984.800,697604.600,0.000
219546.900,245781.600,718607.000,363139.100,718563.400,246726.200,718965.900,695489.600,0.000
217304.700,244616.500,718611.600,360890.000,718567.900,245706.900,718966.800,692756.100,0.000
219062.600,245480.400,718630.900,361864.800,718587.500,246463.800,718987.600,694043.700,0.000
222057.500,247046.900,718634.800,364306.500,718591.200,247847.900,718996.800,697288.300,0.000
221978.500,247038.400,718622.500,364430.300,718579.100,247851.900,718985.200,697605.500,0.000
219532.900,245751.700,718609.900,362318.500,718566.300,246701.400,718967.400,695490.100,0.000
217302.000,244597.800,718611.100,360073.000,718567.600,245682.700,718965.100,692754.800,0.000
219063.700,245464.900,718630.100,361050.700,718585.600,246437.700,718985.600,694042.900,0.000
222055.300,247029.900,718635.100,363489.900,718590.300,247818.200,718996.100,697285.700,0.000
221977.200,247021.900,718621.700,363612.200,718577.600,247816.400,718983.800,697597.100,0.000
219533.600,245738.300,718611.400,361511.400,718567.100,246669.200,718968.800,695473.800,0.000
217290.800,244570.900,718614.300,359264.900,718569.800,245644.000,718967.900,692732.300,0.000
219057.600,245440.000,718631.300,360246.800,718587.300,246397.700,718987.000,694035.400,0.000
222044.800,247000.100,718634.300,362690.100,718589.900,247780.500,718995.700,697275.300,0.000
221971.000,246997.300,718624.000,362821.300,718579.600,247789.000,718985.400,697594.300,0.000
219530.600,245715.800,718611.700,360720.100,718567.400,246640.300,718968.500,695467.100,0.000
217295.500,244549.900,718612.300,358479.200,718567.400,245616.700,718965.700,692732.000,0.000
219062.200,245416.700,718630.800,359466.200,718586.700,246371.300,718986.000,694041.800,0.000
222048.700,246979.500,718633.300,361907.700,718589.500,247744.300,718994.300,697275.600,0.000
221971.500,246979.700,718619.600,362036.100,718575.400,247745.900,718980.900,697589.100,0.000
219533.300,245707.300,718608.400,359943.900,718564.200,246607.600,718965.200,695470.400,0.000
217296.800,244545.600,718610.800,357705.800,718566.400,245586.400,718963.900,692734.100,0.000
219060.200,245406.300,718629.800,358691.300,718585.400,246336.800,718984.400,694038.800,0.000
222051.000,246982.800,718636.300,361149.300,718592.100,247724.000,718996.800,697280.100,0.000
221958.000,246987.400,718621.800,361272.200,718577.100,247724.700,718983.100,697576.900,0.000
219504.300,245694.800,718609.100,359163.300,718564.600,246572.300,718965.700,695438.800,0.000
217290.300,244529.800,718611.500,356937.600,718566.400,245560.000,718964.400,692714.700,0.000
219063.100,245390.200,718627.900,357926.000,718583.100,246316.100,718982.400,694025.300,0.000
222038.600,246950.500,718632.100,360364.800,718587.300,247685.900,718991.900,697260.800,0.000
221903.500,246916.800,718620.400,360454.800,718575.600,247654.800,718980.800,697530.800,0.000
219483.000,245645.800,718609.900,358376.500,718565.200,246522.900,718965.500,695416.600,0.000
217295.800,244501.600,718610.800,356178.400,718565.900,245525.800,718963.500,692713.100,0.000
219070.700,245368.600,718630.400,357181.700,718585.400,246285.800,718984.200,694030.300,0.000
222051.700,246932.300,718634.400,359637.400,718589.400,247665.400,718993.300,697271.400,0.000
221963.800,246922.100,718618.000,359763.100,718572.900,247661.500,718978.100,697573.800,0.000
219524.200,245642.400,718607.600,357671.000,718562.400,246519.500,718962.500,695449.800,0.000
217294.500,244481.000,718611.100,355443.900,718565.800,245505.400,718962.700,692719.200,0.000
219067.600,245347.800,718630.200,356442.000,718585.200,246263.400,718983.700,694033.300,0.000
222041.300,246904.400,718631.800,358888.400,718586.600,247636.200,718991.200,697264.900,0.000
221954.300,246899.400,718617.300,359022.600,718572.300,247637.000,718977.700,697572.300,0.000
219515.100,245619.600,718606.400,356933.100,718561.400,246493.800,718961.900,695445.900,0.000
217280.800,244453.700,718607.800,354702.900,718562.500,245472.500,718959.900,692708.300,0.000
219058.400,245327.000,718628.100,355711.400,718582.400,246233.600,718981.400,694027.900,0.000
222045.700,246897.500,718634.000,358173.800,718588.700,247619.200,718992.900,697272.900,0.000
221959.300,246889.500,718620.100,358307.100,718575.000,247616.100,718979.500,697578.900,0.000
219513.500,245603.300,718609.600,356220.900,718564.300,246473.500,718964.300,695455.300,0.000
217290.300,244451.200,718614.900,354007.500,718569.600,245463.100,718966.200,692729.100,0.000
219067.100,245319.600,718633.600,355020.500,718589.100,246223.100,718986.800,694049.100,0.000
222032.400,246863.900,718633.500,357465.800,718588.500,247586.100,718991.800,697274.400,0.000
221938.100,246847.400,718618.800,357594.900,718573.800,247578.700,718977.900,697572.100,0.000
219504.700,245574.300,718611.500,355518.700,718566.300,246442.500,718965.700,695453.000,0.000
217283.700,244420.900,718614.900,353310.300,718569.400,245435.700,718965.700,692729.700,0.000
219062.200,245288.600,718633.100,354323.700,718587.500,246198.700,718985.600,694048.600,0.000
222040.900,246844.500,718637.100,356777.800,718592.300,247571.600,718995.200,697280.300,0.000
221949.600,246830.700,718624.400,356915.600,718579.200,247572.400,718983.300,697586.000,0.000
219499.400,245546.400,718612.300,354827.800,718566.300,246425.400,718965.800,695453.300,0.000
217276.600,244397.400,718617.900,352619.600,718571.700,245417.200,718967.900,692730.100,0.000
219061.000,245274.000,718635.600,353642.400,718589.800,246179.700,718987.600,694054.100,0.000
222041.000,246834.300,718638.100,356106.300,718592.800,247556.800,718995.700,697290.500,0.000
221948.400,246822.900,718624.200,356244.400,718578.800,247552.500,718982.200,697593.800,0.000
219500.900,245538.600,718614.500,354165.600,718568.800,246412.100,718967.900,695468.800,0.000
217271.200,244380.600,718616.600,351952.300,718570.500,245395.000,718966.500,692736.900,0.000
219043.600,245245.700,718632.100,352964.100,718586.200,246144.000,718983.900,694048.200,0.000
222021.700,246802.300,718635.800,355429.200,718590.100,247521.300,718993.300,697285.600,0.000
221922.100,246783.900,718622.800,355567.300,718576.900,247518.400,718980.900,697586.400,0.000
219487.300,245517.800,718614.800,353496.500,718569.100,246384.300,718968.300,695467.900,0.000
217274.100,244373.300,718619.000,351303.100,718573.100,245385.300,718968.700,692754.700,0.000
219053.200,245239.000,718636.100,352323.800,718589.800,246143.000,718987.400,694073.900,0.000
222023.800,246788.100,718638.600,354781.000,718592.400,247511.100,718995.200,697302.300,0.000
221930.800,246770.500,718625.000,354921.600,718579.500,247507.700,718982.700,697604.500,0.000
219494.300,245495.400,718614.500,352842.000,718568.400,246363.600,718967.100,695474.900,0.000
217281.100,244348.000,718619.500,350648.000,718573.100,245361.600,718968.400,692760.100,0.000
219064.800,245215.300,718637.300,351677.300,718590.800,246124.800,718988.100,694086.200,0.000
222043.800,246776.100,718641.100,354142.700,718595.000,247500.800,718997.800,697320.000,0.000
221957.400,246774.700,718629.400,354291.800,718583.300,247502.900,718986.800,697626.100,0.000
219500.000,245481.400,718616.900,352204.300,718570.100,246351.500,718969.000,695488.700,0.000
217268.800,244317.800,718617.000,349989.700,718570.300,245330.000,718965.700,692751.500,0.000
219065.300,245199.100,718636.000,351029.000,718589.100,246101.200,718986.100,694084.600,0.000
222046.400,246761.100,718640.100,353501.600,718593.300,247480.800,718996.300,697323.600,0.000
221951.200,246750.700,718628.200,353643.800,718581.900,247478.500,718985.100,697625.600,0.000
219507.900,245475.200,718618.400,351569.100,718571.600,246337.000,718970.200,695511.300,0.000
217287.000,244321.900,718621.900,349371.800,718575.100,245327.500,718970.200,692786.900,0.000
219075.500,245194.000,718641.100,350406.300,718594.100,246089.200,718990.800,694092.000,0.000
222058.000,246757.600,718643.300,352877.800,718596.400,247466.600,718998.500,697329.400,0.000
221968.800,246754.200,718630.900,353028.900,718584.100,247469.900,718986.800,697635.000,0.000
219513.500,245467.200,718621.500,350951.700,718574.800,246324.600,718972.900,695514.300,0.000
217295.000,244320.000,718626.600,348758.800,718579.800,245320.600,718974.200,692792.200,0.000
219086.700,245199.800,718645.200,349799.000,718598.200,246086.100,718994.600,694097.600,0.000
222056.000,246752.400,718645.600,352260.800,718598.400,247452.400,719000.600,697320.300,0.000
221957.100,246732.900,718630.400,352397.700,718583.300,247439.500,718986.400,697612.400,0.000
219512.300,245451.300,718619.700,350325.000,718572.600,246295.000,718970.800,695495.900,0.000
217299.100,244301.000,718626.100,348137.800,718578.600,245293.200,718973.600,692780.800,0.000
219086.700,245174.900,718643.300,349180.300,718595.900,246059.100,718992.600,694089.800,0.000
222068.700,246740.100,718646.800,351655.300,718599.800,247436.800,719001.600,697325.600,0.000
221971.300,246725.600,718633.400,351799.700,718586.400,247433.200,718988.900,697621.900,0.000
219511.000,245429.400,718619.600,349716.700,718572.100,246279.400,718969.800,695478.500,0.000
217288.700,244268.500,718622.800,347521.000,718575.100,245264.700,718969.400,692751.100,0.000
219082.800,245140.000,718640.200,348567.000,718592.900,246027.500,718989.300,694082.800,0.000
222048.400,246687.100,718643.600,351034.200,718596.000,247394.800,718997.900,697310.400,0.000
221928.300,246663.500,718631.300,351157.500,718583.400,247374.000,718985.800,697585.100,0.000
219496.200,245390.700,718621.700,349095.700,718574.100,246237.200,718971.600,695472.000,0.000
217317.300,244266.400,718626.800,346942.400,718579.200,245251.500,718972.900,692781.600,0.000
219108.000,245138.100,718643.900,347991.300,718596.200,246015.200,718992.000,694093.100,0.000
222070.800,246681.400,718644.900,350463.500,718597.100,247382.400,718998.600,697319.800,0.000
221968.900,246669.800,718632.400,350612.700,718584.900,247379.100,718986.600,697616.100,0.000
219512.000,245382.500,718621.900,348539.600,718574.000,246232.300,718971.100,695482.700,0.000
217288.600,244229.400,718626.300,346346.700,718578.300,245220.200,718972.100,692758.400,0.000
219090.600,245113.100,718647.100,347403.700,718599.500,245992.800,718995.100,694099.300,0.000
222062.300,246667.100,718647.400,349879.600,718599.800,247362.200,719000.600,697328.400,0.000
221956.800,246647.300,718632.400,350028.600,718585.200,247352.200,718986.900,697619.300,0.000
219497.400,245359.000,718621.400,347957.200,718574.800,246204.400,718971.700,695483.300,0.000
217281.200,244208.000,718625.200,345773.700,718577.900,245196.100,718971.600,692765.600,0.000
219084.900,245092.200,718644.200,346836.000,718596.600,245967.900,718991.600,694107.800,0.000
222057.800,246648.500,718647.300,349313.600,718599.600,247342.200,718999.900,697338.900,0.000
221947.600,246625.500,718631.900,349456.700,718584.700,247331.700,718985.500,697624.600,0.000
219485.600,245333.600,718619.800,347382.100,718572.500,246182.300,718968.700,695482.400,0.000
217275.800,244188.800,718625.900,345208.800,718578.300,245179.200,718971.400,692771.600,0.000
219077.500,245071.400,718646.900,346274.300,718598.900,245952.200,718993.900,694115.900,0.000
222047.400,246625.800,718648.700,348751.900,718601.400,247327.000,719001.800,697348.200,0.000
221944.900,246611.700,718634.800,348902.500,718587.700,247324.500,718988.500,697641.600,0.000
219495.000,245332.800,718624.200,346834.500,718576.700,246178.300,718973.100,695517.300,0.000
217281.900,244184.400,718628.200,344653.700,718580.300,245169.900,718973.500,692794.900,0.000
219090.300,245066.700,718647.800,345719.900,718599.800,245942.200,718994.700,694115.500,0.000
222059.100,246619.900,718648.900,348198.800,718601.100,247313.100,719001.600,697343.700,0.000
221959.000,246607.100,718637.400,348353.600,718589.500,247310.700,718990.300,697638.900,0.000
219500.900,245318.600,718624.800,346285.200,718576.300,246162.200,718972.900,695513.600,0.000
217290.300,244170.800,718630.400,344113.700,718582.400,245160.300,718975.000,692800.300,0.000
219093.800,245050.800,718649.600,345179.300,718601.600,245931.000,718996.100,694115.900,0.000
222053.200,246592.900,718649.800,347654.400,718601.800,247294.700,719002.200,697335.700,0.000
221945.300,246573.100,718636.600,347807.000,718589.100,247287.900,718989.800,697626.900,0.000
219494.000,245292.300,718624.700,345740.900,718576.500,246139.500,718972.900,695489.600,0.000
217275.900,244134.600,718627.800,343564.300,718579.600,245130.800,718972.900,692769.100,0.000
219087.700,245019.800,718649.500,344636.100,718600.900,245904.700,718995.600,694113.900,0.000
222067.700,246584.500,718653.100,347127.200,718604.700,247283.300,719004.600,697352.300,0.000
221960.700,246570.100,718638.100,347281.600,718590.000,247278.700,718990.200,697645.000,0.000
219499.600,245282.600,718628.000,345214.000,718580.400,246129.400,718975.800,695505.900,0.000
217284.300,244130.700,718633.600,343036.700,718585.400,245120.700,718977.600,692785.400,0.000
219096.400,245016.500,718653.400,344112.600,718605.100,245897.800,718999.000,694133.400,0.000
222065.000,246570.800,718656.800,346599.600,718608.700,247272.900,719008.400,697363.900,0.000
221960.700,246558.600,718645.200,346755.500,718597.100,247267.200,718997.400,697655.600,0.000
219505.900,245274.000,718635.400,344695.900,718587.400,246124.700,718982.400,695533.100,0.000
217301.100,244127.500,718639.800,342533.100,718591.100,245126.800,718983.300,692821.700,0.000
219109.800,245012.100,718659.900,343607.400,718611.400,245900.800,719005.700,694145.800,0.000
222073.200,246565.000,718663.400,346093.300,718615.300,247272.700,719015.300,697374.400,0.000
221967.200,246551.700,718652.100,346253.800,718603.900,247268.300,719004.400,697667.100,0.000
219516.800,245270.000,718643.300,344198.000,718595.400,246128.300,718989.800,695560.400,0.000
217308.700,244123.200,718644.200,342027.400,718596.200,245121.000,718986.600,692840.200,0.000
219110.000,244998.000,718662.000,343097.300,718613.400,245887.200,719006.700,694133.000,0.000
222069.200,246543.300,718663.900,345576.700,718615.100,247251.300,719014.300,697354.600,0.000
221954.500,246515.400,718648.100,345723.100,718599.900,247232.100,718999.900,697632.700,0.000
219497.200,245222.200,718637.800,343663.400,718589.300,246084.400,718984.500,695493.900,0.000
217293.600,244078.700,718642.400,341500.300,718593.700,245080.500,718985.300,692778.300,0.000
219112.800,244971.800,718662.800,342587.700,718614.200,245856.800,719007.200,694128.400,0.000
222066.600,246515.600,718663.300,345068.800,718614.600,247221.800,719013.600,697350.500,0.000
221951.400,246494.700,718649.400,345225.000,718601.100,247213.100,719000.500,697639.000,0.000
219497.300,245211.400,718641.100,343166.400,718592.600,246068.000,718987.400,695500.400,0.000
217301.300,244075.500,718648.100,341010.100,718599.600,245073.100,718990.600,692794.100,0.000
219121.600,244975.200,718667.400,342100.200,718619.000,245855.200,719011.200,694150.400,0.000
222081.400,246524.400,718668.100,344589.800,718619.500,247226.200,719018.200,697378.400,0.000
221959.500,246490.300,718653.600,344735.500,718605.400,247206.900,719004.800,697655.600,0.000
219513.700,245213.200,718645.300,342683.400,718596.600,246066.000,718990.800,695535.200,0.000
217320.800,244074.700,718651.300,340532.900,718602.000,245073.700,718992.700,692828.800,0.000
219134.100,244957.300,718672.400,341619.100,718623.100,245849.900,719016.100,694156.800,0.000
222097.100,246510.600,718674.100,344106.500,718625.700,247217.400,719024.400,697380.300,0.000
221980.500,246483.300,718659.600,344261.200,718610.900,247204.000,719009.900,697663.100,0.000
219527.300,245195.500,718649.800,342202.200,718600.900,246056.800,718995.100,695522.300,0.000
217329.200,244053.600,718652.000,340044.500,718603.100,245055.100,718993.900,692810.100,0.000
219144.000,244942.300,718671.900,341135.700,718622.600,245834.300,719015.300,694163.100,0.000
222086.600,246478.300,718673.300,343614.900,718624.200,247195.500,719022.400,697377.900,0.000
221927.200,246425.200,718660.400,343733.100,718611.400,247154.700,719010.100,697623.400,0.000
219500.900,245158.700,718651.300,341692.100,718601.800,246019.300,718995.800,695508.600,0.000
217356.100,244060.800,718655.400,339579.200,718606.200,245051.900,718996.400,692832.600,0.000
219171.100,244952.700,718672.400,340671.500,718623.600,245830.400,719015.700,694160.900,0.000
222130.600,246505.400,718676.000,343164.700,718627.200,247201.600,719025.400,697386.400,0.000
222017.600,246483.000,718663.900,343326.700,718615.400,247191.600,719014.600,697671.900,0.000
219565.800,245198.200,718654.800,341275.600,718605.800,246048.300,718999.400,695547.800,0.000
217364.300,244055.000,718658.400,339123.700,718609.100,245050.500,718999.300,692835.800,0.000
219180.100,244944.300,718678.600,340219.200,718629.300,245830.100,719021.500,694169.400,0.000
222150.000,246507.300,718682.200,342718.500,718633.000,247204.300,719030.900,697401.100,0.000
222039.600,246490.000,718669.700,342881.200,718620.300,247197.600,719018.800,697686.900,0.000
219587.000,245202.500,718660.100,340828.900,718611.100,246049.900,719004.800,695560.600,0.000
217389.000,244054.400,718665.300,338677.100,718616.100,245047.400,719006.100,692848.300,0.000
219214.900,244946.000,718685.000,339780.200,718635.300,245830.700,719027.100,694185.100,0.000
222172.900,246493.600,718686.800,342273.900,718637.400,247197.000,719034.900,697408.000,0.000
222053.700,246465.600,718674.100,342431.200,718624.700,247182.300,719022.800,697686.900,0.000
219596.500,245179.600,718664.400,340379.600,718615.100,246033.900,719008.400,695557.400,0.000
217397.900,244039.800,718668.000,338234.500,718618.400,245034.900,719007.800,692845.800,0.000
219214.100,244928.300,718683.400,339327.500,718633.800,245809.400,719025.500,694173.800,0.000
222174.500,246479.300,718685.400,341818.600,718636.000,247176.200,719033.600,697397.300,0.000
222069.000,246466.800,718675.600,341986.900,718626.100,247175.100,719024.300,697688.600,0.000
219610.400,245176.100,718665.100,339935.800,718615.400,246029.600,719008.400,695560.400,0.000
217417.000,244040.100,718670.300,337792.400,718620.900,245034.000,719010.300,692855.800,0.000
219240.800,244937.700,718689.200,338896.400,718638.900,245817.900,719031.100,694193.300,0.000
222203.100,246495.400,718694.400,341396.400,718644.600,247193.600,719042.900,697422.800,0.000
222081.900,246478.400,718683.800,341559.100,718634.300,247186.300,719033.100,697707.600,0.000
219616.500,245190.500,718673.800,339504.600,718623.400,246040.400,719016.500,695591.100,0.000
217415.300,244051.300,718679.800,337359.000,718629.900,245045.400,719018.800,692882.800,0.000
219248.500,244955.500,718700.300,338472.100,718650.900,245835.900,719042.500,694210.600,0.000
222203.200,246508.800,718703.100,340967.800,718653.400,247206.400,719050.600,697439.600,0.000
222076.200,246479.700,718690.300,341117.500,718640.800,247185.400,719038.600,697713.600,0.000
219620.800,245195.300,718682.400,339066.900,718632.300,246039.200,719024.700,695599.900,0.000
217426.600,244057.300,718685.900,336924.900,718635.800,245042.800,719024.200,692895.900,0.000
219255.700,244956.400,718706.300,338033.800,718656.600,245830.000,719047.200,694235.600,0.000
222212.200,246507.600,718709.100,340528.200,718659.300,247197.900,719056.000,697440.100,0.000
222086.100,246478.600,718695.300,340682.400,718645.200,247178.900,719042.900,697700.000,0.000
219628.300,245193.800,718685.700,338633.400,718636.100,246032.100,719028.600,695571.800,0.000
217428.200,244050.000,718689.600,336487.300,718640.100,245029.900,719029.000,692860.800,0.000
219249.700,244943.000,718707.900,337592.300,718657.400,245809.600,719048.600,694197.100,0.000
222204.500,246496.300,718710.800,340090.700,718660.600,247176.200,719057.500,697420.900,0.000
222084.200,246478.400,718697.900,340253.200,718647.800,247161.800,719045.400,697700.900,0.000
219622.800,245194.700,718687.800,338204.900,718637.500,246014.300,719030.000,695572.600,0.000
217427.900,244059.300,718694.400,336066.900,718643.900,245023.700,719032.900,692867.400,0.000
219252.700,244951.700,718711.900,337177.500,718661.300,245805.600,719052.200,694205.300,0.000
222197.700,246488.900,718712.300,339668.600,718661.800,247165.900,719058.300,697421.500,0.000
222071.800,246462.000,718698.800,339824.600,718648.700,247146.300,719046.400,697693.300,0.000
219611.200,245172.500,718687.500,337769.100,718637.300,245991.300,719029.800,695542.900,0.000
217424.400,244039.600,718693.000,335633.900,718642.600,244999.800,719031.400,692842.100,0.000
219271.800,244953.600,718716.600,336762.900,718665.900,245799.800,719056.600,694221.500,0.000
222227.000,246501.100,718717.300,339260.000,718667.000,247165.900,719063.200,697441.400,0.000
222099.900,246471.900,718702.600,339413.700,718652.300,247146.300,719049.400,697710.800,0.000
219641.500,245184.400,718692.300,337363.200,718641.800,245997.000,719033.600,695577.900,0.000
217457.300,244051.900,718698.300,335228.700,718647.700,245006.200,719035.400,692875.500,0.000
219286.100,244947.700,718718.500,336343.600,718668.100,245791.200,719058.300,694216.800,0.000
222241.100,246499.300,718719.300,338842.100,718668.900,247156.500,719064.900,697438.400,0.000
222113.000,246476.600,718704.800,338996.700,718654.800,247135.900,719051.300,697708.100,0.000
219643.600,245184.400,718693.900,336943.500,718644.100,245984.100,719036.100,695558.700,0.000
217448.400,244041.200,718700.200,334805.500,718649.800,244989.800,719037.800,692852.900,0.000
219283.000,244939.600,718717.800,335926.100,718667.400,245776.800,719056.900,694219.100,0.000
222243.000,246496.800,718720.000,338431.400,718669.700,247147.800,719064.900,697444.100,0.000
222113.000,246468.400,718707.900,338590.200,718657.000,247130.400,719053.300,697714.800,0.000
219657.700,245185.500,718698.100,336544.400,718647.100,245985.600,719038.300,695585.800,0.000
217463.600,244043.200,718701.400,334407.500,718650.600,244988.500,719037.900,692880.400,0.000
219291.100,244932.000,718718.900,335522.200,718668.300,245767.400,719058.000,694219.000,0.000
222251.700,246488.400,718722.300,338026.700,718671.600,247135.500,719067.200,697442.400,0.000
222120.800,246460.500,718710.800,338185.700,718659.900,247116.700,719056.200,697714.900,0.000
219651.900,245166.800,718699.800,336132.800,718649.200,245964.500,719040.200,695578.200,0.000
217458.400,244028.100,718702.100,333997.900,718651.400,244969.500,719038.900,692869.900,0.000
219301.600,244938.400,718719.100,335126.400,718668.800,245761.100,719057.800,694220.400,0.000
222254.900,246494.300,718723.400,337634.700,718673.300,247134.000,719068.400,697449.000,0.000
222124.300,246469.200,718711.400,337799.400,718661.400,247120.500,719057.400,697725.400,0.000
219651.900,245174.400,718699.600,335748.800,718649.800,245968.300,719040.400,695589.600,0.000
217472.400,244046.500,718705.100,333620.300,718654.900,244973.700,719041.700,692886.300,0.000
219305.300,244942.800,718723.000,334741.400,718672.600,245757.500,719061.600,694228.300,0.000
222235.200,246475.000,718723.900,337229.500,718673.400,247112.200,719068.000,697434.400,0.000
222065.600,246424.700,718713.100,337354.800,718662.500,247070.600,719058.000,697672.300,0.000
219631.900,245152.100,718703.900,335324.400,718653.300,245935.600,719043.400,695553.900,0.000
217485.700,244042.900,718709.100,333233.300,718658.100,244969.900,719044.600,692885.800,0.000
219327.400,244949.700,718728.900,334361.900,718678.000,245757.700,719066.800,694235.500,0.000
222268.300,246486.500,718729.900,336858.300,718679.100,247117.400,719073.900,697450.600,0.000
222138.400,246452.000,718717.300,337021.100,718666.200,247097.900,719061.800,697718.600,0.000
219681.300,245166.500,718708.200,334981.900,718657.200,245953.600,719047.600,695588.900,0.000
217499.400,244036.600,718714.200,332860.600,718663.000,244966.500,719049.500,692889.700,0.000
219335.800,244939.500,718732.600,333990.500,718681.100,245755.500,719070.500,694256.900,0.000
222285.700,246492.200,718734.300,336495.200,718683.600,247120.400,719078.100,697460.500,0.000
222143.500,246455.800,718722.600,336654.000,718671.800,247099.000,719066.800,697715.400,0.000
219686.500,245170.800,718715.200,334615.600,718664.300,245957.700,719054.300,695575.900,0.000
217509.300,244043.500,718718.400,332493.200,718667.600,244969.900,719053.900,692879.000,0.000
219349.900,244950.600,718736.400,333624.800,718685.300,245759.700,719073.400,694268.400,0.000
222287.900,246488.700,718739.100,336125.600,718687.800,247119.600,719082.100,697463.600,0.000
222149.300,246450.900,718724.500,336288.700,718673.400,247098.200,719068.100,697717.300,0.000
219686.500,245161.500,718714.600,334251.900,718663.400,245954.500,719053.300,695588.000,0.000
217508.300,244034.800,718720.400,332130.600,718669.100,244965.700,719055.000,692890.900,0.000
219348.100,244938.700,718739.300,333258.800,718688.000,245750.900,719076.100,694238.000,0.000
222296.900,246487.400,718741.500,335764.300,718690.700,247117.000,719084.700,697460.400,0.000
222171.300,246465.600,718730.100,335932.800,718679.300,247103.900,719074.000,697735.800,0.000
219706.800,245175.300,718720.800,333888.800,718670.300,245952.900,719059.300,695611.700,0.000
217526.000,244045.800,718725.500,331771.500,718674.900,244966.800,719060.400,692913.300,0.000
219363.400,244945.900,718743.700,332905.800,718692.800,245755.800,719080.800,694238.100,0.000
222307.600,246490.000,718745.300,335413.800,718694.300,247119.100,719088.400,697458.800,0.000
222161.200,246446.000,718731.400,335571.500,718680.500,247093.900,719074.900,697721.400,0.000
219702.300,245157.900,718721.400,333527.500,718670.300,245943.000,719059.800,695586.300,0.000
217527.600,244032.500,718724.300,331405.800,718673.100,244952.400,719058.800,692887.500,0.000
219379.500,244944.900,718747.200,332551.400,718695.700,245749.700,719083.600,694266.900,0.000
222323.900,246490.100,718749.800,335056.800,718698.500,247112.700,719092.300,697465.000,0.000
222178.900,246451.800,718734.800,335213.300,718683.600,247086.100,719078.000,697712.300,0.000
219706.400,245158.400,718724.100,333166.100,718672.800,245933.000,719062.200,695559.500,0.000
217527.500,244030.600,718733.200,331054.400,718681.500,244951.800,719067.200,692869.100,0.000
219379.300,244943.100,718752.600,332197.400,718701.100,245748.000,719088.800,694267.900,0.000
222319.000,246484.100,718752.800,334700.400,718701.900,247108.700,719095.500,697464.500,0.000
222174.500,246446.400,718737.600,334857.700,718686.900,247082.300,719080.600,697713.800,0.000
219720.900,245164.900,718730.300,332826.700,718679.600,245940.200,719068.400,695589.300,0.000
217541.700,244031.800,718735.100,330711.400,718684.000,244949.300,719069.300,692892.900,0.000
219379.500,244929.400,718755.400,331848.500,718704.100,245735.400,719091.300,694242.400,0.000
222324.900,246476.300,718756.900,334355.400,718705.600,247095.500,719098.700,697456.000,0.000
222190.800,246450.400,718744.200,334523.700,718693.100,247077.100,719086.900,697725.100,0.000
219725.700,245159.600,718732.600,332482.300,718681.600,245926.100,719070.100,695575.500,0.000
217551.500,244033.400,718737.800,330370.800,718685.900,244942.000,719071.600,692884.300,0.000
219396.200,244940.500,718755.000,331512.900,718703.300,245734.500,719090.300,694279.800,0.000
222337.000,246483.300,718756.600,334018.600,718705.200,247095.300,719097.900,697475.900,0.000
222197.700,246449.700,718745.500,334182.200,718694.200,247074.500,719087.800,697728.800,0.000
219738.700,245166.300,718737.200,332148.200,718685.600,245931.700,719074.000,695598.500,0.000
217555.000,244031.500,718740.100,330031.300,718688.300,244940.100,719073.300,692897.100,0.000
219404.100,244938.000,718758.400,331174.500,718707.400,245731.300,719093.600,694268.800,0.000
222350.700,246481.500,718760.000,333684.100,718708.700,247092.900,719100.900,697466.800,0.000
222209.300,246446.200,718747.300,333847.800,718696.300,247070.200,719089.400,697716.300,0.000
219740.300,245155.100,718737.600,331806.900,718686.900,245920.000,719075.300,695565.300,0.000
217560.800,244027.300,718741.800,329690.800,718690.300,244928.100,719075.600,692868.200,0.000
219411.300,244934.600,718760.700,330835.000,718709.300,245720.300,719096.400,694245.600,0.000
222363.600,246484.400,718765.400,333350.300,718714.100,247088.200,719106.500,697466.300,0.000
222226.500,246451.200,718752.600,333515.000,718701.300,247066.500,719094.000,697729.900,0.000
219756.500,245159.800,718742.400,331474.100,718691.100,245916.000,719078.600,695578.600,0.000
217572.100,244025.500,718746.800,329358.800,718695.600,244927.500,719080.100,692881.400,0.000
219419.200,244931.000,718762.700,330503.600,718711.500,245718.300,719097.800,694257.100,0.000
222365.800,246473.400,718765.600,333016.000,718714.600,247082.300,719106.400,697475.300,0.000
222230.500,246444.100,718755.100,333183.500,718703.800,247064.200,719096.600,697742.800,0.000
219765.800,245155.000,718743.700,331143.800,718692.500,245915.600,719080.100,695604.800,0.000
217581.500,244022.400,718746.800,329029.100,718695.100,244925.000,719079.100,692903.700,0.000
219431.000,244932.300,718767.100,330176.800,718715.600,245718.100,719101.400,694279.400,0.000
222373.400,246477.900,718769.400,332688.500,718717.900,247082.100,719109.900,697476.800,0.000
222233.000,246444.700,718757.100,332854.500,718705.600,247062.700,719098.500,697726.400,0.000
219763.600,245150.900,718745.300,330812.400,718693.600,245913.100,719081.900,695573.400,0.000
217591.700,244027.800,718752.000,328710.700,718700.600,244934.500,719084.800,692889.400,0.000
219439.500,244931.400,718768.800,329859.300,718717.300,245725.600,719103.100,694267.800,0.000
222380.200,246475.500,718772.300,332368.800,718720.800,247089.700,719112.200,697479.100,0.000
222198.800,246412.200,718760.700,332496.900,718709.100,247041.500,719101.200,697704.400,0.000
219746.800,245126.400,718750.300,330461.900,718698.300,245893.600,719085.600,695554.900,0.000
217615.300,244026.600,718754.400,328390.600,718702.100,244933.500,719085.700,692893.300,0.000
219473.000,244941.000,718775.200,329552.000,718723.300,245733.500,719108.800,694301.800,0.000
222404.700,246475.700,718774.600,332055.400,718723.000,247085.200,719114.400,697490.100,0.000
222251.500,246434.200,718760.300,332212.900,718708.600,247055.300,719100.400,697731.600,0.000
219785.200,245147.300,718750.000,330180.300,718697.700,245910.000,719085.000,695585.000,0.000
217609.700,244016.500,718752.900,328072.900,718700.700,244921.800,719084.600,692892.800,0.000
219470.100,244932.900,718774.200,329234.600,718722.400,245724.400,719108.100,694299.800,0.000
222407.300,246471.200,718774.200,331741.800,718722.500,247081.100,719113.700,697491.700,0.000
222252.200,246421.600,718760.600,331898.200,718708.800,247050.400,719100.600,697730.900,0.000
219783.000,245128.400,718750.700,329857.000,718698.600,245897.700,719085.400,695574.800,0.000
217612.000,244005.500,718755.900,327753.000,718703.500,244913.300,719087.100,692884.900,0.000
219471.500,244918.700,718774.000,328910.200,718722.000,245709.000,719107.400,694287.900,0.000
222411.800,246458.000,718774.300,331417.900,718722.100,247065.200,719113.100,697480.300,0.000
222272.500,246421.600,718763.500,331584.000,718711.400,247041.900,719102.800,697728.100,0.000
219809.100,245133.100,718754.000,329545.700,718701.700,245893.400,719088.100,695574.300,0.000
217638.100,244006.800,718757.200,327443.000,718704.400,244909.200,719087.900,692886.300,0.000
219494.200,244915.900,718774.900,328601.500,718722.500,245702.400,719108.100,694293.900,0.000
222431.300,246457.800,718776.400,331108.200,718724.600,247058.100,719115.400,697485.500,0.000
222278.000,246417.900,718760.400,331262.700,718708.200,247023.900,719100.000,697721.600,0.000
219805.100,245121.700,718749.500,329222.100,718697.100,245869.100,719084.000,695564.300,0.000
217641.100,244003.000,718754.000,327122.300,718701.900,244886.300,719085.100,692877.800,0.000
219501.400,244913.700,718772.900,328284.800,718721.100,245684.200,719105.800,694287.300,0.000
222438.600,246454.800,718774.400,330793.800,718722.400,247043.900,719112.800,697482.300,0.000
222292.000,246416.600,718762.100,330954.400,718709.800,247017.000,719101.100,697722.600,0.000
219821.300,245120.500,718752.800,328918.700,718700.600,245868.600,719086.800,695569.300,0.000
217651.200,243997.300,718756.900,326818.300,718704.600,244887.900,719086.900,692883.200,0.000
219517.800,244917.500,718777.700,327988.500,718725.300,245692.900,719109.600,694299.100,0.000
222463.700,246467.700,718782.200,330509.100,718729.900,247060.300,719119.900,697501.500,0.000
222308.300,246426.800,718771.600,330674.200,718719.700,247034.700,719110.300,697744.800,0.000
219827.900,245126.600,718761.400,328632.900,718709.000,245879.300,719094.800,695585.600,0.000
217655.700,244002.700,718765.400,326530.500,718712.700,244891.800,719095.100,692891.500,0.000
219521.500,244910.700,718784.200,327700.600,718731.800,245690.200,719115.900,694301.400,0.000
222451.600,246435.000,718782.900,330206.700,718730.600,247039.600,719120.300,697484.000,0.000
222293.700,246384.500,718769.600,330361.800,718717.000,247006.100,719107.700,697716.100,0.000
219822.700,245090.300,718757.100,328320.200,718705.000,245850.500,719090.300,695553.800,0.000
217641.000,243950.800,718757.100,326210.800,718704.600,244854.500,719086.700,692853.900,0.000
219506.200,244858.000,718775.600,327379.400,718722.700,245653.200,719107.300,694266.800,0.000
222457.900,246411.700,718778.300,329898.300,718725.900,247017.900,719115.900,697468.200,0.000
222304.100,246372.700,718766.600,330061.600,718714.300,246989.400,719104.600,697708.200,0.000
219827.500,245076.900,718756.900,328020.600,718704.600,245833.800,719089.900,695544.800,0.000
217661.200,243950.800,718761.900,325924.400,718708.900,244852.900,719091.300,692856.900,0.000
219542.600,244874.700,718780.400,327108.100,718727.600,245660.600,719112.000,694280.000,0.000
222491.300,246421.600,718782.400,329635.100,718730.300,247027.700,719120.200,697487.200,0.000
222330.000,246378.100,718772.100,329798.900,718719.800,247001.600,719110.400,697730.400,0.000
219834.600,245070.300,718760.900,327745.700,718708.600,245836.700,719094.000,695560.500,0.000
217664.100,243946.100,718762.400,325642.800,718710.000,244845.800,719091.900,692867.100,0.000
219559.400,244889.700,718781.900,326840.000,718729.600,245663.800,719113.100,694304.900,0.000
222498.500,246443.100,718783.300,329368.100,718730.900,247031.100,719120.600,697513.300,0.000
222317.300,246384.000,718768.100,329512.700,718715.800,246986.700,719106.300,697736.100,0.000
219838.600,245082.800,718760.300,327473.500,718707.900,245831.000,719093.100,695577.000,0.000
217700.400,243970.500,718768.500,325400.800,718715.600,244862.500,719097.700,692910.300,0.000
219599.500,244905.200,718788.900,326606.100,718736.300,245684.200,719119.900,694353.500,0.000
222536.900,246452.000,718784.900,329128.500,718732.600,247042.500,719121.600,697554.500,0.000
222344.800,246394.400,718769.400,329268.100,718717.300,246992.500,719107.100,697773.200,0.000
219843.500,245087.900,718763.600,327215.200,718711.400,245827.000,719096.300,695597.400,0.000
217694.300,243973.300,718768.800,325133.400,718715.600,244852.900,719097.600,692921.800,0.000
219623.400,244931.800,718788.700,326361.800,718735.700,245690.700,719118.900,694390.400,0.000
222567.000,246484.100,718790.000,328906.800,718737.600,247064.000,719126.600,697614.900,0.000
222361.100,246414.400,718773.600,329043.300,718720.800,247012.500,719110.800,697831.300,0.000
219843.100,245094.800,718761.800,326969.800,718709.300,245831.000,719093.100,695649.300,0.000
217702.800,243986.800,718767.300,324892.500,718714.600,244860.400,719094.400,692977.800,0.000
219649.100,244963.400,718786.000,326140.100,718733.700,245712.800,719116.400,694481.400,0.000
222609.800,246543.200,718786.600,328704.700,718734.500,247106.100,719123.000,697685.900,0.000
222402.500,246489.000,718774.100,328851.500,718722.100,247068.000,719111.600,697894.600,0.000
219864.100,245157.200,718766.300,326768.900,718714.000,245887.200,719098.100,695723.600,0.000
217731.200,244046.900,718769.400,324692.400,718716.700,244917.400,719096.700,693053.100,0.000
219707.100,245030.200,718783.800,325963.400,718731.100,245782.800,719114.100,694552.500,0.000
222711.400,246634.300,718785.600,328570.100,718733.300,247205.100,719122.200,697799.500,0.000
222503.200,246580.400,718774.100,328724.900,718721.600,247172.300,719111.600,698019.400,0.000
219948.000,245241.700,718767.700,326633.300,718715.100,245983.400,719099.800,695848.900,0.000
217843.500,244160.800,718775.400,324588.900,718722.400,245039.700,719102.900,693210.900,0.000
219845.600,245179.200,718792.600,325894.800,718740.100,245934.700,719123.100,694742.400,0.000
222798.300,246749.700,718792.100,328468.800,718739.300,247330.200,719128.400,697939.100,0.000
222458.100,246593.500,718775.200,328508.600,718722.300,247209.000,719112.100,698040.400,0.000
219870.100,245215.700,718765.400,326371.900,718712.900,245985.500,719097.300,695827.200,0.000
217769.700,244131.000,718770.300,324319.600,718717.700,245035.000,719097.900,693180.800,0.000
219774.300,245149.300,718789.300,325620.100,718736.600,245925.400,719119.900,694703.900,0.000
222741.000,246730.900,718790.400,328205.600,718737.800,247329.500,719127.200,697908.800,0.000
222435.700,246603.400,718776.900,328278.700,718724.300,247228.900,719113.700,698039.300,0.000
219773.100,245178.500,718765.400,326083.400,718712.900,245958.400,719096.100,695754.900,0.000
217620.400,244045.900,718771.300,323968.300,718718.500,244963.200,719098.200,693044.100,0.000
219664.400,245076.100,718791.800,325279.900,718739.300,245864.500,719122.400,694600.700,0.000
222677.200,246685.100,718794.300,327891.200,718741.500,247286.800,719130.600,697828.300,0.000
222354.300,246544.000,718780.100,327945.000,718727.400,247173.000,719116.600,697938.400,0.000
219694.600,245117.600,718769.300,325747.700,718716.600,245903.000,719100.300,695622.900,0.000
217602.600,244024.700,718776.300,323680.300,718723.300,244940.200,719103.300,692955.600,0.000
219734.000,245121.300,718797.600,325065.800,718744.800,245892.500,719127.300,694630.300,0.000
222806.500,246781.900,718796.000,327739.700,718743.100,247357.800,719132.200,697924.100,0.000
222530.500,246693.200,718781.700,327855.200,718728.600,247288.500,719118.300,698096.300,0.000
219870.000,245282.600,718771.300,325675.500,718717.900,246030.800,719101.900,695839.500,0.000
217773.100,244197.100,718773.400,323623.700,718719.800,245078.900,719100.000,693190.100,0.000
219871.900,245274.300,718792.400,325005.200,718739.100,246022.600,719123.100,694808.100,0.000
222849.500,246868.000,718791.100,327611.400,718738.200,247434.200,719128.000,698012.400,0.000
222435.100,246675.000,718775.900,327603.800,718723.000,247277.200,719112.300,698061.300,0.000
219633.900,245156.100,718766.800,325288.600,718714.600,245927.900,719098.300,695626.800,0.000
217420.000,243970.500,718773.400,323106.000,718720.800,244884.700,719101.100,692849.700,0.000
219449.100,244973.600,718793.400,324377.800,718740.800,245751.600,719121.900,694373.800,0.000
222364.000,246492.200,718794.500,326883.700,718742.100,247094.900,719128.900,697561.100,0.000
221892.600,246230.200,718781.400,326780.200,718728.600,246874.000,719116.400,697550.900,0.000
219077.000,244673.000,718770.100,324400.100,718717.000,245478.000,719099.300,694960.000,0.000
216898.600,243487.500,718772.300,322188.900,718718.900,244409.800,719098.200,692186.200,0.000
218992.200,244517.900,718792.000,323472.100,718738.800,245283.800,719119.600,693738.600,0.000
221993.800,246092.800,718793.100,326017.000,718740.100,246657.100,719126.200,697002.400,0.000
221604.100,245876.000,718777.000,325959.800,718724.300,246468.300,719110.300,697058.800,0.000
218915.200,244399.300,718768.300,323677.100,718715.400,245144.600,719095.600,694493.400,0.000
216924.400,243348.900,718775.400,321636.300,718722.400,244201.600,719100.600,691926.300,0.000
219195.000,244517.500,718796.300,323094.800,718743.400,245197.400,719122.900,693678.600,0.000
222266.400,246158.300,718796.600,325740.700,718743.300,246634.700,719128.600,697035.900,0.000
221834.700,245943.000,718779.500,325698.500,718726.400,246451.500,719112.200,697108.800,0.000
219021.000,244404.200,718771.000,323353.200,718717.900,245083.900,719097.100,694484.800,0.000
216901.600,243268.500,718774.800,321215.400,718721.600,244073.200,719098.700,691825.300,0.000
219082.700,244371.000,718792.900,322590.300,718739.700,245009.100,719117.900,693462.000,0.000
222095.100,245963.600,718791.100,325174.200,718737.900,246399.500,719122.000,696780.300,0.000
221606.200,245701.100,718776.800,325071.400,718723.700,246173.700,719108.100,696814.400,0.000
218753.000,244123.400,718767.900,322672.400,718714.600,244765.200,719093.300,694056.900,0.000
216656.800,242994.600,718772.800,320537.200,718719.500,243756.200,719096.100,691480.100,0.000
218902.800,244133.700,718793.600,321953.800,718740.100,244721.800,719118.300,693173.600,0.000
221959.500,245759.100,718795.400,324563.700,718742.400,246134.100,719125.400,696523.900,0.000
221467.300,245495.600,718781.000,324452.900,718728.000,245904.900,719110.600,696561.600,0.000
218617.100,243921.100,718771.700,322053.300,718718.900,244499.600,719094.900,693763.300,0.000
216566.500,242820.700,718778.400,319948.200,718724.900,243513.900,719099.800,691261.200,0.000
218865.900,243995.400,718797.400,321408.200,718744.000,244507.400,719120.400,692987.500,0.000
221961.200,245652.000,718798.300,324063.400,718745.300,245949.100,719127.100,696384.000,0.000
221463.400,245395.800,718780.900,323962.300,718727.400,245722.400,719109.600,696444.100,0.000
218600.500,243818.100,718765.900,321552.300,718713.100,244303.600,719088.200,693618.800,0.000
216590.900,242729.000,718774.900,319481.400,718721.600,243339.300,719095.500,691178.600,0.000
218955.800,243928.300,718798.900,321008.800,718745.700,244376.600,719121.200,692977.000,0.000
222054.800,245609.600,718799.800,323692.300,718746.800,245837.700,719127.600,696392.400,0.000
221534.000,245373.800,718784.100,323596.800,718730.900,245618.200,719111.800,696446.300,0.000
218654.900,243793.900,718775.900,321196.200,718722.900,244204.600,719097.300,693602.400,0.000
216643.600,242705.800,718782.800,319137.300,718728.900,243255.800,719102.600,691190.300,0.000
219039.600,243933.300,718800.800,320681.600,718747.400,244308.900,719122.600,693017.600,0.000
222155.300,245621.800,718800.500,323387.400,718747.000,245782.100,719127.400,696465.400,0.000
221620.600,245374.800,718783.900,323294.100,718730.800,245565.000,719111.300,696529.600,0.000
218720.200,243784.000,718771.700,320879.500,718718.400,244146.400,719091.900,693694.400,0.000
216729.100,242728.300,718780.600,318843.300,718726.600,243211.500,719099.600,691278.800,0.000
219141.200,243984.800,718803.200,320435.300,718749.100,244296.800,719124.300,693151.400,0.000
222284.400,245698.300,718803.200,323174.800,718749.700,245797.200,719130.400,696619.500,0.000
221735.000,245435.000,718788.600,323078.400,718735.100,245577.200,719115.800,696671.400,0.000
218804.900,243826.700,718777.100,320650.700,718723.100,244147.500,719097.100,693863.100,0.000
216813.500,242774.100,718784.900,318619.900,718730.600,243215.200,719103.600,691402.300,0.000
219259.800,244062.100,718806.300,320242.700,718752.800,244323.400,719126.900,693312.300,0.000
222380.500,245767.800,718807.000,322983.900,718754.000,245821.000,719133.700,696774.100,0.000
221755.100,245455.300,718790.800,322833.900,718737.400,245559.500,719117.400,696756.900,0.000
218834.500,243844.300,718780.100,320406.100,718726.900,244131.100,719099.600,693964.800,0.000
216905.500,242825.000,718786.900,318427.500,718733.700,243232.600,719104.800,691531.800,0.000
219382.300,244134.300,718807.800,320087.600,718754.300,244365.400,719127.700,693488.000,0.000
222526.600,245861.900,718807.100,322860.600,718754.000,245886.400,719133.800,696971.300,0.000
221917.900,245562.900,718790.000,322733.800,718737.300,245642.400,719116.800,696971.100,0.000
218946.800,243929.600,718781.200,320281.700,718728.300,244197.200,719101.300,694178.900,0.000
216979.100,242895.700,718790.000,318277.300,718736.600,243277.100,719108.100,691694.500,0.000
219477.700,244218.700,718809.900,319954.900,718756.300,244415.500,719129.800,693691.000,0.000
222640.700,245957.200,718810.800,322747.600,718757.100,245947.200,719136.600,697162.900,0.000
222013.500,245647.200,718794.700,322616.500,718740.900,245697.900,719120.400,697128.400,0.000
219016.500,243994.000,718784.600,320148.300,718730.800,244239.600,719103.500,694341.000,0.000
217050.000,242955.500,718791.400,318147.400,718737.900,243324.000,719108.700,691843.300,0.000
219581.800,244303.900,718811.300,319852.900,718757.600,244487.700,719131.000,693878.400,0.000
222746.000,246046.200,718812.300,322649.100,718758.200,246023.800,719137.600,697341.000,0.000
222089.200,245720.600,718795.600,322497.200,718741.800,245760.400,719121.100,697278.400,0.000
219060.600,244046.500,718783.800,320005.300,718730.100,244283.800,719102.900,694491.300,0.000
217110.800,243021.500,718792.300,318020.000,718738.400,243379.200,719109.200,691987.800,0.000
219667.400,244384.600,718814.800,319754.200,718760.700,244558.000,719133.800,694038.100,0.000
222833.600,246131.300,718815.400,322558.600,718761.600,246096.600,719140.700,697510.200,0.000
222153.600,245797.600,718798.200,322395.800,718744.400,245823.100,719123.100,697442.700,0.000
219112.900,244125.100,718788.500,319898.500,718734.700,244343.300,719107.300,694690.900,0.000
217167.400,243105.800,718795.600,317917.700,718741.400,243438.900,719111.800,692157.400,0.000
219749.000,244486.800,718816.900,319673.400,718762.900,244632.500,719135.500,694227.900,0.000
222912.000,246234.200,718815.700,322482.200,718761.900,246172.300,719141.100,697685.700,0.000
222207.400,245881.600,718797.100,322302.700,718743.100,245885.000,719122.400,697590.000,0.000
219141.700,244188.200,718787.300,319785.200,718733.300,244390.700,719106.400,694820.800,0.000
217208.300,243170.400,718796.400,317814.200,718742.100,243493.100,719112.600,692298.400,0.000
219808.800,244562.300,718815.500,319587.300,718761.900,244701.600,719134.500,694424.800,0.000
222979.700,246315.300,718813.600,322403.600,718759.600,246250.400,719139.300,697851.100,0.000
222262.300,245960.400,718798.100,322219.500,718744.200,245962.500,719123.500,697730.200,0.000
219181.900,244261.600,718788.900,319693.200,718734.900,244463.800,719107.300,694989.800,0.000
217251.300,243250.700,718797.400,317726.800,718743.000,243569.300,719113.300,692442.900,0.000
219868.600,244655.700,718816.800,319512.700,718762.300,244785.900,719135.400,694575.200,0.000
223048.400,246417.800,718818.100,322338.500,718764.000,246345.000,719143.600,697992.500,0.000
222297.300,246038.300,718803.000,322130.500,718748.900,246040.900,719127.700,697844.100,0.000
219180.900,244309.200,718788.900,319573.200,718735.100,244518.000,719107.400,695080.200,0.000
217266.900,243295.000,718798.100,317610.200,718743.600,243625.400,719113.500,692550.900,0.000
219927.800,244710.600,718819.500,319426.800,718765.300,244859.700,719138.200,694738.400,0.000
223119.300,246483.100,718820.300,322264.700,718766.100,246426.900,719145.600,698139.800,0.000
222342.000,246103.300,718800.500,322039.100,718746.100,246111.000,719125.100,697963.600,0.000
219217.300,244384.400,718790.800,319482.200,718736.000,244589.600,719109.200,695211.200,0.000
217312.800,243376.900,718799.300,317539.900,718744.700,243713.600,719114.300,692677.100,0.000
219981.500,244791.900,718819.100,319364.600,718765.400,244953.800,719137.300,694871.600,0.000
223170.600,246554.100,718817.000,322192.500,718763.200,246509.200,719142.000,698245.100,0.000
222387.600,246167.200,718799.100,321961.900,718744.900,246188.800,719123.900,698061.800,0.000
219241.500,244427.100,718789.900,319391.400,718735.500,244657.600,719107.700,695325.900,0.000
217328.600,243416.000,718798.200,317446.600,718743.700,243774.500,719112.700,692791.400,0.000
220021.900,244867.200,718818.000,319291.900,718763.600,245026.600,719135.800,695004.800,0.000
223223.400,246648.700,718817.800,322141.000,718763.800,246596.900,719142.600,698363.400,0.000
222424.800,246247.000,718803.000,321906.700,718749.400,246273.600,719127.700,698167.600,0.000
219255.300,244483.200,718789.300,319318.300,718735.600,244725.900,719107.300,695428.600,0.000
217355.200,243483.300,718796.100,317383.500,718742.000,243848.300,719110.400,692893.200,0.000
220072.800,244951.600,718820.600,319257.000,718766.400,245125.000,719137.800,695121.300,0.000
223269.400,246725.600,718818.300,322102.800,718764.000,246690.900,719142.600,698483.900,0.000
222456.900,246313.200,718795.800,321848.900,718741.500,246348.400,719119.900,698272.000,0.000
219287.400,244548.900,718783.900,319262.400,718730.100,244802.800,719102.300,695556.600,0.000
217406.400,243562.500,718795.700,317356.500,718741.600,243949.500,719110.400,693052.300,0.000
220143.500,245049.700,718817.600,319246.300,718763.800,245237.000,719135.900,695313.200,0.000
223334.100,246822.200,718815.300,322086.500,718761.400,246799.000,719140.900,698621.400,0.000
222508.400,246401.300,718799.100,321831.300,718745.300,246458.900,719124.100,698401.700,0.000
219330.300,244634.800,718789.300,319240.700,718735.400,244910.000,719107.100,695698.400,0.000
217454.000,243652.200,718797.200,317335.900,718743.300,244050.300,719111.400,693191.200,0.000
220183.400,245121.800,718819.100,319221.300,718764.800,245328.900,719136.900,695432.000,0.000
223383.600,246898.100,718819.400,322062.500,718765.000,246894.900,719144.500,698742.600,0.000
222535.600,246454.800,718798.500,321789.200,718744.300,246538.800,719123.000,698504.900,0.000
219347.900,244681.000,718787.300,319195.700,718733.600,244985.800,719105.000,695839.300,0.000
217474.800,243706.100,718796.200,317299.700,718742.000,244133.000,719109.400,693342.300,0.000
220201.900,245180.900,718816.100,319180.300,718761.600,245407.800,719134.100,695531.500,0.000
223382.900,246950.600,718815.300,322005.900,718760.900,246963.500,719140.100,698805.500,0.000
222544.200,246524.400,718798.300,321736.200,718744.000,246618.300,719122.800,698575.000,0.000
219354.800,244750.400,718787.900,319140.700,718733.900,245069.600,719105.600,695932.100,0.000
217467.900,243750.300,718793.300,317229.800,718738.900,244202.700,719106.100,693437.100,0.000
220195.500,245218.100,718814.500,319103.500,718760.300,245472.600,719132.200,695606.800,0.000
223357.700,246971.000,718812.300,321902.100,718757.600,247010.800,719136.800,698861.600,0.000
222456.700,246504.700,718798.300,321571.500,718743.600,246624.100,719122.400,698577.300,0.000
219304.500,244758.800,718789.600,318992.800,718734.900,245087.900,719107.400,695950.000,0.000
217493.100,243823.800,718799.100,317152.000,718744.700,244278.900,719112.100,693530.900,0.000
220218.900,245297.000,718821.100,319036.300,718766.900,245559.300,719138.700,695728.900,0.000
223374.500,247039.000,718815.400,321828.300,718761.400,247088.400,719140.100,698948.100,0.000
222521.000,246594.300,718796.200,321535.800,718742.300,246724.400,719119.900,698698.400,0.000
219345.200,244839.000,718789.700,318957.100,718735.600,245188.300,719107.300,696086.800,0.000
217483.100,243876.600,718800.400,317079.000,718746.200,244348.600,719113.400,693633.900,0.000
220203.500,245350.000,718823.400,318953.100,718768.900,245618.100,719140.900,695796.100,0.000
223360.300,247091.200,718821.500,321744.600,718767.300,247147.800,719146.300,699013.600,0.000
222517.200,246646.500,718804.700,321459.100,718750.400,246791.300,719128.400,698768.100,0.000
219364.200,244897.200,718799.600,318890.600,718744.800,245264.100,719116.600,696179.900,0.000
217503.300,243921.700,718809.000,317009.800,718754.500,244417.900,719121.000,693741.600,0.000
220206.400,245368.300,718826.900,318867.100,718772.600,245670.600,719144.100,695882.600,0.000
223353.900,247093.200,718823.300,321639.800,718768.900,247186.000,719147.900,699060.300,0.000
222519.600,246658.000,718806.800,321352.200,718752.600,246829.300,719130.900,698817.300,0.000
219350.100,244895.800,718794.700,318771.000,718740.400,245286.600,719111.600,696240.000,0.000
217478.900,243914.200,718800.700,316884.800,718746.300,244434.200,719111.600,693817.900,0.000
220160.400,245354.100,718818.200,318715.000,718763.600,245667.400,719135.100,695887.200,0.000
223292.400,247080.000,718813.400,321467.900,718758.800,247169.500,719137.800,699045.300,0.000
222492.400,246671.100,718798.100,321206.100,718744.000,246831.800,719121.800,698826.300,0.000
219403.500,244969.400,718790.100,318698.200,718735.900,245345.500,719107.300,696336.800,0.000
217555.500,244012.600,718799.500,316848.000,718744.900,244518.600,719109.800,693976.000,0.000
220171.200,245409.600,718820.400,318640.500,718766.100,245725.800,719137.300,695968.000,0.000
223245.500,247084.600,718818.800,321343.600,718764.300,247194.800,719142.600,699048.200,0.000
222478.900,246694.200,718803.100,321099.700,718748.600,246871.500,719125.900,698842.000,0.000
