EEG 1, EEG 2, EEG 3, EEG 4, EEG 5, EEG 6, EEG 7, EEG 8, TRIG
609161.300,568281.600,750000.100,750000.100,609468.200,506789.600,482252.800,537230.600,0.000
510167.800,478850.900,750000.100,750000.100,513003.700,428236.000,406690.100,452246.700,0.000
433210.700,407418.100,750000.100,750000.100,436260.700,364744.500,346620.100,385591.800,0.000
386232.000,361271.600,750000.100,750000.100,388209.000,322732.800,307115.000,342995.800,0.000
367371.900,342681.700,750000.100,750000.100,369324.300,305729.200,290924.000,325426.500,0.000
353015.800,329896.500,750000.100,750000.100,355609.300,294595.600,280012.000,312880.000,0.000
338152.200,317827.400,750000.100,715096.600,341774.200,284684.700,270229.500,301209.800,0.000
327471.400,308153.000,750000.100,672415.500,331043.800,276341.200,262438.600,292590.000,0.000
321270.000,300717.800,750000.100,636643.600,323956.900,269115.100,255954.700,286166.700,0.000
314478.600,293481.600,750000.100,604557.900,316935.100,262274.400,249474.300,279210.300,0.000
305965.800,286017.200,750000.100,575336.800,308804.400,255814.300,243066.100,271660.500,0.000
296249.700,278518.200,750000.100,548923.400,299865.700,249814.500,237061.500,264229.500,0.000
289660.200,272640.100,726326.300,526661.100,293152.600,244788.100,232421.500,259061.100,0.000
286621.400,268325.800,692067.100,507669.700,289253.000,240378.000,228585.800,255481.100,0.000
282672.400,263813.500,660414.000,489686.000,285032.500,235976.900,224427.200,251082.300,0.000
276906.100,258852.500,630848.400,472530.500,279574.100,231702.600,220133.300,245927.200,0.000
269808.600,253656.000,603412.600,456507.500,273160.100,227681.500,216042.100,240695.800,0.000
265329.600,249729.300,579555.200,443077.100,268556.000,224360.500,213017.500,237336.000,0.000
263924.800,247062.700,558781.500,431672.400,266357.500,221452.800,210588.800,235282.000,0.000
261586.900,244120.800,539037.200,420426.400,263771.000,218462.000,207777.300,232381.200,0.000
257405.200,240608.400,519995.900,409231.800,259877.000,215456.300,204704.800,228633.400,0.000
251824.200,236735.300,501875.000,398481.700,254944.900,212573.300,201704.700,224677.400,0.000
248586.100,233971.500,486229.100,389667.000,251613.200,210278.400,199639.400,222388.200,0.000
248162.800,232320.600,472728.300,382334.100,250464.900,208298.100,198068.800,221260.400,0.000
246802.900,230339.200,459555.500,374797.100,248889.900,206183.900,196090.900,219282.500,0.000
243648.400,227766.200,446476.600,366989.200,246025.700,204000.300,193814.100,216445.800,0.000
239097.200,224786.600,433759.800,359317.400,242109.500,201880.700,191555.400,213349.100,0.000
236640.300,222744.700,422885.900,353178.500,239578.900,200215.000,190081.700,211722.100,0.000
236869.000,221762.800,413717.200,348286.300,239132.300,198854.200,189087.800,211210.700,0.000
236150.300,220402.000,404502.700,342985.700,238220.300,197315.400,187650.200,209831.500,0.000
233644.500,218408.200,395041.500,337226.300,235990.400,195647.100,185871.500,207569.400,0.000
229777.100,216013.600,385675.700,331462.600,232731.700,194029.200,184103.400,205044.500,0.000
227905.500,214515.900,377864.400,327064.300,230787.900,192847.300,183086.800,203923.900,0.000
228555.700,213971.100,371436.800,323707.500,230780.200,191893.600,182469.000,203814.100,0.000
228279.500,213044.700,364774.900,319857.400,230312.900,190750.300,181411.600,202855.300,0.000
226261.200,211489.800,357702.000,315473.300,228558.500,189472.900,180011.500,201025.200,0.000
222888.800,209521.000,350541.600,310978.600,225770.000,188215.800,178587.200,198903.700,0.000
221400.700,208382.000,344724.000,307711.400,224221.400,187356.700,177867.500,198115.400,0.000
222358.600,208160.000,340127.700,305394.900,224547.300,186707.400,177529.900,198300.300,0.000
222399.100,207546.600,335174.600,302527.800,224399.900,185849.700,176746.100,197639.100,0.000
220715.300,206293.300,329703.300,299069.300,222974.200,184837.600,175604.700,196102.300,0.000
217688.800,204622.300,324045.600,295447.700,220523.900,183832.300,174424.900,194262.200,0.000
216481.800,203747.500,319611.000,292981.000,219270.800,183211.800,173931.100,193721.100,0.000
217664.700,203763.400,316291.500,291393.500,219840.800,182784.900,173801.700,194127.000,0.000
217946.300,203388.900,312547.700,289230.600,219949.300,182148.000,173228.500,193699.400,0.000
216532.800,202384.500,308220.600,286447.100,218794.200,181348.100,172291.100,192397.600,0.000
213771.700,200941.100,303632.600,283454.200,216607.500,180537.500,171299.600,190778.900,0.000
212760.300,200251.200,300165.400,281542.500,215553.200,180080.100,170956.800,190406.400,0.000
214081.700,200413.300,297733.200,280459.500,216276.700,179793.200,170957.100,190950.400,0.000
214535.900,200207.600,294854.500,278800.800,216561.300,179306.700,170524.200,190683.000,0.000
213317.500,199378.700,291361.300,276511.200,215596.800,178664.900,169736.900,189558.400,0.000
210769.000,198113.600,287566.800,273991.400,213606.300,178010.700,168896.000,188115.500,0.000
209923.900,197578.700,284827.000,272500.300,212715.700,177688.600,168680.900,187878.300,0.000
211396.600,197896.600,283089.200,271824.200,213590.800,177538.800,168809.900,188559.600,0.000
211982.100,197816.900,280848.200,270533.700,214002.300,177166.700,168486.500,188409.900,0.000
210907.500,197115.000,277962.700,268597.600,213176.500,176629.900,167804.300,187403.500,0.000
208489.800,195961.600,274733.300,266402.100,211311.900,176065.900,167051.000,186060.000,0.000
207756.000,195534.800,272531.400,265222.500,210540.100,175844.200,166930.200,185925.000,0.000
209310.300,195944.200,271293.800,264837.000,211513.100,175792.500,167146.500,186695.500,0.000
210002.200,195966.900,269539.800,263834.900,212030.500,175512.900,166913.300,186645.900,0.000
209050.700,195373.000,267129.300,262185.200,211325.700,175075.500,166331.500,185752.300,0.000
206755.500,194323.600,264349.000,260260.200,209580.100,174598.500,165665.600,184513.800,0.000
206112.200,193981.200,262556.100,259320.500,208900.100,174448.000,165608.500,184450.700,0.000
207750.600,194476.100,261710.200,259168.100,209961.000,174472.700,165899.600,185296.700,0.000
208512.500,194569.200,260328.500,258387.300,210562.300,174263.700,165734.100,185323.200,0.000
207643.100,194046.600,258270.800,256943.100,209936.600,173886.800,165206.400,184498.800,0.000
205433.000,193069.300,255831.900,255214.600,208275.700,173475.700,164601.300,183330.800,0.000
204838.500,192773.900,254339.900,254440.600,207652.500,173363.200,164583.300,183313.700,0.000
206517.000,193312.800,253778.700,254447.900,208755.700,173431.100,164910.100,184201.900,0.000
207355.500,193475.500,252691.200,253842.000,209422.100,173284.700,164804.100,184289.300,0.000
206550.700,193011.700,250913.000,252567.800,208861.400,172960.800,164329.200,183526.000,0.000
204399.200,192085.300,248732.700,250994.400,207254.400,172588.500,163763.500,182408.200,0.000
203880.900,191871.200,247515.400,250393.000,206707.300,172548.700,163814.500,182461.400,0.000
205605.900,192460.800,247201.700,250549.600,207864.300,172668.800,164190.900,183401.100,0.000
206502.000,192679.700,246348.300,250085.500,208585.900,172570.900,164128.200,183539.100,0.000
205748.800,192262.300,244786.000,248939.900,208073.100,172284.400,163691.200,182815.500,0.000
203649.800,191383.700,242815.400,247493.700,206523.300,171954.600,163167.500,181740.000,0.000
203143.000,191186.100,241770.800,246987.900,205997.100,171942.100,163236.500,181809.800,0.000
204896.900,191803.800,241628.900,247243.100,207185.300,172081.700,163631.700,182769.200,0.000
205820.800,192046.900,240946.500,246880.800,207942.100,172010.000,163591.400,182935.000,0.000
205112.800,191667.900,239560.000,245844.300,207479.600,171760.700,163185.700,182252.900,0.000
203054.100,190820.800,237755.300,244497.500,205975.600,171457.700,162686.500,181207.200,0.000
202578.000,190659.200,236873.500,244089.100,205489.000,171475.300,162783.000,181303.400,0.000
204365.300,191318.500,236894.500,244445.800,206714.200,171659.500,163218.600,182302.800,0.000
205317.400,191590.800,236359.900,244167.700,207501.800,171610.800,163206.100,182498.700,0.000
204645.300,191240.500,235119.200,243215.400,207075.900,171384.300,162826.600,181846.000,0.000
202612.000,190414.500,233441.500,241940.700,205596.500,171096.500,162342.700,180822.800,0.000
202144.700,190262.500,232672.600,241594.200,205115.200,171125.100,162448.800,180929.300,0.000
203952.700,190937.800,232814.100,242015.400,206353.000,171317.900,162897.200,181943.800,0.000
204950.500,191241.200,232409.800,241814.700,207180.700,171286.200,162905.100,182169.900,0.000
204307.000,190909.100,231280.200,240925.800,206781.200,171069.600,162536.900,181532.000,0.000
202316.500,190120.400,229731.900,239732.100,205335.700,170817.800,162082.800,180537.800,0.000
201869.700,189990.400,229078.700,239453.600,204872.400,170868.000,162209.800,180663.300,0.000
203681.900,190666.600,229314.100,239927.400,206116.600,171070.100,162663.800,181684.300,0.000
204680.700,190973.200,229001.500,239781.800,206938.500,171050.700,162678.800,181921.100,0.000
204070.400,190672.500,227983.800,238960.200,206557.100,170865.500,162337.000,181312.700,0.000
202086.700,189889.200,226519.400,237805.800,205121.200,170612.200,161887.800,180322.500,0.000
201624.600,189754.800,225935.300,237560.200,204655.100,170658.600,162011.000,180444.700,0.000
203461.100,190465.100,226266.100,238092.300,205911.800,170887.000,162489.900,181490.400,0.000
204477.500,190787.900,226028.900,237987.000,206747.100,170873.800,162516.400,181734.300,0.000
203862.200,190483.100,225070.600,237199.100,206368.900,170684.900,162172.200,181126.600,0.000
201886.000,189706.500,223674.700,236087.900,204938.700,170444.000,161733.600,180149.200,0.000
201454.400,189602.200,223176.000,235896.200,204499.300,170518.700,161885.500,180295.700,0.000
203280.900,190299.800,223557.800,236455.900,205753.000,170742.400,162359.400,181337.900,0.000
204314.200,190632.000,223392.200,236398.000,206607.300,170744.200,162397.100,181599.400,0.000
203721.100,190343.800,222503.100,235652.900,206252.300,170567.600,162064.300,181005.400,0.000
201759.900,189581.400,221174.200,234582.000,204843.400,170335.900,161631.600,180038.900,0.000
201321.900,189478.300,220728.100,234421.400,204402.800,170421.500,161785.800,180185.300,0.000
203166.400,190192.600,221171.100,235019.900,205671.300,170660.500,162273.200,181238.800,0.000
204207.700,190530.900,221057.000,234989.100,206530.500,170660.000,162311.100,181504.800,0.000
203624.900,190249.500,220224.400,234274.800,206182.900,170479.700,161980.800,180918.400,0.000
201682.800,189502.500,218957.400,233245.400,204790.400,170263.200,161561.600,179965.000,0.000
201224.100,189383.600,218539.500,233091.000,204331.600,170333.400,161703.500,180095.700,0.000
203068.100,190100.200,219030.200,233712.800,205599.200,170574.000,162195.400,181152.100,0.000
204122.100,190448.300,218972.500,233717.000,206472.400,170585.300,162245.800,181429.200,0.000
203553.000,190174.300,218192.500,233032.700,206141.800,170415.900,161923.600,180852.000,0.000
201609.100,189425.800,216960.600,232013.600,204742.300,170192.600,161498.400,179892.300,0.000
201153.600,189316.700,216594.200,231890.800,204286.100,170275.200,161650.600,180032.800,0.000
203002.000,190038.700,217129.200,232537.200,205554.300,170518.300,162143.000,181094.200,0.000
204046.400,190375.500,217093.900,232548.200,206415.600,170520.000,162180.500,181360.500,0.000
203480.500,190104.100,216347.100,231881.100,206089.500,170354.600,161863.100,180784.100,0.000
201545.400,189362.100,215155.900,230887.600,204708.300,170141.400,161446.800,179835.500,0.000
201084.800,189247.900,214806.600,230769.100,204248.500,170214.600,161585.200,179961.800,0.000
202943.700,189981.300,215382.600,231445.600,205533.200,170469.400,162087.000,181033.700,0.000
204016.400,190345.600,215407.700,231504.900,206424.100,170496.300,162150.900,181328.500,0.000
203452.000,190075.000,214692.800,230861.400,206091.400,170331.800,161835.000,180755.200,0.000
201522.800,189332.300,213532.600,229885.500,204721.000,170111.200,161422.200,179810.700,0.000
201059.200,189219.900,213216.300,229786.100,204273.100,170190.400,161570.100,179943.000,0.000
202917.500,189953.700,213814.400,230474.000,205560.400,170439.900,162071.100,181014.900,0.000
203979.900,190306.000,213853.300,230532.900,206450.000,170453.000,162124.600,181300.000,0.000
203423.100,190038.300,213170.600,229906.800,206137.500,170290.900,161809.900,180733.900,0.000
201500.000,189305.300,212039.600,228951.100,204772.000,170081.900,161398.900,179792.600,0.000
201026.600,189190.900,211747.100,228864.300,204317.100,170160.200,161540.900,179917.300,0.000
202877.500,189916.900,212371.100,229563.400,205596.200,170407.800,162035.100,180981.900,0.000
203962.900,190280.500,212451.800,229646.600,206497.600,170427.000,162092.700,181274.700,0.000
203415.800,190018.300,211801.200,229035.000,206189.400,170265.700,161778.200,180711.700,0.000
201480.800,189274.800,210692.100,228085.500,204814.900,170052.900,161366.000,179763.000,0.000
201011.800,189170.300,210436.000,228019.200,204362.300,170146.400,161527.400,179899.200,0.000
202856.900,189892.500,211081.400,228725.500,205631.000,170392.300,162021.800,180960.800,0.000
203933.700,190248.000,211176.100,228813.400,206516.800,170407.800,162076.000,181246.200,0.000
203402.700,189996.700,210560.900,228221.000,206211.300,170252.600,161770.700,180688.700,0.000
201488.500,189265.400,209488.000,227291.200,204842.800,170039.600,161357.800,179746.400,0.000
200997.700,189141.900,209236.400,227220.700,204364.500,170117.400,161499.000,179869.700,0.000
202841.300,189867.200,209904.200,227945.900,205631.500,170368.500,162001.900,180941.900,0.000
203932.300,190236.400,210023.300,228049.800,206521.400,170386.800,162064.300,181237.000,0.000
203406.200,189987.000,209420.800,227467.600,206217.000,170233.500,161759.100,180681.800,0.000
201481.200,189245.900,208350.900,226538.700,204839.500,170015.500,161339.200,179729.000,0.000
200981.700,189122.000,208112.100,226477.500,204358.500,170096.100,161479.400,179845.100,0.000
202830.300,189854.700,208802.800,227219.000,205634.200,170356.500,161989.000,180925.200,0.000
203921.600,190226.000,208943.600,227344.100,206538.400,170386.500,162057.200,181233.900,0.000
203392.000,189978.300,208352.000,226774.600,206238.300,170233.200,161750.700,180678.400,0.000
201465.300,189243.600,207293.700,225854.600,204864.100,170017.500,161332.500,179726.500,0.000
200950.300,189115.800,207062.500,225793.700,204381.600,170093.900,161473.800,179837.900,0.000
202786.800,189842.200,207759.900,226536.500,205654.700,170345.600,161978.000,180909.000,0.000
203893.600,190226.400,207929.400,226686.100,206579.000,170387.300,162062.100,181230.100,0.000
203372.500,189980.600,207361.300,226129.800,206299.000,170232.300,161758.400,180682.200,0.000
201435.400,189232.900,206312.900,225211.600,204923.600,170011.500,161336.200,179724.400,0.000
200929.600,189116.300,206100.900,225164.600,204439.800,170094.700,161479.800,179836.200,0.000
202777.000,189848.800,206823.200,225922.500,205714.100,170358.200,161991.500,180916.400,0.000
203891.900,190230.200,207009.800,226072.100,206633.500,170388.300,162064.800,181232.100,0.000
203369.100,189974.400,206453.500,225517.100,206336.900,170222.300,161750.600,180673.800,0.000
201444.800,189231.800,205429.300,224614.400,204962.500,170007.500,161328.400,179720.400,0.000
200904.500,189079.300,205210.400,224551.700,204448.000,170071.400,161446.100,179809.400,0.000
202752.100,189811.900,205949.200,225320.300,205718.200,170334.000,161956.600,180888.400,0.000
203860.000,190188.100,206141.300,225472.200,206623.700,170359.200,162027.100,181200.200,0.000
203359.500,189953.000,205613.100,224938.700,206341.900,170212.600,161734.100,180661.900,0.000
201437.800,189210.200,204596.100,224038.300,204965.800,169993.900,161312.500,179706.600,0.000
200900.500,189069.200,204390.400,223990.300,204459.500,170064.700,161440.500,179801.500,0.000
202733.400,189792.600,205127.400,224756.900,205720.500,170315.700,161944.500,180872.200,0.000
203856.500,190181.300,205342.500,224930.300,206647.200,170353.800,162028.200,181200.200,0.000
203349.800,189940.600,204819.000,224399.500,206366.200,170203.000,161729.000,180657.800,0.000
201438.700,189215.500,203822.300,223518.400,205004.800,169996.100,161318.600,179712.100,0.000
200893.600,189070.000,203619.000,223468.100,204498.300,170063.300,161442.600,179798.300,0.000
202724.300,189790.900,204363.200,224238.200,205763.100,170316.400,161946.300,180867.300,0.000
203846.100,190179.600,204584.200,224416.400,206691.800,170352.300,162024.000,181192.100,0.000
203357.000,189950.300,204082.500,223906.500,206428.100,170216.500,161737.000,180662.200,0.000
201436.100,189207.300,203083.100,223019.800,205054.800,170000.000,161312.500,179703.600,0.000
200892.200,189070.800,202897.900,222983.600,204550.900,170079.600,161445.200,179798.000,0.000
202715.000,189787.300,203651.200,223756.700,205810.900,170331.600,161946.200,180868.200,0.000
203836.200,190169.400,203880.900,223933.500,206735.600,170361.300,162022.500,181189.200,0.000
203344.000,189932.500,203382.000,223417.500,206461.100,170213.100,161727.100,180652.100,0.000
201434.600,189200.400,202402.800,222541.000,205095.700,170001.700,161311.800,179703.700,0.000
200882.700,189058.600,202222.100,222501.200,204583.700,170071.700,161438.100,179788.800,0.000
202707.000,189778.900,202990.900,223288.100,205842.900,170327.100,161945.500,180863.400,0.000
203840.700,190172.900,203244.100,223488.500,206776.600,170369.500,162033.200,181201.500,0.000
203346.500,189929.300,202751.200,222974.500,206496.900,170214.700,161732.400,180662.100,0.000
201441.300,189193.100,201778.400,222099.800,205132.600,169996.300,161313.400,179709.600,0.000
200883.000,189049.100,201606.200,222068.300,204613.500,170075.500,161447.000,179795.900,0.000
202690.100,189755.700,202366.500,222843.000,205849.200,170318.300,161940.800,180855.000,0.000
203823.100,190145.800,202619.400,223037.900,206777.600,170351.400,162023.300,181185.800,0.000
203343.500,189916.300,202139.800,222532.100,206507.700,170200.100,161723.100,180647.100,0.000
201439.200,189183.600,201175.500,221663.600,205143.200,169984.500,161301.300,179692.200,0.000
200865.700,189027.200,200996.200,221626.200,204609.500,170056.000,161428.000,179767.500,0.000
202692.700,189754.800,201787.400,222431.100,205870.000,170324.100,161949.400,180853.400,0.000
203827.100,190142.500,202049.000,222633.300,206798.300,170354.100,162027.700,181184.000,0.000
203344.500,189908.100,201578.100,222134.300,206532.600,170203.100,161728.400,180651.800,0.000
201439.200,189174.900,200621.800,221269.800,205171.200,169986.500,161305.800,179697.200,0.000
200849.100,189012.500,200446.300,221230.000,204628.600,170051.700,161422.600,179762.500,0.000
202664.700,189729.700,201232.000,222025.200,205874.900,170306.100,161930.200,180834.000,0.000
203815.200,190129.400,201514.000,222241.900,206822.000,170350.200,162025.200,181182.200,0.000
203345.100,189902.200,201051.400,221748.800,206557.300,170200.100,161730.900,180653.000,0.000
201449.800,189177.100,200099.900,220889.800,205197.300,169985.700,161312.400,179704.300,0.000
200852.300,189012.900,199925.900,220851.900,204653.000,170054.500,161431.500,179771.300,0.000
202670.100,189732.600,200720.500,221656.200,205902.600,170313.100,161942.500,180846.200,0.000
203814.800,190129.900,201001.600,221874.100,206844.500,170352.400,162027.000,181186.600,0.000
203348.700,189902.800,200542.500,221389.500,206589.700,170205.600,161728.600,180655.400,0.000
201444.100,189161.600,199587.500,220528.800,205226.000,169985.000,161303.400,179697.100,0.000
200844.200,189008.100,199419.300,220490.600,204673.000,170055.900,161423.300,179758.800,0.000
202658.300,189722.200,200212.900,221294.100,205921.900,170314.400,161936.700,180834.900,0.000
203801.700,190111.100,200494.500,221514.300,206868.300,170353.600,162023.900,181177.000,0.000
203335.300,189883.300,200044.700,221034.200,206615.100,170203.400,161727.500,180650.200,0.000
201442.100,189153.600,199099.800,220178.500,205257.800,169983.100,161301.300,179692.800,0.000
200821.400,188976.000,198920.400,220132.400,204694.400,170043.600,161410.800,179744.100,0.000
202623.800,189691.500,199723.200,220942.800,205939.800,170304.800,161928.400,180826.600,0.000
203791.400,190105.500,200026.800,221179.700,206895.900,170351.400,162026.200,181184.300,0.000
203332.600,189876.400,199580.900,220699.200,206649.000,170197.300,161731.400,180655.800,0.000
201439.500,189143.700,198649.700,219850.700,205298.400,169984.400,161314.300,179705.500,0.000
200821.000,188972.800,198484.700,219812.300,204731.600,170053.300,161425.900,179755.700,0.000
202631.400,189696.400,199300.800,220632.100,205974.400,170322.000,161945.700,180838.900,0.000
203795.200,190100.100,199607.200,220865.800,206923.300,170360.200,162039.600,181192.500,0.000
203330.200,189865.100,199165.000,220384.000,206661.900,170204.200,161736.700,180659.600,0.000
201444.600,189139.400,198239.700,219536.000,205302.500,169988.700,161311.900,179702.100,0.000
200813.800,188958.000,198071.400,219497.200,204730.200,170051.300,161421.300,179746.400,0.000
202624.300,189684.000,198887.900,220314.800,205968.000,170312.800,161937.900,180827.000,0.000
203782.700,190082.600,199192.100,220547.200,206910.500,170348.800,162023.300,181172.800,0.000
203335.300,189857.800,198760.100,220075.800,206666.300,170197.500,161729.800,180646.500,0.000
201448.800,189128.700,197835.800,219233.200,205314.900,169988.000,161311.800,179694.700,0.000
200810.600,188950.100,197667.800,219194.800,204738.200,170051.700,161421.800,179737.800,0.000
202608.100,189665.200,198480.700,220011.800,205968.300,170306.000,161933.700,180811.700,0.000
203774.100,190067.900,198794.000,220253.800,206918.400,170342.100,162024.000,181164.600,0.000
203335.500,189852.100,198372.500,219794.900,206681.900,170197.000,161734.000,180650.000,0.000
201460.000,189134.300,197460.200,218961.500,205342.400,169991.200,161318.800,179702.600,0.000
200812.000,188947.600,197286.000,218910.900,204760.900,170048.500,161419.100,179732.400,0.000
202603.500,189659.400,198100.600,219726.800,205987.700,170309.500,161931.000,180805.900,0.000
203792.700,190083.000,198441.400,219992.300,206964.000,170367.600,162042.800,181181.300,0.000
203369.900,189872.000,198031.200,219540.800,206743.000,170221.400,161758.600,180669.300,0.000
201480.900,189135.000,197102.900,218690.200,205385.500,169990.000,161320.700,179701.600,0.000
200815.100,188940.700,196926.600,218639.700,204787.000,170043.800,161414.900,179726.600,0.000
202604.800,189658.100,197750.900,219466.600,206014.600,170306.100,161935.500,180805.800,0.000
203782.500,190065.800,198079.600,219718.200,206975.800,170346.400,162034.900,181170.700,0.000
203363.500,189855.600,197676.100,219267.000,206755.400,170207.100,161753.100,180665.800,0.000
201479.300,189124.200,196758.000,218426.400,205407.700,169990.800,161331.000,179712.600,0.000
200810.400,188936.000,196582.800,218374.000,204804.200,170045.600,161426.100,179734.200,0.000
202604.200,189653.600,197413.800,219205.200,206038.400,170309.800,161945.600,180817.800,0.000
203783.500,190059.500,197748.000,219462.800,207003.000,170350.000,162041.500,181180.900,0.000
203362.500,189848.000,197346.100,219014.200,206779.000,170205.900,161753.400,180670.000,0.000
201484.800,189120.500,196434.700,218180.800,205433.500,169990.300,161331.600,179715.500,0.000
200801.600,188925.100,196261.200,218133.300,204826.800,170054.800,161433.200,179737.600,0.000
202585.800,189635.700,197081.600,218952.600,206038.800,170309.900,161941.900,180808.700,0.000
203773.200,190047.800,197419.100,219209.300,207005.300,170352.300,162040.100,181176.500,0.000
203365.400,189846.500,197028.700,218768.000,206792.600,170209.700,161756.700,180673.000,0.000
201491.500,189121.100,196121.500,217933.600,205445.500,169992.400,161330.400,179718.000,0.000
200811.600,188929.700,195952.500,217889.200,204842.400,170057.700,161434.400,179740.500,0.000
202587.200,189635.000,196780.700,218722.000,206064.700,170319.800,161951.700,180817.000,0.000
203777.300,190049.700,197123.300,218989.100,207034.900,170361.400,162052.900,181187.000,0.000
203376.800,189855.400,196733.700,218550.400,206830.400,170219.500,161772.100,180683.700,0.000
201492.400,189116.500,195815.700,217706.500,205484.100,169994.100,161337.400,179717.300,0.000
200799.800,188917.300,195633.600,217649.800,204865.900,170048.100,161429.900,179727.100,0.000
202590.700,189637.900,196469.500,218486.900,206091.000,170317.400,161951.600,180810.500,0.000
203788.500,190051.700,196817.700,218758.200,207068.700,170362.600,162050.900,181183.800,0.000
203377.000,189844.800,196426.900,218320.100,206853.700,170218.200,161764.300,180676.000,0.000
201500.300,189118.900,195521.400,217484.300,205508.300,169994.200,161336.400,179712.900,0.000
200805.300,188922.700,195348.100,217433.000,204893.100,170055.500,161430.800,179724.700,0.000
202576.100,189626.800,196178.000,218259.400,206106.300,170314.600,161945.900,180800.000,0.000
203772.600,190040.500,196532.400,218531.600,207085.300,170357.100,162050.000,181177.700,0.000
203370.100,189836.000,196144.100,218095.000,206874.600,170208.400,161762.600,180673.000,0.000
201505.800,189122.500,195255.500,217276.000,205546.000,170002.100,161344.700,179727.200,0.000
200804.100,188924.500,195089.400,217225.700,204935.700,170065.800,161444.900,179741.900,0.000
202564.900,189620.900,195914.800,218048.100,206138.600,170319.900,161955.100,180811.600,0.000
203773.400,190045.000,196280.300,218330.500,207123.400,170368.900,162066.000,181196.700,0.000
203376.800,189847.000,195903.200,217899.800,206920.100,170226.100,161779.600,180696.200,0.000
201501.300,189118.500,195003.100,217067.000,205575.300,170004.600,161345.300,179732.400,0.000
200782.300,188904.000,194819.100,217000.100,204941.800,170055.600,161429.900,179730.000,0.000
202560.600,189621.400,195662.500,217841.400,206157.200,170326.800,161955.000,180816.000,0.000
203778.700,190054.200,196036.100,218135.300,207152.000,170386.900,162074.100,181210.300,0.000
203381.800,189848.700,195654.200,217700.700,206948.300,170236.500,161785.000,180705.700,0.000
201502.500,189117.700,194751.600,216865.900,205599.700,170006.600,161345.700,179737.800,0.000
200772.200,188901.800,194566.000,216799.100,204952.000,170052.700,161425.600,179729.300,0.000
202543.700,189612.500,195404.200,217636.800,206156.000,170316.100,161945.800,180805.700,0.000
203759.900,190040.400,195778.300,217931.800,207145.000,170369.600,162062.400,181198.300,0.000
203381.900,189850.200,195414.500,217512.400,206958.600,170225.600,161786.200,180709.000,0.000
201510.100,189122.300,194512.700,216679.700,205615.300,170000.800,161350.100,179740.800,0.000
200777.500,188907.800,194327.800,216614.700,204972.800,170052.900,161437.400,179729.600,0.000
202552.700,189625.000,195177.000,217459.300,206189.700,170328.300,161969.200,180815.800,0.000
203768.900,190052.500,195549.700,217749.600,207182.000,170380.800,162081.800,181206.500,0.000
203380.000,189855.800,195175.100,217322.500,206981.700,170236.100,161794.800,180708.100,0.000
201521.500,189135.800,194290.200,216504.200,205655.900,170023.000,161372.400,179756.000,0.000
200782.000,188913.300,194102.000,216433.100,205004.000,170065.900,161446.600,179735.400,0.000
202537.300,189613.300,194936.300,217266.200,206195.500,170323.900,161958.000,180803.400,0.000
203765.300,190047.300,195320.000,217568.100,207192.500,170377.900,162077.800,181200.800,0.000
203388.300,189858.600,194956.100,217145.900,207001.000,170237.100,161800.400,180709.300,0.000
201524.700,189132.500,194067.000,216318.800,205662.300,170013.500,161367.400,179747.000,0.000
200784.900,188911.600,193881.500,216252.100,205006.800,170059.100,161445.000,179727.600,0.000
202551.000,189623.800,194728.400,217095.900,206215.100,170324.900,161968.300,180811.100,0.000
203785.900,190061.200,195110.500,217397.400,207217.600,170374.900,162082.600,181210.000,0.000
203410.500,189867.900,194747.100,216983.400,207030.300,170233.200,161801.000,180716.800,0.000
201541.000,189135.500,193852.900,216151.600,205693.600,170005.400,161363.100,179749.100,0.000
200789.000,188913.300,193662.700,216076.400,205035.800,170054.000,161440.700,179724.000,0.000
202550.600,189623.700,194512.400,216925.100,206245.600,170328.400,161971.400,180808.900,0.000
203795.300,190072.200,194911.800,217244.900,207267.600,170397.500,162103.200,181223.200,0.000
203426.900,189885.700,194551.300,216833.700,207091.600,170259.000,161826.200,180735.600,0.000
201559.500,189158.900,193656.800,216004.500,205757.700,170031.200,161387.300,179768.000,0.000
200785.800,188926.400,193454.600,215921.800,205091.200,170066.800,161451.100,179732.700,0.000
202535.300,189627.600,194292.500,216760.000,206286.800,170327.500,161965.800,180807.800,0.000
203779.300,190067.400,194681.600,217069.200,207298.200,170381.500,162088.100,181213.000,0.000
203415.900,189880.700,194327.100,216659.000,207118.700,170241.000,161809.600,180726.000,0.000
201566.300,189158.400,193444.300,215835.300,205787.800,170016.700,161377.900,179765.500,0.000
200789.200,188916.000,193245.300,215752.100,205112.500,170057.300,161446.300,179729.600,0.000
202536.700,189614.800,194090.600,216592.300,206303.000,170324.400,161965.600,180804.900,0.000
203779.600,190056.400,194486.600,216900.800,207310.100,170381.000,162090.300,181209.900,0.000
203440.500,189887.200,194143.100,216498.700,207154.700,170242.400,161822.200,180736.500,0.000
201582.300,189165.600,193257.300,215674.000,205828.400,170015.300,161381.900,179772.900,0.000
200808.000,188938.600,193067.800,215599.800,205162.000,170063.700,161453.600,179741.800,0.000
202536.000,189620.000,193899.500,216431.000,206338.200,170316.500,161961.000,180803.400,0.000
203775.000,190054.500,194294.400,216742.700,207341.900,170368.800,162081.500,181206.900,0.000
203418.900,189874.100,193954.500,216342.100,207176.300,170233.700,161811.100,180727.900,0.000
201562.200,189151.800,193072.700,215520.800,205846.400,170009.400,161374.300,179763.700,0.000
200769.100,188911.000,192871.300,215437.800,205161.500,170052.900,161442.100,179719.900,0.000
202525.400,189624.000,193729.700,216291.800,206358.100,170327.700,161977.200,180806.900,0.000
203769.600,190061.500,194129.200,216602.900,207363.800,170381.700,162100.900,181214.400,0.000
203409.000,189870.300,193775.200,216183.700,207177.300,170229.200,161812.600,180718.900,0.000
201558.000,189149.500,192899.400,215363.700,205843.000,170006.300,161377.500,179754.400,0.000
200774.500,188917.700,192710.800,215289.600,205157.500,170057.400,161452.200,179721.000,0.000
202525.200,189624.300,193563.300,216136.300,206341.800,170326.100,161979.000,180802.000,0.000
203770.400,190059.900,193962.100,216445.200,207342.000,170374.400,162098.700,181207.800,0.000
203425.200,189880.800,193621.500,216044.300,207168.000,170236.200,161826.400,180726.600,0.000
201588.100,189173.500,192758.300,215241.600,205847.500,170029.100,161406.700,179778.400,0.000
200796.100,188937.900,192561.400,215161.100,205152.400,170073.900,161475.300,179735.700,0.000
202521.400,189624.200,193392.600,215991.900,206315.000,170326.200,161980.100,180798.600,0.000
203782.700,190077.500,193802.800,216316.600,207336.500,170388.300,162107.700,181217.500,0.000
203459.300,189917.100,193475.500,215930.300,207193.900,170261.600,161847.000,180754.200,0.000
201594.500,189183.700,192576.800,215093.900,205857.300,170021.500,161394.300,179774.800,0.000
200770.900,188927.800,192358.100,214997.700,205154.100,170058.200,161450.100,179713.300,0.000
202511.500,189633.500,193206.700,215849.400,206346.300,170327.500,161979.200,180793.100,0.000
203774.700,190085.400,193617.300,216180.500,207377.300,170386.300,162111.800,181218.600,0.000
203428.300,189901.500,193269.200,215781.600,207215.000,170241.000,161831.800,180738.900,0.000
201576.500,189179.900,192386.500,214963.200,205892.300,170014.300,161396.000,179774.300,0.000
200746.700,188923.500,192168.100,214863.800,205184.200,170047.300,161450.000,179706.600,0.000
202462.200,189610.600,193006.800,215701.000,206353.800,170307.000,161963.800,180772.700,0.000
203721.500,190058.900,193425.800,216030.500,207380.400,170369.400,162093.600,181197.500,0.000
203403.800,189897.100,193106.400,215644.100,207233.700,170238.400,161828.300,180733.400,0.000
201570.100,189187.100,192247.800,214837.500,205919.400,170021.600,161402.800,179779.700,0.000
200749.800,188937.400,192043.200,214745.800,205211.600,170058.300,161461.800,179718.900,0.000
202483.900,189636.600,192895.100,215593.700,206384.700,170324.900,161983.600,180793.500,0.000
203739.100,190071.600,193301.600,215913.600,207392.400,170373.300,162103.000,181206.900,0.000
203410.500,189896.200,192976.800,215525.500,207236.400,170239.800,161833.300,180740.300,0.000
201571.500,189179.000,192104.700,214707.400,205907.400,170015.900,161395.100,179775.400,0.000
200740.400,188919.100,191887.600,214605.100,205182.900,170050.500,161444.800,179704.400,0.000
202472.800,189619.800,192738.100,215450.100,206356.700,170321.000,161967.800,180779.500,0.000
203737.800,190065.700,193149.000,215777.200,207377.800,170374.700,162092.100,181201.100,0.000
203411.400,189894.900,192817.200,215388.700,207227.400,170236.700,161822.400,180735.200,0.000
201577.300,189182.100,191946.000,214575.400,205917.100,170017.800,161392.100,179776.100,0.000
200734.500,188919.500,191722.100,214471.900,205197.300,170052.900,161442.500,179700.700,0.000
202452.500,189614.000,192562.900,215313.100,206365.500,170318.000,161963.300,180770.700,0.000
203734.300,190075.100,192988.500,215654.200,207410.900,170385.900,162105.100,181211.500,0.000
203413.300,189905.300,192662.100,215268.000,207272.800,170246.800,161837.200,180743.000,0.000
201573.300,189190.300,191786.600,214451.500,205960.600,170019.600,161402.700,179777.100,0.000
200716.000,188918.600,191554.500,214343.900,205235.100,170045.700,161447.800,179696.900,0.000
202432.700,189611.100,192405.400,215195.800,206407.600,170314.000,161970.200,180774.200,0.000
203711.900,190070.600,192837.300,215538.200,207446.800,170379.400,162105.800,181209.600,0.000
203398.500,189905.300,192520.500,215156.200,207302.000,170246.700,161836.700,180745.300,0.000
201578.400,189200.200,191667.000,214353.000,206000.700,170029.100,161406.800,179791.000,0.000
200734.600,188935.900,191452.200,214249.500,205274.900,170059.000,161452.500,179710.600,0.000
202447.000,189619.800,192302.300,215090.200,206428.000,170318.500,161965.300,180775.100,0.000
203727.600,190072.000,192737.100,215429.700,207459.200,170376.300,162099.500,181205.700,0.000
203416.400,189906.500,192421.600,215045.700,207313.300,170231.400,161825.200,180737.400,0.000
201586.900,189192.900,191559.600,214234.900,205993.200,170007.800,161389.300,179772.000,0.000
200721.500,188919.200,191332.600,214120.700,205248.600,170036.000,161432.700,179682.300,0.000
202440.500,189618.600,192187.800,214970.100,206409.300,170307.400,161958.600,180756.700,0.000
203736.700,190088.200,192636.500,215327.100,207454.900,170381.100,162108.100,181208.200,0.000
203430.700,189919.500,192318.800,214942.500,207310.100,170239.300,161835.600,180744.300,0.000
201594.800,189198.400,191444.200,214125.100,205989.100,170011.300,161393.300,179773.400,0.000
200717.800,188918.100,191208.800,214012.200,205238.900,170043.700,161434.200,179680.700,0.000
202428.200,189610.800,192062.200,214865.900,206398.100,170316.900,161963.300,180756.400,0.000
203714.200,190065.200,192488.100,215205.400,207432.100,170372.000,162091.500,181188.000,0.000
203410.100,189896.600,192166.000,214824.100,207296.300,170231.900,161816.700,180725.100,0.000
201581.100,189179.700,191293.900,214012.800,205982.200,170005.600,161377.900,179762.000,0.000
200709.200,188905.900,191055.800,213896.000,205238.800,170036.000,161424.000,179673.500,0.000
202421.900,189601.600,191899.800,214745.200,206400.200,170306.100,161949.800,180748.500,0.000
203709.200,190058.000,192330.100,215095.300,207446.200,170368.900,162087.800,181188.500,0.000
203404.800,189888.900,192013.900,214720.100,207319.900,170233.500,161821.200,180730.900,0.000
201570.400,189166.700,191140.000,213905.100,206008.600,170008.100,161381.700,179764.000,0.000
200689.300,188890.800,190902.000,213784.900,205263.300,170035.700,161424.500,179668.300,0.000
202389.200,189579.700,191743.300,214631.600,206421.000,170297.100,161946.800,180738.300,0.000
203693.300,190054.100,192196.500,214997.700,207485.700,170376.700,162101.800,181199.600,0.000
203405.700,189900.700,191895.000,214630.700,207369.600,170248.600,161841.900,180751.500,0.000
201583.300,189191.100,191035.400,213819.100,206061.500,170020.100,161399.100,179784.600,0.000
200688.100,188905.400,190795.800,213693.200,205299.500,170039.900,161431.300,179676.400,0.000
202375.800,189582.700,191640.300,214536.400,206436.600,170305.100,161948.000,180737.900,0.000
203674.300,190047.100,192089.700,214893.100,207482.500,170375.100,162089.900,181187.100,0.000
203399.500,189895.400,191789.000,214522.400,207362.800,170240.000,161827.400,180736.600,0.000
201586.800,189187.000,190933.000,213719.000,206058.200,170020.500,161397.700,179779.600,0.000
200688.100,188901.000,190693.000,213597.600,205294.200,170049.800,161437.000,179676.300,0.000
202368.400,189572.300,191523.500,214428.400,206422.300,170301.900,161945.900,180733.300,0.000
203671.500,190032.600,191964.300,214781.700,207471.800,170363.300,162085.400,181182.600,0.000
203392.500,189879.200,191664.800,214419.800,207362.900,170237.200,161827.600,180736.800,0.000
201580.900,189173.300,190802.900,213615.500,206065.500,170016.100,161394.000,179777.100,0.000
200690.200,188896.400,190562.600,213494.300,205311.400,170045.900,161433.200,179675.800,0.000
202377.500,189574.800,191405.200,214342.000,206456.000,170312.100,161953.900,180745.100,0.000
203677.100,190037.800,191848.900,214701.400,207509.700,170377.000,162095.700,181196.900,0.000
203410.900,189896.900,191555.400,214343.600,207407.200,170250.200,161839.700,180752.000,0.000
201594.400,189184.800,190694.600,213535.300,206106.500,170025.300,161400.900,179784.100,0.000
200676.000,188887.000,190442.100,213396.000,205330.700,170041.700,161423.600,179662.300,0.000
202360.800,189569.300,191291.000,214244.300,206471.400,170310.300,161946.600,180730.800,0.000
203690.700,190051.400,191756.800,214620.700,207544.300,170386.700,162103.400,181197.600,0.000
203408.600,189887.800,191452.800,214250.600,207422.900,170244.700,161832.200,180740.800,0.000
201586.200,189166.100,190591.500,213438.300,206110.600,170010.900,161388.000,179771.600,0.000
200667.800,188870.700,190345.400,213301.800,205332.400,170032.700,161417.800,179653.400,0.000
202354.500,189555.200,191195.700,214148.000,206464.500,170299.800,161943.200,180722.300,0.000
203675.300,190027.900,191655.400,214516.800,207521.100,170370.600,162095.500,181185.400,0.000
203402.900,189874.100,191354.900,214146.800,207401.800,170233.000,161827.200,180730.700,0.000
201590.900,189162.000,190499.400,213339.900,206099.600,170007.000,161385.400,179764.200,0.000
200686.800,188886.200,190265.500,213219.600,205334.200,170046.100,161430.200,179658.500,0.000
202369.500,189570.900,191112.500,214065.300,206466.600,170315.800,161954.800,180725.000,0.000
203686.400,190041.800,191565.400,214435.200,207530.000,170383.300,162100.600,181187.000,0.000
203419.300,189891.100,191266.600,214073.700,207423.400,170249.100,161837.500,180741.500,0.000
201608.900,189180.500,190402.900,213266.600,206124.200,170020.700,161396.400,179775.500,0.000
200673.500,188881.800,190142.600,213127.600,205343.500,170038.900,161425.100,179653.100,0.000
202353.300,189570.000,190988.600,213981.800,206485.500,170316.200,161959.800,180731.700,0.000
203662.400,190027.900,191430.500,214343.200,207543.200,170376.000,162100.800,181188.300,0.000
203396.500,189875.000,191128.500,213981.600,207446.700,170237.200,161837.300,180744.500,0.000
201594.900,189170.600,190269.000,213175.900,206164.100,170009.100,161400.700,179781.900,0.000
200649.700,188864.000,190000.900,213026.700,205367.300,170021.900,161421.900,179643.200,0.000
202327.400,189546.700,190851.500,213881.300,206501.900,170294.700,161949.800,180716.400,0.000
203650.000,190019.300,191312.900,214257.700,207567.300,170369.500,162098.200,181187.500,0.000
203406.600,189886.700,191031.600,213910.500,207481.200,170242.500,161842.600,180755.800,0.000
201602.200,189179.000,190178.300,213105.500,206186.700,170016.000,161403.200,179793.800,0.000
200664.500,188886.900,189929.700,212969.600,205400.300,170044.400,161433.400,179666.200,0.000
202337.600,189570.000,190779.200,213819.400,206529.500,170316.700,161961.400,180732.700,0.000
203667.200,190045.500,191243.000,214193.500,207597.300,170384.400,162116.100,181202.800,0.000
203407.400,189893.600,190958.400,213841.500,207495.600,170257.100,161862.000,180764.600,0.000
201621.100,189197.100,190115.500,213042.200,206212.800,170036.800,161429.800,179806.500,0.000
200663.100,188886.500,189846.600,212883.000,205404.900,170043.900,161441.900,179655.500,0.000
202310.300,189544.500,190676.000,213710.500,206504.200,170294.300,161946.400,180701.900,0.000
203641.900,190019.600,191146.900,214090.200,207572.700,170364.500,162100.800,181176.300,0.000
203406.800,189886.700,190878.200,213752.800,207490.500,170244.100,161855.000,180754.200,0.000
201613.000,189184.100,190032.100,212954.500,206204.100,170023.100,161417.900,179796.200,0.000
200648.200,188873.400,189764.800,212801.000,205390.800,170040.000,161433.700,179649.300,0.000
202314.300,189553.400,190607.900,213644.500,206505.400,170306.500,161955.300,180710.400,0.000
203654.200,190031.700,191077.300,214026.800,207581.100,170377.900,162112.000,181188.100,0.000
203414.500,189890.900,190796.300,213681.500,207495.000,170249.600,161859.500,180759.100,0.000
201631.300,189200.400,189958.300,212893.800,206215.500,170039.400,161436.200,179811.800,0.000
200655.500,188882.400,189681.700,212738.600,205397.600,170053.300,161453.200,179662.800,0.000
202295.500,189538.400,190503.200,213568.700,206492.200,170304.100,161961.000,180707.500,0.000
203639.000,190017.800,190970.100,213949.400,207570.200,170373.400,162116.100,181185.200,0.000
203400.300,189876.000,190690.000,213602.600,207492.400,170245.300,161864.300,180761.300,0.000
201617.800,189183.200,189844.400,212807.800,206215.100,170030.100,161435.000,179808.100,0.000
200636.500,188867.200,189563.100,212648.100,205396.600,170036.700,161442.100,179649.800,0.000
202285.800,189535.700,190399.700,213491.100,206506.500,170293.800,161958.300,180707.800,0.000
203631.000,190019.400,190876.500,213880.000,207587.500,170368.900,162119.500,181194.800,0.000
203409.700,189893.400,190611.800,213546.900,207521.100,170252.600,161875.900,180782.300,0.000
201622.900,189186.400,189759.300,212741.700,206237.800,170023.100,161430.500,179816.000,0.000
200631.800,188861.200,189473.200,212571.300,205409.700,170028.800,161433.500,179645.700,0.000
202285.700,189542.400,190320.500,213419.200,206528.300,170302.500,161962.200,180710.900,0.000
203645.100,190036.200,190807.700,213820.500,207622.600,170390.100,162133.800,181207.900,0.000
203420.200,189901.500,190537.700,213481.200,207546.300,170267.200,161884.000,180788.200,0.000
201625.700,189191.500,189684.400,212670.500,206255.000,170030.400,161435.400,179816.800,0.000
200632.500,188871.700,189406.400,212502.300,205423.400,170040.900,161443.900,179650.500,0.000
202282.400,189548.500,190253.300,213348.000,206528.600,170308.100,161965.300,180709.400,0.000
203634.100,190030.300,190731.600,213734.200,207609.200,170375.600,162118.900,181193.900,0.000
203405.200,189892.500,190458.900,213390.600,207530.300,170246.000,161863.600,180766.800,0.000
201631.300,189196.600,189620.900,212594.700,206256.700,170027.300,161431.100,179808.700,0.000
200633.200,188874.700,189336.200,212424.000,205424.500,170039.800,161439.000,179641.300,0.000
202267.900,189543.500,190167.500,213262.300,206515.000,170304.600,161958.600,180696.900,0.000
203639.900,190037.700,190653.700,213663.200,207612.100,170379.300,162127.100,181196.700,0.000
203421.700,189898.000,190379.300,213319.900,207541.600,170242.200,161869.000,180772.700,0.000
201627.400,189184.000,189525.400,212512.400,206249.500,170010.200,161424.400,179805.700,0.000
200642.200,188877.900,189256.100,212355.600,205431.600,170038.800,161447.800,179651.300,0.000
202275.300,189544.000,190088.300,213192.300,206524.200,170304.900,161964.500,180701.600,0.000
203629.900,190023.700,190563.400,213584.900,207609.400,170373.600,162120.900,181190.400,0.000
203427.300,189899.800,190302.600,213261.700,207554.600,170250.800,161878.600,180781.500,0.000
201653.200,189200.600,189454.800,212461.700,206281.600,170024.500,161439.000,179818.400,0.000
200634.800,188869.500,189158.200,212281.200,205434.800,170031.200,161437.000,179634.500,0.000
202260.000,189534.200,189992.300,213119.300,206524.600,170296.300,161951.500,180685.400,0.000
203621.300,190018.000,190477.900,213520.700,207619.700,170368.700,162114.700,181185.100,0.000
203410.100,189885.000,190212.000,213193.400,207558.100,170243.000,161868.000,180774.500,0.000
201651.000,189200.400,189383.900,212409.600,206298.800,170029.300,161441.800,179824.700,0.000
200632.000,188871.000,189094.200,212228.800,205456.300,170036.800,161445.000,179643.000,0.000
202259.000,189538.200,189930.000,213068.600,206550.400,170303.400,161968.600,180697.200,0.000
203626.700,190026.900,190419.300,213471.800,207646.300,170381.500,162136.300,181198.400,0.000
203424.000,189896.800,190155.500,213138.900,207587.500,170251.000,161886.100,180787.300,0.000
201677.700,189220.900,189330.500,212354.200,206337.700,170041.600,161462.600,179846.000,0.000
200636.200,188876.200,189023.300,212160.200,205470.900,170037.400,161444.700,179648.500,0.000
202255.000,189541.200,189858.700,212998.500,206552.600,170300.700,161958.900,180700.500,0.000
203632.300,190038.900,190353.600,213401.900,207651.600,170378.900,162124.500,181202.400,0.000
203441.800,189915.500,190098.100,213075.000,207601.800,170253.900,161876.100,180794.900,0.000
201674.400,189213.800,189255.200,212276.200,206331.200,170025.500,161429.300,179832.000,0.000
200630.600,188871.300,188950.900,212088.700,205466.400,170034.500,161424.100,179638.100,0.000
202250.100,189536.500,189785.800,212929.400,206548.500,170303.600,161947.400,180691.300,0.000
203641.700,190041.400,190286.900,213345.600,207657.100,170385.200,162123.600,181201.900,0.000
203454.900,189920.400,190029.700,213021.800,207608.500,170259.600,161876.800,180795.300,0.000
201681.900,189216.300,189175.800,212216.000,206332.500,170024.500,161429.000,179825.400,0.000
200631.600,188868.900,188863.200,212021.200,205465.700,170023.200,161418.700,179627.200,0.000
202262.100,189546.500,189707.600,212871.300,206563.300,170303.200,161951.900,180692.000,0.000
203654.000,190056.700,190218.800,213298.300,207684.700,170399.700,162135.800,181217.400,0.000
203456.000,189924.300,189955.300,212967.100,207632.300,170268.900,161881.100,180803.300,0.000
201698.900,189231.500,189116.200,212171.300,206373.600,170042.200,161440.500,179842.400,0.000
200639.500,188882.900,188803.900,211976.200,205504.600,170046.200,161429.400,179642.700,0.000
202246.000,189543.600,189635.900,212815.500,206581.800,170315.200,161952.800,180694.500,0.000
203641.000,190047.500,190141.300,213234.000,207697.100,170393.000,162131.200,181210.600,0.000
203460.000,189926.600,189888.500,212912.600,207656.100,170264.600,161882.600,180806.400,0.000
201699.700,189228.900,189051.600,212119.500,206395.800,170040.800,161439.300,179849.600,0.000
200633.400,188876.400,188735.500,211918.500,205517.000,170038.500,161423.500,179641.900,0.000
202239.300,189539.000,189565.500,212751.300,206586.700,170301.400,161943.000,180688.000,0.000
203622.800,190034.600,190067.300,213163.400,207688.900,170381.600,162116.300,181201.000,0.000
203447.700,189915.500,189816.900,212843.100,207643.900,170257.400,161872.200,180801.100,0.000
201697.700,189222.300,188981.000,212047.200,206387.600,170029.100,161433.000,179843.600,0.000
200638.700,188882.300,188673.800,211856.000,205517.800,170039.400,161430.900,179640.700,0.000
202234.000,189539.200,189501.900,212689.300,206583.400,170308.800,161953.300,180685.800,0.000
203630.300,190042.200,190009.900,213110.400,207699.700,170390.800,162129.300,181204.800,0.000
203460.600,189925.500,189764.900,212797.400,207670.800,170270.400,161890.100,180810.600,0.000
201713.600,189236.700,188927.300,212000.800,206416.200,170042.100,161447.600,179852.300,0.000
200642.000,188886.600,188606.900,211793.400,205533.000,170042.200,161430.200,179636.500,0.000
202230.400,189541.300,189434.300,212626.100,206593.500,170310.600,161951.000,180683.200,0.000
203632.500,190046.400,189947.000,213051.100,207714.300,170394.800,162132.200,181209.500,0.000
203463.700,189924.700,189699.600,212733.700,207680.300,170266.900,161887.500,180809.200,0.000
201707.800,189225.200,188856.700,211934.400,206421.300,170031.000,161440.400,179842.100,0.000
200614.900,188867.300,188533.000,211721.500,205528.100,170030.100,161421.000,179620.300,0.000
202209.500,189524.900,189366.300,212556.400,206594.800,170299.200,161945.500,180672.600,0.000
203620.600,190030.900,189885.500,212988.400,207717.300,170390.800,162133.600,181207.700,0.000
203457.800,189913.800,189645.200,212675.500,207678.800,170264.900,161892.000,180813.500,0.000
201716.000,189225.600,188816.500,211883.100,206417.600,170038.800,161450.300,179855.000,0.000
200621.300,188861.600,188485.400,211664.700,205510.300,170028.800,161421.600,179623.900,0.000
202205.500,189513.700,189314.500,212497.200,206561.500,170294.300,161939.600,180669.700,0.000
203619.000,190025.300,189833.300,212926.800,207679.700,170383.300,162123.300,181201.500,0.000
203464.500,189910.200,189590.500,212615.200,207645.600,170260.200,161884.000,180808.500,0.000
201725.000,189221.700,188755.800,211822.300,206393.800,170030.400,161440.700,179848.300,0.000
200626.500,188864.100,188422.400,211606.800,205492.700,170025.900,161418.400,179618.800,0.000
202204.000,189518.700,189244.700,212443.200,206545.100,170296.000,161942.600,180665.200,0.000
203611.700,190024.500,189751.900,212870.200,207666.000,170377.100,162119.800,181194.800,0.000
203460.900,189913.200,189508.000,212560.500,207650.000,170256.000,161879.800,180808.300,0.000
201717.100,189224.900,188672.100,211767.300,206405.700,170028.100,161436.000,179849.400,0.000
200597.700,188854.400,188325.000,211540.200,205499.100,170016.900,161402.900,179607.700,0.000
202179.000,189516.000,189151.500,212379.800,206569.900,170297.300,161934.200,180659.400,0.000
203597.800,190033.500,189675.500,212820.400,207710.800,170393.700,162126.100,181201.400,0.000
203444.600,189922.000,189435.800,212513.800,207691.400,170269.200,161883.400,180810.500,0.000
201711.800,189239.200,188609.500,211724.300,206449.400,170044.500,161444.500,179856.500,0.000
200594.000,188871.400,188272.200,211498.400,205538.300,170037.200,161419.700,179618.100,0.000
202158.400,189520.500,189095.600,212327.300,206582.500,170303.100,161939.300,180657.400,0.000
203568.300,190018.800,189610.100,212752.500,207700.300,170380.300,162114.900,181186.800,0.000
203428.300,189905.300,189374.700,212443.500,207681.900,170253.700,161874.500,180800.000,0.000
201694.600,189210.000,188540.600,211645.800,206428.500,170020.500,161424.500,179836.300,0.000
200574.800,188839.000,188203.600,211419.600,205504.500,170012.900,161395.500,179594.800,0.000
202157.700,189499.600,189034.800,212256.700,206554.100,170279.700,161922.700,180642.300,0.000
203579.600,190009.200,189558.400,212693.800,207681.200,170368.000,162110.000,181185.400,0.000
203443.600,189902.800,189326.000,212392.400,207665.000,170250.700,161871.500,180806.500,0.000
201719.000,189218.700,188496.300,211601.600,206421.900,170022.900,161429.200,179849.200,0.000
200597.400,188853.700,188158.900,211377.100,205506.600,170022.500,161405.200,179606.200,0.000
202167.700,189514.900,188992.200,212221.200,206561.400,170305.400,161940.500,180658.300,0.000
203590.100,190027.200,189512.400,212659.400,207698.800,170394.100,162126.400,181200.100,0.000
203456.600,189922.700,189279.000,212359.400,207695.600,170275.200,161890.200,180815.600,0.000
201728.800,189236.700,188447.200,211570.400,206466.100,170044.100,161447.500,179856.800,0.000
200585.700,188858.900,188093.100,211336.600,205546.000,170028.500,161411.300,179604.100,0.000
202132.500,189504.700,188905.900,212160.100,206579.600,170292.000,161929.700,180635.500,0.000
203554.600,190015.600,189429.300,212596.600,207712.900,170376.100,162117.000,181177.800,0.000
203424.800,189912.500,189203.600,212298.600,207711.100,170255.300,161882.900,180804.400,0.000
201704.700,189229.300,188383.500,211510.300,206482.800,170027.900,161442.500,179851.100,0.000
200578.000,188864.600,188044.700,211280.900,205565.700,170024.900,161418.800,179602.200,0.000
202127.200,189507.300,188867.600,212109.300,206595.900,170292.700,161942.600,180642.000,0.000
203559.200,190022.800,189401.600,212551.900,207724.400,170378.900,162131.000,181188.500,0.000
203435.500,189914.600,189178.500,212256.100,207717.500,170257.200,161894.400,180814.700,0.000
201721.700,189232.700,188358.000,211469.300,206475.900,170027.900,161448.500,179859.000,0.000
200578.700,188854.500,188011.800,211231.700,205539.000,170014.500,161411.400,179601.900,0.000
202132.500,189505.400,188840.900,212068.100,206570.900,170292.300,161940.100,180645.300,0.000
203564.400,190020.200,189373.200,212513.300,207703.400,170385.700,162131.600,181194.300,0.000
203429.900,189903.100,189137.400,212202.400,207682.900,170254.600,161882.900,180806.200,0.000
201723.100,189227.700,188317.800,211420.400,206451.400,170029.400,161442.500,179854.000,0.000
200563.000,188839.800,187960.700,211178.000,205504.900,170013.800,161400.300,179586.700,0.000
202101.400,189482.300,188777.300,212008.500,206523.600,170285.900,161925.100,180625.500,0.000
203545.500,190008.000,189312.800,212462.800,207670.000,170381.900,162125.800,181186.100,0.000
203432.700,189907.000,189088.700,212168.900,207675.300,170261.800,161893.700,180813.500,0.000
201726.800,189231.800,188263.500,211382.500,206451.300,170039.200,161452.700,179861.700,0.000
200554.700,188840.200,187894.500,211131.000,205502.700,170019.500,161406.300,179588.200,0.000
202079.800,189472.000,188699.300,211951.000,206516.600,170281.900,161923.800,180616.700,0.000
203526.900,189993.500,189228.800,212401.300,207665.000,170372.900,162120.200,181172.600,0.000
203431.500,189906.100,189011.500,212117.100,207686.500,170260.800,161893.000,180810.900,0.000
201731.800,189233.300,188190.200,211337.400,206470.900,170038.900,161453.500,179864.000,0.000
200569.300,188853.300,187829.100,211097.000,205534.400,170030.700,161416.600,179599.800,0.000
202092.100,189486.300,188632.100,211920.400,206548.800,170293.300,161931.000,180627.800,0.000
203540.100,190011.700,189170.800,212378.800,207702.200,170385.200,162127.000,181190.700,0.000
203445.100,189923.600,188958.800,212095.500,207727.100,170270.400,161899.600,180830.000,0.000
201737.800,189240.400,188130.100,211303.400,206503.000,170036.300,161450.000,179868.300,0.000
200561.300,188848.200,187759.500,211050.400,205560.500,170017.800,161403.400,179588.200,0.000
202069.100,189475.800,188565.500,211869.900,206573.500,170286.600,161923.800,180616.100,0.000
203516.900,189999.800,189108.400,212326.700,207721.800,170377.200,162121.200,181177.900,0.000
203423.100,189912.500,188904.800,212043.500,207742.800,170261.400,161894.000,180816.900,0.000
201731.100,189239.700,188097.800,211267.200,206533.300,170041.100,161457.300,179870.400,0.000
200545.200,188835.200,187726.400,211008.400,205572.000,170021.300,161409.000,179585.600,0.000
202045.300,189450.600,188520.700,211814.400,206555.400,170272.300,161913.800,180600.100,0.000
203502.500,189980.500,189067.100,212273.000,207703.100,170368.100,162112.900,181166.900,0.000
203426.700,189902.300,188867.000,211997.700,207732.300,170258.400,161889.500,180813.500,0.000
201748.900,189241.100,188062.600,211226.000,206525.500,170042.300,161456.900,179872.500,0.000
200563.900,188848.000,187694.400,210973.100,205564.700,170031.800,161413.000,179591.600,0.000
202071.300,189475.700,188497.000,211788.600,206559.000,170297.900,161929.500,180614.700,0.000
203530.200,190003.300,189038.400,212246.200,207710.200,170388.200,162128.800,181180.900,0.000
203450.700,189920.900,188831.700,211968.400,207742.400,170276.600,161903.300,180824.100,0.000
201763.100,189248.200,188015.500,211186.800,206535.000,170054.000,161467.300,179877.800,0.000
200558.700,188842.800,187633.400,210921.300,205567.700,170032.000,161419.100,179586.300,0.000
202058.500,189468.200,188437.300,211742.500,206566.100,170298.000,161940.000,180613.600,0.000
203513.000,189990.100,188982.100,212201.500,207719.300,170387.100,162139.000,181182.200,0.000
203427.400,189901.900,188778.900,211923.100,207747.900,170271.500,161911.500,180826.300,0.000
201743.700,189235.100,187967.200,211144.200,206536.000,170044.300,161470.300,179878.400,0.000
200540.200,188832.400,187585.100,210876.300,205563.900,170017.800,161413.800,179581.700,0.000
202034.400,189451.700,188387.000,211689.600,206549.200,170282.200,161927.300,180602.500,0.000
203493.300,189971.900,188932.400,212149.900,207696.500,170372.000,162126.400,181172.200,0.000
203423.300,189894.900,188735.300,211878.700,207732.700,170258.800,161902.500,180824.500,0.000
201756.500,189237.400,187936.800,211108.900,206537.800,170043.800,161470.700,179889.800,0.000
200548.400,188829.000,187552.500,210836.800,205558.400,170022.000,161410.500,179588.900,0.000
202039.300,189450.200,188350.000,211649.800,206538.100,170289.400,161923.700,180607.800,0.000
203514.000,189990.200,188907.400,212124.500,207706.600,170392.500,162137.400,181193.800,0.000
203446.800,189910.800,188705.000,211849.800,207748.400,170280.800,161915.200,180840.900,0.000
201767.000,189239.800,187887.000,211064.800,206541.000,170055.000,161472.400,179886.600,0.000
200550.600,188829.600,187495.700,210790.900,205565.700,170032.000,161415.600,179585.600,0.000
202029.200,189443.800,188285.700,211603.800,206548.300,170293.300,161931.900,180605.000,0.000
203496.400,189974.500,188832.800,212074.100,207711.100,170384.800,162134.200,181183.000,0.000
203435.100,189900.200,188635.600,211808.800,207764.000,170276.800,161915.500,180839.800,0.000
201756.300,189229.500,187818.000,211025.200,206565.500,170045.200,161470.800,179889.900,0.000
200526.400,188812.800,187418.400,210744.200,205584.000,170017.800,161406.800,179575.100,0.000
202003.900,189429.700,188212.300,211558.400,206566.300,170280.300,161924.000,180592.200,0.000
203477.200,189962.500,188769.300,212035.700,207737.400,170379.800,162137.900,181179.100,0.000
203420.500,189887.900,188575.500,211768.000,207788.300,170270.300,161918.200,180834.900,0.000
201751.100,189222.600,187766.200,210986.900,206592.000,170043.700,161475.200,179887.600,0.000
200518.700,188805.200,187369.000,210702.900,205601.200,170014.900,161408.300,179571.500,0.000
201995.200,189416.700,188165.900,211516.400,206573.500,170278.800,161923.300,180589.100,0.000
203480.600,189956.700,188736.400,212004.200,207748.800,170388.000,162145.400,181186.900,0.000
203425.200,189881.400,188542.400,211736.600,207793.100,170276.200,161923.300,180843.700,0.000
201770.100,189226.700,187744.200,210966.800,206605.100,170052.500,161488.500,179905.000,0.000
200526.100,188801.400,187343.300,210677.600,205611.100,170015.800,161415.300,179583.000,0.000
201985.100,189403.100,188126.900,211477.400,206570.000,170269.700,161918.100,180588.400,0.000
203462.000,189935.200,188683.500,211948.000,207728.500,170363.900,162123.200,181169.500,0.000
203422.000,189870.600,188500.900,211687.000,207788.200,170260.000,161909.000,180831.500,0.000
201759.900,189209.800,187695.900,210908.500,206595.500,170036.000,161467.200,179884.400,0.000
200515.500,188790.500,187298.300,210625.400,205598.300,170014.500,161402.800,179568.600,0.000
201983.500,189407.200,188094.900,211439.800,206566.000,170284.200,161923.300,180587.200,0.000
203471.400,189946.800,188659.500,211920.400,207734.200,170383.200,162136.400,181180.100,0.000
203442.900,189891.000,188484.800,211670.100,207803.800,170282.800,161928.600,180851.800,0.000
201782.700,189225.700,187674.900,210889.200,206608.500,170049.100,161480.900,179903.500,0.000
200519.800,188792.200,187257.700,210591.300,205591.700,170014.300,161405.900,179572.700,0.000
201986.700,189407.300,188052.300,211407.400,206557.600,170287.300,161929.900,180594.300,0.000
203482.000,189947.300,188618.400,211891.500,207732.000,170387.600,162144.800,181190.000,0.000
203441.900,189876.100,188428.700,211628.700,207791.500,170275.200,161925.800,180852.400,0.000
201802.600,189230.900,187635.000,210865.100,206617.700,170060.600,161496.500,179916.500,0.000
200543.300,188804.200,187226.500,210574.600,205610.700,170034.600,161428.900,179589.200,0.000
201993.900,189407.600,188008.300,211379.200,206560.400,170293.100,161938.700,180599.800,0.000
203488.200,189949.300,188569.300,211859.000,207735.100,170393.300,162153.100,181196.800,0.000
203451.400,189879.500,188377.500,211592.000,207797.900,170280.500,161934.200,180858.900,0.000
201806.800,189228.500,187576.200,210821.300,206624.300,170059.000,161498.200,179917.400,0.000
200526.700,188787.800,187154.200,210515.400,205608.100,170022.600,161417.700,179574.400,0.000
201965.200,189385.300,187936.400,211319.400,206557.000,170286.900,161929.100,180583.600,0.000
203481.900,189944.800,188524.000,211824.000,207757.300,170402.200,162162.200,181202.300,0.000
203459.500,189887.600,188344.100,211567.200,207833.600,170290.300,161945.500,180868.500,0.000
201797.400,189219.100,187532.200,210782.700,206644.200,170052.400,161493.000,179912.200,0.000
200517.900,188778.000,187114.800,210479.200,205625.300,170016.100,161411.900,179567.500,0.000
201959.700,189380.700,187898.300,211282.600,206568.000,170278.000,161922.700,180571.600,0.000
203466.100,189930.700,188479.400,211780.900,207752.100,170385.900,162151.500,181183.600,0.000
203446.400,189869.500,188304.300,211527.400,207827.300,170277.800,161939.900,180858.800,0.000
201801.400,189209.600,187499.400,210749.100,206644.700,170043.500,161489.000,179909.700,0.000
200514.100,188764.800,187077.100,210441.100,205615.600,170006.800,161406.300,179565.300,0.000
201961.200,189373.700,187874.300,211257.200,206567.600,170288.500,161936.000,180583.200,0.000
203466.000,189917.500,188452.600,211751.000,207752.200,170393.800,162159.200,181188.900,0.000
203458.000,189863.900,188276.900,211497.100,207835.800,170281.900,161946.200,180860.800,0.000
201819.200,189210.400,187478.700,210723.900,206666.500,170056.900,161507.100,179918.000,0.000
200527.800,188770.600,187058.000,210417.600,205641.000,170027.800,161429.000,179573.500,0.000
201948.700,189361.300,187831.400,211214.700,206568.800,170288.300,161933.900,180570.700,0.000
203466.500,189914.600,188408.600,211709.800,207757.600,170396.500,162155.700,181180.400,0.000
203459.300,189858.000,188235.300,211459.200,207843.300,170288.500,161943.300,180858.800,0.000
201822.800,189206.000,187441.700,210692.100,206673.800,170063.100,161504.500,179921.600,0.000
200523.900,188763.600,187015.600,210384.200,205640.600,170027.700,161424.600,179570.600,0.000
201943.900,189355.400,187784.700,211175.000,206564.700,170283.000,161931.500,180565.400,0.000
203448.500,189893.600,188356.900,211663.800,207739.500,170382.100,162149.500,181170.000,0.000
203445.000,189840.700,188189.300,211416.000,207826.900,170278.200,161943.100,180852.100,0.000
201823.900,189198.400,187400.300,210651.800,206667.100,170056.400,161507.600,179919.900,0.000
200510.300,188742.100,186964.200,210333.300,205622.700,170015.800,161417.800,179561.500,0.000
201926.500,189336.500,187738.700,211134.000,206547.800,170276.600,161929.400,180564.200,0.000
203439.900,189883.300,188320.100,211634.600,207732.300,170382.300,162156.400,181179.900,0.000
203446.800,189835.200,188155.100,211389.300,207824.000,170279.600,161949.700,180861.700,0.000
201838.400,189197.100,187373.300,210631.200,206674.400,170060.400,161519.500,179935.000,0.000
200518.900,188740.500,186935.200,210306.600,205627.900,170015.900,161423.500,179569.200,0.000
201915.700,189319.500,187696.500,211092.800,206537.700,170269.700,161920.600,180555.000,0.000
203442.800,189876.600,188283.900,211601.800,207735.200,170381.500,162154.400,181175.800,0.000
203455.700,189831.400,188123.000,211366.200,207838.000,170283.300,161952.600,180863.300,0.000
201823.200,189170.900,187319.600,210588.500,206665.500,170047.200,161499.900,179914.800,0.000
200515.500,188727.400,186890.300,210276.600,205629.000,170013.500,161417.700,179558.100,0.000
201917.300,189313.700,187657.800,211070.800,206543.800,170272.600,161924.200,180551.300,0.000
203443.700,189869.700,188246.700,211579.300,207742.600,170384.000,162157.100,181178.100,0.000
203454.400,189822.300,188083.300,211339.700,207846.700,170286.700,161957.500,180870.100,0.000
201838.000,189179.500,187294.800,210576.200,206691.500,170067.200,161525.300,179939.400,0.000
200502.200,188713.500,186841.200,210235.400,205630.500,170009.800,161420.300,179560.200,0.000
201899.700,189299.100,187608.100,211026.200,206543.600,170267.800,161924.500,180549.300,0.000
203430.500,189858.200,188198.400,211536.700,207744.000,170382.700,162159.300,181175.500,0.000
203449.000,189816.500,188040.900,211300.300,207853.400,170282.700,161957.300,180868.100,0.000
201835.900,189171.000,187252.500,210536.800,206700.500,170057.900,161516.700,179935.000,0.000
200509.500,188714.300,186809.500,210207.800,205650.500,170013.300,161420.600,179562.600,0.000
201902.000,189298.200,187579.800,211001.500,206560.500,170276.000,161926.700,180554.300,0.000
203435.000,189854.900,188174.400,211514.600,207761.200,170390.400,162159.600,181183.300,0.000
203457.600,189810.400,188014.900,211274.400,207868.300,170285.700,161952.200,180870.100,0.000
201847.300,189164.300,187223.500,210503.700,206711.900,170057.900,161510.100,179931.800,0.000
200512.500,188706.900,186782.900,210172.800,205656.100,170017.600,161418.900,179558.700,0.000
201899.200,189287.600,187548.800,210961.000,206560.500,170274.100,161924.600,180543.500,0.000
203437.700,189846.000,188144.400,211473.300,207764.700,170382.300,162157.800,181168.900,0.000
203463.700,189802.800,187986.100,211234.800,207874.200,170277.800,161953.500,180859.200,0.000
201863.200,189165.600,187207.100,210480.900,206734.100,170065.100,161523.900,179934.300,0.000
200526.400,188708.400,186758.900,210152.100,205673.300,170025.600,161429.900,179557.400,0.000
201885.100,189267.000,187501.300,210924.800,206547.300,170266.800,161917.600,180526.600,0.000
203418.700,189823.200,188093.900,211439.100,207741.700,170376.200,162148.100,181155.500,0.000
203451.500,189784.300,187943.200,211210.000,207855.000,170277.100,161950.400,180855.200,0.000
201852.300,189141.500,187156.400,210446.400,206711.100,170051.000,161513.500,179923.900,0.000
200495.900,188665.800,186698.700,210103.600,205641.800,170001.800,161409.200,179539.100,0.000
201873.500,189247.600,187463.000,210892.900,206532.500,170268.800,161917.500,180527.900,0.000
203433.800,189825.400,188078.300,211423.900,207755.000,170395.300,162173.300,181178.600,0.000
203458.600,189772.800,187910.400,211176.300,207862.700,170276.300,161954.600,180861.200,0.000
201863.200,189134.800,187123.100,210411.500,206723.300,170050.700,161514.500,179929.000,0.000
200494.400,188657.400,186657.300,210063.700,205645.500,170001.200,161407.100,179536.300,0.000
201858.700,189229.800,187415.700,210852.300,206535.300,170268.100,161915.400,180523.300,0.000
203421.200,189805.300,188027.000,211381.100,207758.700,170388.700,162163.100,181171.300,0.000
203456.000,189762.600,187871.200,211146.500,207874.900,170280.400,161953.900,180866.900,0.000
201872.800,189133.900,187099.600,210396.000,206747.300,170064.400,161526.100,179946.000,0.000
200510.900,188657.800,186635.600,210048.800,205672.800,170014.000,161419.800,179547.500,0.000
201864.500,189220.800,187386.800,210829.600,206550.300,170270.900,161921.600,180523.500,0.000
203409.600,189780.100,187986.000,211350.100,207754.900,170382.300,162162.200,181162.100,0.000
203464.300,189754.100,187846.600,211125.500,207889.700,170286.000,161968.000,180870.700,0.000
201873.100,189116.700,187062.000,210360.900,206757.100,170056.700,161525.900,179938.500,0.000
200490.200,188632.900,186588.600,210003.100,205666.900,170001.000,161412.600,179533.200,0.000
201838.600,189194.700,187337.400,210782.200,206536.700,170256.900,161911.400,180509.100,0.000
203403.900,189767.900,187951.000,211315.300,207757.000,170379.600,162157.800,181161.700,0.000
203464.900,189743.100,187815.100,211097.000,207892.500,170288.600,161968.800,180874.000,0.000
201878.400,189107.700,187039.400,210339.700,206755.800,170064.700,161534.800,179945.800,0.000
200504.500,188630.000,186573.000,209990.200,205666.500,170008.600,161424.500,179543.800,0.000
201849.600,189194.700,187323.100,210774.600,206540.200,170266.800,161927.200,180522.400,0.000
203400.900,189756.300,187923.100,211295.500,207749.500,170377.100,162167.900,181164.600,0.000
203464.400,189732.100,187787.000,211076.700,207892.200,170283.300,161978.500,180879.400,0.000
201898.000,189112.700,187020.900,210331.700,206780.600,170070.200,161556.100,179966.100,0.000
200500.800,188617.700,186533.700,209962.100,205677.800,170005.300,161432.400,179548.200,0.000
201831.800,189170.300,187270.800,210728.100,206532.500,170254.300,161924.900,180513.900,0.000
203395.500,189743.500,187882.800,211257.900,207750.400,170369.900,162169.900,181164.800,0.000
203465.300,189725.900,187750.500,211041.500,207894.500,170275.200,161976.700,180876.900,0.000
201885.300,189088.500,186976.500,210283.300,206765.500,170051.400,161536.000,179945.800,0.000
200486.400,188595.000,186503.200,209921.300,205668.500,169993.000,161419.000,179531.500,0.000
201831.000,189164.700,187259.500,210702.400,206534.000,170255.800,161924.100,180508.000,0.000
203401.700,189740.900,187876.100,211235.800,207754.300,170373.600,162170.100,181159.600,0.000
203464.400,189712.500,187738.700,211012.700,207888.000,170271.700,161972.100,180870.200,0.000
201889.900,189080.800,186963.700,210254.900,206759.400,170047.900,161538.200,179944.300,0.000
200493.300,188590.900,186487.400,209893.700,205654.300,169993.400,161425.900,179531.100,0.000
201810.600,189141.400,187226.800,210660.200,206493.800,170247.400,161922.000,180495.500,0.000
203378.300,189714.000,187840.200,211192.800,207708.300,170363.900,162169.800,181152.600,0.000
203460.300,189697.100,187709.000,210974.000,207857.500,170261.700,161978.300,180870.800,0.000
201895.100,189065.700,186934.700,210219.400,206737.000,170039.200,161543.900,179948.600,0.000
200490.800,188573.300,186449.200,209853.400,205627.200,169988.600,161426.000,179530.400,0.000
201818.700,189140.600,187195.600,210632.600,206484.400,170255.100,161937.200,180508.000,0.000
203382.100,189708.600,187798.400,211159.100,207703.100,170363.600,162175.000,181158.800,0.000
203459.800,189692.200,187660.400,210944.200,207857.200,170267.600,161977.600,180875.300,0.000
201890.100,189068.000,186878.200,210186.200,206744.500,170045.500,161536.800,179949.300,0.000
200474.200,188573.000,186382.200,209812.600,205638.300,169986.800,161413.500,179521.400,0.000
201781.600,189128.800,187114.400,210583.800,206488.100,170245.300,161911.800,180486.800,0.000
203349.800,189707.600,187727.700,211120.100,207718.200,170365.500,162162.500,181148.700,0.000
203435.900,189697.300,187606.100,210917.200,207891.700,170276.900,161984.400,180881.400,0.000
201876.900,189074.800,186838.200,210170.700,206783.800,170054.500,161550.200,179962.200,0.000
200451.200,188573.900,186343.900,209792.900,205667.500,169991.100,161423.200,179531.400,0.000
201749.200,189123.800,187074.200,210554.300,206506.300,170246.400,161918.200,180489.700,0.000
203336.600,189710.100,187700.600,211100.500,207745.800,170373.000,162177.100,181160.000,0.000
203426.300,189691.800,187574.600,210890.400,207908.700,170271.900,161983.000,180884.700,0.000
201864.000,189062.300,186803.700,210128.800,206788.900,170039.800,161536.300,179952.500,0.000
200444.400,188565.900,186318.300,209750.500,205664.600,169982.800,161410.700,179516.100,0.000
201746.000,189115.600,187057.400,210514.800,206489.100,170235.600,161903.300,180473.600,0.000
203337.300,189701.600,187690.100,211063.900,207718.400,170358.800,162159.800,181145.400,0.000
203437.800,189694.300,187573.300,210864.700,207885.600,170269.000,161975.600,180877.800,0.000
201882.800,189071.400,186807.500,210115.400,206778.100,170049.900,161543.000,179959.800,0.000
200452.800,188573.700,186312.500,209737.300,205651.300,169993.500,161419.400,179525.000,0.000
201752.100,189125.400,187047.300,210504.600,206479.800,170247.800,161917.600,180484.900,0.000
203343.000,189711.400,187676.000,211051.700,207718.700,170368.600,162172.200,181158.300,0.000
203442.700,189702.900,187552.700,210847.100,207889.900,170276.600,161985.700,180890.600,0.000
201889.300,189076.600,186783.300,210097.800,206783.900,170051.800,161549.800,179969.000,0.000
200449.900,188569.000,186277.500,209712.900,205651.700,169987.200,161413.200,179521.400,0.000
201734.700,189111.200,187004.500,210472.900,206480.300,170242.000,161908.500,180476.600,0.000
203324.400,189694.400,187635.900,211023.200,207725.900,170369.100,162170.000,181153.300,0.000
203432.700,189690.100,187517.300,210820.500,207904.200,170278.000,161982.900,180886.100,0.000
201889.300,189072.100,186749.500,210069.100,206802.500,170053.200,161543.500,179961.000,0.000
200436.900,188558.400,186240.900,209677.800,205661.900,169986.400,161408.100,179508.600,0.000
201709.000,189096.600,186970.100,210436.900,206477.100,170241.600,161904.200,180460.500,0.000
203311.600,189690.700,187606.600,210988.500,207719.700,170364.200,162164.500,181141.000,0.000
203422.700,189683.800,187488.800,210785.700,207895.500,170268.900,161979.800,180877.800,0.000
201887.100,189064.600,186726.600,210035.200,206794.400,170045.900,161545.300,179958.500,0.000
200432.000,188546.600,186214.100,209636.000,205645.800,169977.500,161410.000,179500.900,0.000
201701.100,189083.100,186937.800,210389.700,206450.800,170229.600,161902.900,180449.800,0.000
203290.000,189665.800,187568.800,210939.800,207677.900,170351.300,162161.800,181128.400,0.000
203406.800,189663.000,187459.700,210744.800,207855.800,170261.700,161981.600,180872.900,0.000
201886.200,189053.200,186709.300,210008.000,206769.800,170048.800,161552.600,179965.700,0.000
200446.100,188555.900,186212.600,209626.700,205635.200,169996.600,161425.800,179519.200,0.000
201697.900,189083.400,186926.300,210375.600,206425.700,170240.700,161910.400,180458.200,0.000
203299.400,189674.400,187567.400,210936.600,207665.600,170365.800,162173.500,181146.200,0.000
203418.100,189670.800,187453.300,210737.600,207841.200,170270.300,161986.000,180880.800,0.000
201895.900,189065.600,186696.900,209995.500,206756.400,170052.200,161554.900,179965.300,0.000
200431.600,188548.200,186178.200,209596.700,205612.300,169985.700,161413.100,179503.200,0.000
201695.200,189091.500,186895.800,210354.900,206419.100,170244.800,161908.700,180453.500,0.000
203295.700,189680.400,187527.100,210910.800,207663.200,170367.100,162167.700,181135.800,0.000
203410.800,189676.200,187410.600,210711.300,207850.300,170270.000,161980.800,180873.500,0.000
201881.700,189060.600,186644.100,209962.800,206762.500,170048.100,161543.900,179956.000,0.000
200420.900,188551.100,186125.900,209568.000,205622.100,169989.300,161410.300,179498.700,0.000
201675.700,189089.900,186843.700,210326.000,206430.200,170249.900,161908.700,180449.100,0.000
203280.300,189681.300,187479.600,210888.800,207680.900,170376.500,162178.400,181140.300,0.000
203416.000,189689.300,187374.100,210704.900,207883.200,170291.300,162007.500,180894.900,0.000
201906.100,189084.400,186625.300,209971.000,206815.000,170074.300,161579.500,179990.900,0.000
200424.900,188557.300,186100.500,209564.400,205657.400,170002.300,161429.900,179517.800,0.000
201655.500,189079.500,186807.000,210309.500,206441.000,170253.400,161917.600,180453.100,0.000
203269.300,189678.100,187451.000,210873.800,207691.300,170379.200,162184.000,181145.800,0.000
203399.500,189674.700,187337.800,210676.300,207879.300,170276.100,161995.100,180885.600,0.000
201884.800,189065.500,186586.700,209934.800,206797.100,170056.200,161563.600,179975.200,0.000
200413.000,188545.400,186069.400,209529.600,205636.400,169989.700,161420.000,179505.700,0.000
201648.500,189061.300,186778.600,210271.300,206416.500,170233.900,161902.900,180438.800,0.000
203261.000,189655.200,187423.500,210835.700,207663.300,170361.500,162170.200,181132.600,0.000
203403.200,189662.100,187324.500,210649.100,207858.500,170271.400,161991.700,180887.100,0.000
201903.600,189061.200,186578.800,209910.500,206784.000,170051.900,161561.200,179981.400,0.000
200416.400,188529.000,186049.200,209493.800,205611.200,169974.200,161409.500,179496.900,0.000
201639.800,189047.100,186752.500,210234.100,206379.600,170220.500,161893.800,180425.900,0.000
203265.700,189652.100,187408.900,210811.200,207640.100,170358.100,162173.000,181134.000,0.000
203407.000,189656.100,187301.000,210623.200,207838.800,170261.200,161988.800,180883.600,0.000
201908.200,189055.800,186552.000,209889.500,206768.100,170047.600,161562.300,179982.500,0.000
200416.900,188527.800,186021.900,209477.300,205600.300,169980.300,161415.800,179503.800,0.000
201640.300,189051.900,186728.400,210225.000,206374.000,170236.600,161905.300,180438.300,0.000
203259.000,189654.200,187380.000,210799.700,207630.900,170372.300,162182.400,181144.300,0.000
203410.100,189670.500,187284.600,210622.300,207844.500,170288.900,162009.800,180905.900,0.000
201915.600,189071.900,186536.400,209888.000,206777.500,170072.100,161575.900,179999.700,0.000
200403.100,188524.400,185984.700,209451.600,205587.300,169980.400,161406.800,179495.200,0.000
201623.300,189045.300,186691.900,210193.000,206360.500,170230.600,161896.500,180426.300,0.000
203250.200,189649.500,187347.800,210767.900,207623.000,170363.800,162174.800,181136.200,0.000
203403.000,189658.600,187252.800,210583.900,207833.300,170273.400,161999.500,180895.100,0.000
201913.900,189058.200,186509.200,209847.700,206768.000,170053.700,161567.500,179986.500,0.000
200418.100,188525.600,185973.000,209424.800,205586.500,169973.200,161410.500,179492.900,0.000
201629.800,189044.100,186675.000,210165.700,206351.500,170220.400,161896.300,180422.000,0.000
203259.100,189648.400,187328.400,210744.000,207615.300,170356.500,162175.700,181131.900,0.000
203416.000,189658.300,187234.800,210565.100,207834.300,170272.600,162005.000,180895.500,0.000
201930.400,189063.500,186488.800,209831.800,206777.500,170058.100,161578.300,179994.600,0.000
200418.500,188523.900,185940.800,209401.500,205593.600,169980.500,161418.200,179497.000,0.000
201627.400,189044.500,186642.300,210141.600,206359.900,170234.000,161905.300,180425.400,0.000
203264.900,189656.400,187300.400,210726.100,207633.300,170374.300,162190.900,181145.500,0.000
203411.900,189659.300,187198.000,210543.300,207849.200,170283.100,162013.600,180901.600,0.000
201909.000,189047.000,186439.800,209797.700,206774.400,170056.500,161574.300,179985.700,0.000
200395.800,188507.500,185892.800,209367.500,205587.200,169972.000,161411.000,179485.000,0.000
201598.900,189028.600,186595.700,210108.500,206348.500,170220.700,161896.600,180413.800,0.000
203229.600,189633.500,187251.900,210687.600,207615.200,170355.400,162175.300,181127.800,0.000
203400.000,189653.000,187162.400,210513.600,207847.400,170271.500,162009.500,180897.000,0.000
201928.400,189066.400,186430.900,209791.200,206806.800,170067.700,161594.000,180007.900,0.000
200402.100,188519.000,185881.700,209357.100,205611.400,169988.200,161428.900,179502.500,0.000
201596.700,189031.200,186576.200,210089.800,206357.800,170233.900,161909.000,180420.000,0.000
203229.600,189631.800,187231.500,210667.600,207623.700,170359.200,162183.700,181131.400,0.000
203393.900,189642.800,187134.700,210485.500,207846.000,170266.200,162008.800,180894.400,0.000
201906.000,189035.800,186384.200,209742.600,206782.000,170039.000,161571.100,179983.000,0.000
200386.500,188497.900,185845.300,209317.500,205598.100,169967.500,161412.300,179484.200,0.000
201583.300,189022.400,186556.300,210064.600,206351.400,170231.700,161905.100,180415.100,0.000
203221.400,189630.300,187221.200,210650.700,207617.100,170367.300,162184.800,181135.100,0.000
203391.900,189647.000,187133.800,210478.800,207846.500,170278.800,162012.000,180903.000,0.000
201916.200,189053.200,186389.700,209743.900,206789.500,170057.300,161576.800,179996.000,0.000
200389.300,188510.900,185838.300,209308.400,205590.100,169979.500,161414.400,179487.100,0.000
201571.000,189016.200,186532.000,210042.500,206327.400,170228.600,161899.100,180403.600,0.000
203228.200,189633.500,187205.200,210637.400,207607.600,170370.600,162190.500,181132.100,0.000
203410.500,189654.400,187124.000,210471.200,207844.400,170288.900,162028.300,180910.500,0.000
201936.000,189057.000,186379.700,209735.300,206792.000,170065.600,161592.800,180005.800,0.000
200398.300,188508.300,185815.900,209291.400,205587.700,169980.500,161421.900,179489.300,0.000
201564.800,189009.800,186495.200,210013.300,206313.900,170221.700,161900.700,180397.300,0.000
203207.000,189616.500,187155.700,210601.700,207584.200,170354.500,162182.100,181117.800,0.000
203388.500,189635.900,187068.800,210432.800,207818.300,170268.500,162010.700,180891.400,0.000
201928.300,189050.800,186337.100,209710.900,206782.600,170060.700,161586.400,179998.500,0.000
200392.100,188504.300,185782.900,209275.600,205588.600,169978.700,161420.100,179485.300,0.000
201557.600,189003.800,186467.100,210002.300,206319.800,170226.300,161899.300,180398.700,0.000
203213.700,189618.900,187134.500,210593.600,207595.400,170363.100,162186.000,181126.800,0.000
203402.800,189641.100,187053.100,210426.300,207829.900,170277.700,162016.600,180902.300,0.000
201935.100,189047.300,186317.400,209696.300,206787.200,170055.400,161587.100,180003.900,0.000
200387.900,188497.900,185755.500,209250.400,205579.600,169969.900,161417.500,179480.800,0.000
201547.700,188997.800,186435.400,209972.600,206304.500,170216.600,161896.000,180389.700,0.000
203206.700,189615.500,187109.500,210570.900,207588.400,170358.700,162187.900,181125.200,0.000
203401.700,189642.800,187031.800,210408.700,207835.100,170277.200,162024.700,180907.300,0.000
201934.700,189047.600,186291.300,209676.200,206784.600,170058.200,161591.000,180005.400,0.000
200390.800,188496.900,185733.100,209230.100,205577.900,169978.000,161422.200,179482.500,0.000
201553.300,189000.600,186418.100,209955.000,206300.900,170228.300,161904.500,180389.500,0.000
203211.400,189614.500,187084.400,210543.400,207576.500,170358.900,162187.300,181116.600,0.000
203404.800,189639.500,187004.900,210377.000,207820.500,170273.800,162018.000,180894.700,0.000
201945.500,189049.500,186270.000,209649.200,206779.300,170056.400,161587.100,179995.300,0.000
200394.500,188496.700,185709.600,209206.000,205569.600,169976.800,161417.500,179473.200,0.000
201554.000,189005.100,186401.400,209940.800,206293.100,170238.000,161909.000,180390.900,0.000
203211.700,189619.300,187073.300,210537.300,207568.100,170372.500,162197.700,181124.500,0.000
203410.500,189643.800,186995.200,210373.200,207811.200,170286.800,162029.900,180904.200,0.000
201960.500,189060.500,186266.000,209652.500,206780.000,170076.200,161608.100,180016.700,0.000
200395.800,188500.000,185696.500,209196.500,205564.400,169984.500,161430.400,179484.000,0.000
201532.600,188990.200,186374.100,209915.000,206269.600,170229.300,161908.100,180384.400,0.000
203202.500,189615.700,187059.100,210519.300,207553.500,170375.400,162204.100,181127.900,0.000
203406.300,189643.200,186982.800,210355.300,207801.100,170287.400,162034.200,180909.000,0.000
201955.800,189055.000,186251.000,209628.900,206769.400,170065.000,161602.300,180012.700,0.000
200392.300,188494.700,185680.500,209172.600,205550.300,169978.600,161422.100,179478.600,0.000
201525.700,188986.200,186353.800,209888.200,206250.200,170226.300,161898.200,180376.700,0.000
203188.900,189604.800,187031.200,210488.600,207527.600,170363.300,162189.500,181114.800,0.000
203399.200,189637.700,186962.600,210333.400,207780.600,170278.900,162024.800,180903.800,0.000
201960.500,189055.200,186239.200,209614.000,206753.200,170063.200,161597.300,180012.700,0.000
200399.400,188503.300,185680.000,209165.700,205539.900,169989.900,161429.300,179488.100,0.000
201529.000,188994.900,186351.700,209879.000,206235.300,170233.800,161903.200,180382.300,0.000
203201.900,189619.100,187035.600,210486.900,207522.900,170376.800,162200.300,181129.000,0.000
203424.800,189657.700,186974.000,210338.300,207786.000,170301.700,162046.400,180927.900,0.000
201989.000,189075.500,186245.700,209615.800,206761.900,170082.500,161620.800,180035.600,0.000
200411.200,188508.500,185666.000,209151.400,205535.800,169986.900,161437.500,179490.000,0.000
201523.300,188989.400,186328.500,209856.900,206224.500,170224.700,161905.400,180379.000,0.000
203198.200,189612.500,187006.900,210464.200,207512.500,170367.300,162203.400,181123.900,0.000
203420.000,189649.100,186939.000,210313.500,207777.700,170288.800,162046.300,180919.600,0.000
201976.100,189060.300,186202.500,209586.900,206749.900,170066.200,161614.700,180022.400,0.000
200394.300,188492.500,185617.500,209118.900,205518.500,169975.600,161428.200,179474.400,0.000
201511.400,188979.400,186285.300,209829.800,206210.300,170225.400,161905.000,180370.000,0.000
203189.000,189605.800,186971.800,210442.400,207503.300,170373.000,162207.600,181124.200,0.000
203416.800,189646.300,186906.000,210292.800,207776.400,170292.200,162047.000,180920.600,0.000
201986.400,189066.600,186179.800,209573.400,206761.200,170077.800,161620.900,180031.300,0.000
200404.500,188504.000,185607.000,209114.500,205538.300,169998.200,161444.100,179490.200,0.000
201506.300,188984.400,186266.600,209819.000,206218.900,170239.700,161911.500,180373.700,0.000
203185.700,189607.100,186949.400,210427.200,207512.200,170377.400,162209.700,181124.800,0.000
203418.500,189649.500,186884.800,210277.100,207786.400,170297.100,162052.100,180923.500,0.000
201996.400,189070.200,186156.900,209555.400,206774.000,170075.200,161622.300,180031.200,0.000
200405.100,188496.600,185567.200,209079.200,205535.900,169979.300,161429.300,179473.500,0.000
201498.700,188976.000,186230.300,209788.000,206211.500,170227.900,161906.600,180368.000,0.000
203186.300,189604.800,186925.200,210409.200,207508.200,170371.100,162211.400,181128.100,0.000
203418.700,189640.800,186862.300,210259.400,207776.700,170285.000,162047.500,180923.500,0.000
201998.700,189064.600,186143.200,209540.400,206766.700,170072.000,161623.300,180037.300,0.000
200399.000,188489.200,185557.000,209063.800,205524.700,169981.900,161433.600,179480.000,0.000
201486.100,188963.400,186213.600,209764.100,206193.600,170225.100,161903.000,180359.500,0.000
203170.800,189592.500,186906.500,210378.600,207486.900,170368.200,162205.100,181115.000,0.000
203414.100,189638.500,186848.700,210236.200,207765.300,170286.900,162045.300,180919.200,0.000
201997.300,189060.900,186128.100,209521.500,206754.100,170070.100,161618.200,180031.500,0.000
200403.300,188491.100,185545.500,209050.400,205515.300,169981.300,161433.500,179476.700,0.000
201506.000,188983.900,186219.400,209768.400,206196.500,170244.100,161923.500,180376.400,0.000
203183.300,189605.500,186902.000,210379.400,207484.600,170385.500,162222.100,181131.200,0.000
203423.600,189648.800,186839.200,210231.800,207763.900,170300.500,162061.600,180933.600,0.000
202003.200,189067.500,186111.600,209512.100,206753.400,170075.200,161627.100,180043.900,0.000
200396.300,188490.200,185517.100,209032.200,205509.000,169981.400,161433.300,179481.100,0.000
201473.800,188963.800,186165.800,209727.000,206170.000,170225.100,161903.200,180357.200,0.000
203175.500,189604.800,186864.600,210352.200,207478.700,170376.500,162215.900,181126.400,0.000
203434.400,189663.200,186816.500,210218.900,207776.200,170304.400,162067.900,180940.600,0.000
202020.800,189086.700,186092.600,209498.300,206769.900,170083.600,161637.500,180049.600,0.000
200408.700,188507.800,185500.400,209018.100,205521.300,169987.800,161444.100,179484.600,0.000
201476.000,188977.100,186150.300,209715.300,206176.800,170229.500,161910.100,180359.600,0.000
203172.500,189610.000,186844.500,210335.400,207477.500,170373.100,162213.300,181121.000,0.000
203414.800,189647.600,186783.300,210189.200,207757.300,170287.200,162049.800,180923.600,0.000
202008.200,189072.900,186063.600,209472.800,206757.600,170068.600,161621.300,180038.400,0.000
200400.400,188498.400,185469.700,208990.900,205510.600,169977.700,161428.500,179469.700,0.000
201471.600,188971.800,186121.700,209684.900,206168.700,170222.800,161898.600,180341.600,0.000
203174.000,189610.700,186827.900,210318.600,207478.600,170381.200,162216.300,181118.000,0.000
203436.600,189662.500,186783.000,210182.900,207779.000,170301.400,162066.200,180935.700,0.000
202032.600,189088.600,186064.100,209463.800,206785.500,170077.900,161636.500,180049.900,0.000
200409.200,188506.000,185459.300,208971.100,205522.800,169982.600,161437.400,179473.600,0.000
201464.000,188968.300,186104.500,209663.500,206166.200,170227.100,161906.600,180344.700,0.000
203158.100,189599.000,186801.700,210287.400,207468.800,170371.500,162214.900,181116.300,0.000
203428.700,189658.600,186758.100,210155.800,207770.900,170294.900,162066.700,180935.600,0.000
202036.000,189093.900,186047.500,209446.300,206780.300,170080.600,161641.400,180057.500,0.000
200401.200,188501.400,185438.300,208952.700,205515.000,169983.600,161436.700,179474.800,0.000
201442.700,188955.000,186075.400,209639.300,206149.100,170223.600,161900.400,180336.600,0.000
203155.400,189598.300,186776.500,210267.100,207458.100,170371.600,162213.700,181111.400,0.000
203419.900,189648.800,186723.300,210131.700,207757.400,170290.600,162058.900,180926.300,0.000
202021.900,189075.700,186007.200,209420.300,206770.500,170073.200,161632.500,180045.900,0.000
200387.900,188485.400,185395.800,208922.200,205502.300,169973.500,161428.000,179461.200,0.000
201446.200,188962.200,186045.100,209619.400,206145.500,170227.500,161904.700,180335.800,0.000
203156.100,189601.900,186750.000,210250.500,207454.200,170377.800,162219.500,181114.800,0.000
203422.600,189651.500,186700.600,210117.700,207753.900,170294.900,162066.500,180935.400,0.000
202024.500,189080.800,185986.500,209409.800,206769.400,170079.200,161643.600,180059.000,0.000
200396.200,188500.700,185382.300,208919.000,205515.800,169982.900,161445.100,179480.800,0.000
201430.600,188953.100,186015.600,209601.500,206147.600,170218.200,161904.500,180341.100,0.000
203127.300,189578.500,186709.700,210222.900,207446.500,170360.700,162210.900,181109.100,0.000
203408.200,189641.100,186675.400,210096.300,207761.200,170286.600,162066.400,180935.500,0.000
202040.200,189090.300,185979.400,209398.000,206795.200,170080.100,161650.000,180067.800,0.000
200395.400,188495.300,185365.200,208897.500,205527.300,169978.300,161442.000,179475.800,0.000
201416.900,188944.800,185998.200,209578.400,206151.400,170214.800,161900.100,180328.500,0.000
203142.400,189597.300,186719.700,210223.600,207473.000,170376.900,162225.700,181118.200,0.000
203432.400,189660.100,186684.500,210099.300,207787.500,170302.300,162081.500,180947.500,0.000
202050.300,189088.300,185973.200,209383.500,206801.400,170077.500,161646.300,180062.000,0.000
200399.400,188487.500,185356.100,208873.100,205517.400,169969.700,161431.500,179461.500,0.000
201421.000,188938.800,185992.400,209555.700,206130.300,170215.500,161899.000,180319.800,0.000
203149.700,189593.000,186718.700,210206.600,207454.400,170382.800,162233.500,181123.200,0.000
203440.000,189654.100,186683.100,210078.600,207766.100,170300.500,162081.200,180950.600,0.000
202056.000,189081.200,185962.900,209356.600,206772.300,170070.900,161642.800,180060.800,0.000
200396.900,188476.200,185336.800,208842.500,205482.600,169966.200,161429.000,179457.100,0.000
201418.400,188932.200,185972.200,209525.800,206096.400,170215.600,161895.200,180316.500,0.000
203144.300,189581.100,186689.200,210171.600,207413.700,170376.500,162219.500,181112.000,0.000
203431.000,189641.700,186650.600,210048.800,207732.700,170299.700,162070.300,180941.700,0.000
202059.400,189082.500,185940.100,209344.000,206763.800,170081.700,161642.700,180064.700,0.000
200406.600,188488.500,185314.600,208836.600,205491.000,169979.900,161432.700,179465.300,0.000
201407.400,188933.400,185934.400,209513.000,206099.700,170221.900,161895.800,180313.900,0.000
203129.900,189582.600,186651.900,210161.800,207423.900,170381.000,162224.000,181110.400,0.000
203430.500,189656.800,186624.700,210050.300,207758.700,170313.300,162086.200,180951.700,0.000
202060.900,189096.100,185918.300,209346.300,206794.300,170092.700,161659.400,180077.400,0.000
200383.500,188478.500,185282.500,208824.700,205503.300,169976.400,161435.000,179463.300,0.000
201384.000,188921.700,185904.800,209498.700,206107.000,170213.100,161896.900,180312.200,0.000
203110.100,189568.100,186623.600,210142.500,207430.100,170369.800,162219.100,181108.100,0.000
203423.600,189648.700,186610.100,210035.700,207774.100,170304.600,162085.000,180957.700,0.000
202060.100,189091.300,185910.100,209331.600,206809.600,170088.200,161661.500,180086.000,0.000
200390.000,188480.600,185279.300,208810.600,205513.900,169975.400,161439.600,179470.400,0.000
201380.200,188918.600,185903.000,209481.400,206103.900,170214.200,161897.400,180313.000,0.000
203117.400,189571.800,186630.700,210132.100,207429.200,170374.800,162226.100,181113.900,0.000
203421.400,189635.800,186601.000,210010.400,207753.900,170297.600,162077.200,180946.900,0.000
202057.300,189071.700,185897.000,209304.400,206782.700,170082.300,161650.200,180073.100,0.000
200385.300,188463.100,185265.500,208786.400,205486.700,169973.800,161432.900,179464.400,0.000
201372.600,188908.500,185886.500,209459.300,206075.300,170215.000,161891.200,180310.200,0.000
203101.500,189557.000,186605.800,210106.500,207395.400,170367.800,162212.300,181107.000,0.000
203410.500,189626.900,186577.700,209990.100,207728.100,170291.900,162068.300,180945.300,0.000
202061.400,189078.800,185880.600,209290.300,206775.900,170079.600,161650.100,180079.800,0.000
200374.100,188463.300,185237.000,208762.800,205475.700,169964.000,161421.000,179454.700,0.000
201341.800,188896.300,185843.500,209426.100,206053.300,170201.900,161874.900,180288.500,0.000
203086.700,189556.500,186574.600,210087.000,207392.300,170369.900,162214.500,181100.700,0.000
203405.400,189633.500,186552.900,209976.700,207745.000,170302.100,162077.300,180948.800,0.000
202048.000,189078.300,185851.500,209273.400,206792.700,170083.300,161649.300,180078.300,0.000
200365.600,188468.900,185216.900,208752.600,205499.300,169976.400,161428.200,179459.800,0.000
201327.700,188898.500,185824.400,209414.200,206073.400,170213.700,161881.100,180292.600,0.000
203061.000,189548.100,186549.300,210065.700,207400.200,170373.000,162209.800,181096.200,0.000
203380.200,189623.300,186531.700,209956.900,207742.400,170300.700,162072.200,180942.100,0.000
202032.000,189070.500,185833.400,209256.400,206787.300,170083.500,161650.000,180075.400,0.000
200341.500,188449.500,185189.900,208721.400,205480.200,169966.200,161421.400,179448.500,0.000
201309.100,188886.000,185806.500,209382.800,206054.400,170209.700,161882.200,180286.100,0.000
203057.200,189547.200,186543.100,210045.800,207384.200,170373.000,162218.200,181102.200,0.000
203387.300,189627.100,186533.100,209945.600,207730.200,170305.400,162085.200,180954.900,0.000
202046.500,189074.300,185837.600,209244.600,206776.400,170086.000,161662.200,180087.800,0.000
200357.700,188456.800,185196.800,208713.400,205467.800,169972.400,161432.700,179460.400,0.000
201297.900,188870.400,185796.300,209364.700,206014.800,170201.000,161879.300,180281.200,0.000
203052.100,189534.300,186536.300,210030.300,207344.500,170368.000,162217.200,181099.400,0.000
203399.500,189629.400,186533.700,209938.600,207702.800,170312.800,162091.400,180959.000,0.000
202075.100,189091.200,185845.600,209248.400,206762.800,170100.600,161672.800,180097.700,0.000
200373.100,188466.300,185193.200,208710.400,205452.000,169982.000,161436.400,179460.300,0.000
201312.500,188881.900,185787.000,209363.700,206005.000,170210.400,161878.700,180280.600,0.000
203068.600,189547.200,186517.600,210026.100,207339.100,170376.200,162215.000,181094.200,0.000
203404.700,189633.400,186499.400,209922.900,207694.500,170308.500,162083.000,180948.600,0.000
202072.700,189089.500,185805.000,209231.200,206758.200,170101.700,161667.000,180090.200,0.000
200370.600,188470.200,185151.500,208696.900,205451.600,169991.500,161439.400,179457.800,0.000
201305.500,188891.600,185745.600,209351.200,206009.900,170225.900,161888.000,180280.600,0.000
203061.200,189561.200,186480.100,210017.400,207355.700,170389.500,162225.500,181099.800,0.000
203410.200,189654.700,186474.800,209926.000,207733.000,170333.100,162103.700,180966.700,0.000
202077.100,189105.800,185784.000,209233.200,206801.000,170117.900,161685.600,180106.900,0.000
200366.500,188477.400,185127.700,208686.500,205484.000,169988.300,161441.500,179459.700,0.000
201294.500,188893.400,185724.000,209333.600,206030.100,170217.300,161881.800,180275.100,0.000
203055.900,189562.100,186473.400,210009.000,207374.000,170392.800,162230.800,181105.600,0.000
203406.000,189647.700,186469.500,209911.000,207736.900,170322.400,162100.400,180966.300,0.000
202083.600,189101.900,185788.700,209216.800,206796.900,170109.600,161680.900,180108.500,0.000
200380.700,188479.000,185144.500,208676.400,205471.800,169991.100,161443.300,179464.800,0.000
201313.300,188896.200,185747.600,209327.800,206007.800,170221.800,161889.900,180281.300,0.000
203072.600,189554.300,186486.100,209990.500,207331.300,170381.500,162224.700,181102.000,0.000
203415.500,189634.400,186473.500,209888.700,207682.000,170310.600,162090.300,180959.300,0.000
202082.500,189082.900,185777.200,209190.900,206733.000,170092.400,161668.400,180094.800,0.000
200382.300,188468.800,185127.700,208651.600,205417.100,169980.100,161441.400,179459.200,0.000
201302.700,188885.700,185721.600,209301.200,205952.400,170220.500,161893.300,180277.800,0.000
203054.400,189542.400,186452.900,209967.400,207285.300,170380.100,162229.100,181100.500,0.000
203392.300,189618.000,186428.800,209861.800,207645.100,170303.400,162088.300,180956.000,0.000
202072.000,189076.500,185736.200,209170.000,206721.400,170090.400,161670.400,180100.200,0.000
200358.000,188451.900,185071.000,208622.300,205405.800,169969.200,161432.300,179452.700,0.000
201264.000,188863.700,185652.700,209265.300,205941.700,170202.200,161878.100,180262.300,0.000
203018.600,189526.500,186388.900,209936.900,207284.000,170364.700,162215.700,181087.400,0.000
203387.200,189629.600,186399.200,209858.600,207674.100,170310.500,162095.800,180968.500,0.000
202066.000,189084.600,185712.500,209166.300,206746.800,170095.800,161670.800,180106.700,0.000
200348.100,188462.300,185056.500,208619.800,205424.300,169978.400,161433.300,179457.200,0.000
201253.600,188875.300,185646.800,209262.200,205951.700,170215.600,161883.300,180266.400,0.000
203017.300,189539.600,186390.400,209932.600,207287.500,170384.200,162229.200,181093.300,0.000
203382.700,189631.800,186393.300,209841.100,207664.600,170316.000,162102.400,180963.000,0.000
202076.100,189092.000,185712.000,209149.000,206740.600,170097.000,161680.300,180108.000,0.000
200351.900,188459.500,185051.400,208597.000,205410.100,169976.800,161439.100,179456.500,0.000
201263.400,188878.200,185646.300,209245.800,205936.100,170217.100,161893.400,180271.400,0.000
203025.000,189540.700,186393.500,209921.900,207269.000,170380.100,162235.700,181103.000,0.000
203380.100,189625.800,186390.000,209829.300,207632.400,170309.900,162101.900,180968.500,0.000
202073.700,189084.100,185704.100,209133.900,206701.900,170088.800,161674.700,180104.200,0.000
200345.000,188447.700,185038.500,208574.900,205367.800,169965.900,161426.600,179442.800,0.000
201242.000,188856.300,185626.600,209215.900,205884.100,170203.400,161875.000,180249.800,0.000
203028.100,189538.000,186383.600,209902.200,207235.400,170379.800,162230.700,181092.700,0.000
203400.400,189634.600,186384.800,209815.700,207614.500,170314.000,162103.200,180965.500,0.000
202098.800,189099.800,185700.200,209130.000,206696.700,170098.000,161683.400,180112.800,0.000
200364.400,188464.900,185029.400,208573.900,205365.100,169976.400,161437.500,179453.600,0.000
201240.000,188863.000,185599.600,209202.800,205869.500,170206.800,161875.100,180249.200,0.000
203012.800,189535.800,186350.300,209887.200,207217.800,170383.100,162228.100,181090.000,0.000
203396.300,189640.900,186360.400,209809.300,207613.900,170330.000,162116.300,180975.900,0.000
202106.400,189110.000,185684.400,209129.500,206708.900,170123.700,161705.900,180133.300,0.000
200371.200,188474.600,185010.700,208572.000,205374.600,169999.200,161460.100,179472.400,0.000
201252.200,188877.900,185587.900,209207.300,205883.500,170230.300,161901.400,180271.400,0.000
203020.700,189541.700,186332.000,209883.400,207228.000,170393.400,162244.200,181104.400,0.000
203399.300,189637.000,186335.200,209797.900,207617.500,170325.700,162115.800,180981.900,0.000
202110.600,189103.100,185655.600,209111.800,206709.400,170107.800,161695.600,180130.900,0.000
200361.300,188458.500,184978.000,208547.400,205366.300,169984.100,161445.200,179460.000,0.000
201233.100,188858.300,185556.200,209183.000,205868.600,170220.500,161889.000,180255.100,0.000
203018.800,189536.500,186313.200,209871.900,207221.600,170391.700,162241.000,181100.700,0.000
203409.000,189642.300,186324.700,209791.300,207620.500,170327.500,162118.000,180984.800,0.000
202125.800,189114.900,185652.600,209109.200,206716.000,170119.500,161704.000,180136.600,0.000
200379.500,188473.100,184978.800,208543.500,205369.500,169991.400,161453.600,179464.000,0.000
201236.900,188865.400,185544.100,209165.700,205857.800,170217.000,161887.400,180245.200,0.000
203009.600,189533.600,186291.300,209845.400,207195.800,170388.300,162238.000,181085.900,0.000
203404.800,189639.700,186302.500,209767.600,207595.100,170324.700,162118.800,180974.100,0.000
202127.600,189112.200,185626.000,209084.400,206696.900,170105.200,161698.300,180126.700,0.000
200383.900,188476.300,184953.500,208521.600,205361.200,169985.300,161451.800,179461.800,0.000
201233.900,188863.400,185516.300,209143.600,205848.000,170215.800,161885.900,180247.100,0.000
203008.100,189529.800,186268.000,209828.400,207195.600,170384.900,162240.000,181094.100,0.000
203408.100,189640.900,186290.600,209760.900,207604.200,170325.700,162124.500,180990.500,0.000
202134.700,189119.500,185620.300,209083.100,206709.800,170112.100,161702.700,180144.200,0.000
200379.000,188474.200,184939.700,208512.300,205362.700,169978.900,161443.800,179465.100,0.000
201217.300,188856.300,185499.500,209129.300,205836.800,170206.700,161875.600,180240.100,0.000
203010.000,189540.800,186264.200,209821.700,207198.100,170388.700,162238.700,181093.000,0.000
203416.900,189654.700,186286.800,209752.000,207610.900,170335.000,162126.200,180988.600,0.000
202134.800,189117.100,185610.800,209067.000,206706.500,170115.100,161698.900,180136.200,0.000
200374.300,188464.900,184925.700,208490.700,205350.800,169978.900,161435.200,179453.800,0.000
201213.500,188851.000,185487.700,209110.400,205822.300,170207.700,161870.000,180237.100,0.000
203004.300,189527.100,186248.700,209801.700,207173.300,170376.900,162225.400,181089.700,0.000
203404.400,189628.500,186262.500,209721.800,207573.400,170305.100,162099.700,180973.800,0.000
202130.000,189096.600,185596.400,209042.100,206674.000,170092.700,161683.200,180129.300,0.000
200398.400,188471.300,184937.500,208492.500,205345.100,169986.100,161451.700,179468.700,0.000
201237.600,188860.500,185502.600,209114.000,205821.000,170218.200,161890.900,180251.300,0.000
203012.900,189526.900,186255.800,209795.600,207161.400,170381.000,162238.900,181097.200,0.000
203425.800,189640.800,186281.000,209728.100,207576.700,170323.300,162127.900,180997.800,0.000
202159.600,189116.200,185610.600,209048.900,206678.300,170112.300,161712.500,180153.300,0.000
200392.200,188465.700,184922.700,208469.200,205320.500,169980.100,161450.200,179463.800,0.000
201204.000,188842.400,185472.600,209080.400,205778.900,170206.100,161877.200,180233.800,0.000
202990.300,189521.200,186233.000,209773.800,207132.400,170381.700,162234.400,181087.700,0.000
203408.000,189637.500,186257.900,209708.600,207550.800,170326.200,162120.000,180983.500,0.000
202158.000,189122.100,185595.400,209037.700,206670.800,170117.000,161707.600,180147.600,0.000
200394.400,188475.600,184910.400,208465.000,205318.500,169989.900,161451.800,179463.400,0.000
201194.700,188842.800,185450.700,209066.400,205765.900,170209.500,161877.500,180226.100,0.000
202981.900,189519.700,186212.100,209759.700,207121.100,170381.800,162238.500,181088.100,0.000
203395.400,189631.500,186233.100,209689.600,207539.200,170315.400,162118.000,180987.200,0.000
202145.300,189111.900,185568.700,209013.700,206656.300,170100.000,161702.200,180145.100,0.000
200393.900,188474.500,184893.900,208446.800,205311.600,169985.300,161455.000,179467.700,0.000
201200.900,188849.100,185445.800,209060.000,205763.500,170222.000,161894.200,180243.200,0.000
202998.200,189534.300,186217.400,209765.000,207124.200,170397.900,162257.000,181109.400,0.000
203419.300,189647.800,186239.000,209695.900,207544.200,170328.200,162132.500,181000.000,0.000
202166.500,189125.100,185572.100,209019.800,206660.100,170121.100,161719.300,180162.600,0.000
200392.100,188467.300,184874.300,208429.500,205290.400,169984.600,161451.900,179466.400,0.000
201185.200,188832.500,185412.500,209024.300,205722.000,170203.900,161870.400,180217.100,0.000
202980.900,189512.100,186183.400,209726.300,207076.500,170379.000,162230.200,181080.300,0.000
203418.900,189636.200,186221.800,209670.700,207504.600,170329.600,162125.100,180997.200,0.000
202183.800,189122.500,185566.500,209004.300,206628.400,170115.900,161710.500,180168.300,0.000
200411.800,188468.900,184874.800,208422.100,205267.500,169975.100,161440.300,179466.700,0.000
201190.600,188828.300,185404.900,209018.100,205696.400,170188.500,161858.300,180213.900,0.000
202991.500,189514.900,186173.500,209722.300,207052.500,170371.400,162228.000,181083.600,0.000
203423.600,189631.800,186201.300,209659.000,207478.600,170312.200,162118.400,180991.300,0.000
202188.800,189119.200,185542.700,208990.000,206608.500,170104.700,161712.400,180157.500,0.000
200413.700,188468.400,184855.900,208412.300,205248.100,169984.300,161459.100,179464.900,0.000
201182.900,188826.600,185382.600,209002.300,205667.500,170199.900,161874.400,180212.900,0.000
202986.400,189519.000,186155.000,209709.600,207032.900,170385.900,162243.500,181088.800,0.000
203416.100,189639.100,186182.300,209649.500,207465.800,170326.300,162128.000,180995.600,0.000
202180.000,189125.600,185523.000,208983.500,206601.700,170119.000,161715.500,180163.700,0.000
200400.000,188477.400,184828.900,208398.600,205244.800,169992.900,161455.200,179465.200,0.000
201164.700,188840.700,185355.500,208991.100,205669.400,170204.300,161871.800,180212.200,0.000
202956.600,189520.300,186125.600,209697.300,207032.200,170382.400,162237.700,181080.700,0.000
203397.600,189643.200,186162.100,209645.900,207476.400,170328.800,162135.200,180999.600,0.000
202175.700,189136.900,185505.000,208978.500,206620.200,170115.000,161723.700,180165.100,0.000
200385.500,188472.300,184795.700,208377.100,205247.000,169972.500,161445.700,179449.500,0.000
201148.800,188829.800,185322.600,208966.200,205669.500,170187.900,161864.500,180194.000,0.000
202959.300,189526.300,186107.600,209683.700,207042.600,170377.900,162243.200,181074.000,0.000
203405.700,189651.400,186147.800,209630.900,207487.200,170323.500,162137.900,180991.500,0.000
202180.300,189137.300,185495.400,208965.400,206625.100,170117.000,161729.200,180164.400,0.000
200403.900,188486.300,184802.400,208376.900,205259.700,169983.100,161461.200,179459.400,0.000
201157.000,188836.100,185323.600,208957.600,205664.500,170195.000,161872.000,180193.600,0.000
202963.100,189519.600,186098.300,209664.400,207022.700,170371.800,162238.800,181066.600,0.000
203410.100,189641.400,186132.500,209607.300,207456.800,170314.100,162127.000,180979.800,0.000
202212.600,189151.000,185502.200,208961.500,206616.500,170120.000,161731.700,180170.600,0.000
200422.100,188489.700,184806.300,208370.200,205243.300,169989.100,161464.500,179466.400,0.000
201170.500,188842.400,185327.100,208950.500,205640.600,170202.500,161875.800,180202.000,0.000
202971.600,189522.500,186097.700,209653.700,206992.700,170377.000,162240.200,181071.800,0.000
203422.700,189650.900,186139.700,209603.000,207433.400,170325.900,162140.300,180996.400,0.000
202210.100,189147.900,185492.300,208942.200,206576.400,170117.000,161731.500,180171.300,0.000
200428.200,188496.600,184797.800,208356.100,205211.600,169992.300,161470.200,179467.800,0.000
201168.500,188847.900,185322.300,208943.600,205619.300,170213.900,161889.900,180212.200,0.000
202964.100,189526.200,186089.300,209644.100,206973.500,170382.300,162252.000,181082.300,0.000
203418.000,189652.900,186124.200,209591.800,207415.800,170324.600,162142.100,181000.000,0.000
202216.700,189157.800,185480.400,208938.800,206574.700,170122.400,161738.700,180182.700,0.000
200419.800,188497.600,184772.400,208340.700,205204.700,169984.800,161464.200,179465.400,0.000
201146.800,188844.700,185284.900,208920.300,205604.000,170203.100,161879.100,180198.500,0.000
202961.100,189541.500,186073.000,209645.000,206980.800,170401.400,162263.100,181089.500,0.000
203419.600,189670.900,186113.700,209597.900,207433.500,170343.400,162153.300,181009.400,0.000
202213.900,189168.700,185461.500,208933.200,206585.900,170130.400,161743.600,180182.300,0.000
200410.300,188500.000,184746.900,208326.100,205208.600,169988.100,161465.400,179461.800,0.000
201129.900,188836.600,185251.400,208899.300,205599.500,170201.200,161876.800,180189.400,0.000
202932.800,189517.100,186019.700,209608.500,206959.400,170374.100,162244.200,181065.000,0.000
203390.400,189641.600,186058.500,209556.600,207406.200,170307.900,162130.000,180982.800,0.000
202199.000,189146.200,185420.500,208903.700,206570.400,170103.200,161722.600,180166.200,0.000
200403.100,188484.000,184710.400,208299.400,205197.000,169965.700,161444.700,179447.300,0.000
201133.300,188838.700,185234.100,208889.100,205598.400,170202.000,161876.100,180189.800,0.000
202945.000,189525.100,186014.300,209604.700,206966.600,170379.700,162250.300,181074.700,0.000
203417.300,189661.500,186064.000,209560.700,207429.700,170321.500,162143.400,181001.800,0.000
202219.400,189161.600,185421.200,208900.100,206589.500,170114.000,161733.700,180175.600,0.000
200404.400,188490.800,184709.300,208291.100,205204.000,169975.000,161456.300,179448.600,0.000
201113.700,188831.000,185220.300,208865.500,205583.200,170192.400,161868.800,180177.200,0.000
202927.100,189524.400,186007.700,209587.900,206953.500,170383.000,162253.100,181071.000,0.000
203405.700,189667.000,186066.100,209552.600,207423.800,170335.100,162158.500,181008.700,0.000
202211.200,189167.600,185425.100,208893.400,206585.000,170123.700,161745.300,180189.300,0.000
200393.600,188492.900,184704.400,208278.800,205193.600,169979.800,161458.500,179456.300,0.000
201100.400,188832.500,185210.700,208848.300,205570.900,170197.200,161871.200,180177.700,0.000
202919.800,189526.400,185998.800,209569.600,206938.600,170383.900,162252.800,181067.000,0.000
203400.100,189663.300,186051.500,209530.500,207400.400,170328.200,162154.600,180999.700,0.000
202218.400,189171.100,185415.200,208879.400,206570.300,170123.400,161751.600,180186.700,0.000
200421.300,188510.900,184709.600,208278.800,205201.400,169991.200,161476.300,179467.200,0.000
201121.100,188848.000,185212.700,208849.600,205574.300,170209.700,161883.800,180186.300,0.000
202933.600,189536.500,185992.500,209571.700,206938.700,170392.300,162260.100,181076.600,0.000
203417.400,189677.500,186046.200,209539.800,207410.300,170344.800,162165.000,181018.900,0.000
202230.600,189179.400,185399.500,208881.800,206577.800,170134.100,161754.100,180199.100,0.000
200412.400,188506.100,184678.000,208266.600,205189.700,169987.300,161470.300,179464.100,0.000
201099.900,188838.700,185176.300,208832.100,205558.400,170203.300,161881.000,180179.800,0.000
202916.400,189529.500,185960.100,209554.200,206927.800,170385.400,162258.500,181065.000,0.000
203407.000,189672.500,186017.800,209519.900,207407.100,170332.900,162160.900,181002.500,0.000
202239.300,189188.800,185386.700,208870.600,206595.000,170127.900,161758.400,180192.900,0.000
200424.900,188521.200,184668.500,208261.100,205216.400,169989.600,161478.800,179459.000,0.000
201095.900,188842.500,185159.500,208821.900,205570.300,170196.600,161878.700,180162.900,0.000
202928.500,189544.000,185956.200,209551.000,206949.000,170386.800,162266.300,181066.000,0.000
203421.700,189687.200,186018.300,209516.000,207425.400,170337.000,162170.500,181007.200,0.000
202251.000,189199.400,185391.300,208869.000,206605.400,170134.700,161769.900,180199.000,0.000
200410.300,188507.300,184661.100,208243.000,205200.000,169980.900,161472.700,179450.600,0.000
201089.600,188839.100,185163.900,208807.400,205554.600,170201.000,161884.000,180165.900,0.000
202927.100,189544.300,185971.100,209546.200,206930.300,170398.900,162278.900,181077.600,0.000
203428.200,189690.800,186039.400,209517.800,207409.200,170344.600,162183.300,181027.900,0.000
202259.100,189201.200,185406.000,208858.900,206586.500,170132.500,161771.500,180214.300,0.000
200421.300,188517.000,184674.100,208229.800,205184.400,169981.300,161475.200,179467.900,0.000
201074.300,188831.500,185154.300,208781.100,205523.800,170188.300,161871.600,180167.900,0.000
202910.300,189537.300,185947.600,209514.400,206899.500,170383.600,162263.800,181071.000,0.000
203415.500,189687.300,186015.200,209492.600,207391.000,170345.800,162178.300,181028.500,0.000
202259.300,189208.300,185385.900,208849.000,206584.600,170141.000,161774.600,180220.900,0.000
200425.600,188529.800,184649.500,208222.900,205189.200,169990.100,161481.800,179469.400,0.000
201071.200,188844.900,185128.200,208772.500,205529.000,170198.500,161879.300,180166.500,0.000
202902.400,189549.600,185928.100,209512.200,206917.800,170390.100,162269.600,181078.500,0.000
203410.100,189704.500,185993.300,209490.000,207411.900,170348.100,162182.600,181034.300,0.000
202237.200,189207.300,185350.400,208834.100,206592.000,170128.200,161765.500,180216.900,0.000
200398.800,188519.500,184606.400,208196.800,205188.900,169968.600,161457.200,179456.000,0.000
201037.500,188828.500,185083.900,208743.600,205523.900,170179.900,161855.100,180150.400,0.000
202875.700,189537.800,185891.500,209488.200,206910.200,170382.000,162255.000,181069.000,0.000
203389.500,189692.300,185963.000,209464.400,207403.500,170334.400,162165.100,181018.800,0.000
202230.300,189204.600,185335.000,208814.400,206592.500,170127.500,161761.500,180207.900,0.000
200390.800,188518.900,184606.000,208189.000,205194.300,169972.900,161466.700,179457.500,0.000
201027.800,188827.000,185084.000,208733.400,205514.800,170173.800,161860.300,180145.300,0.000
202863.200,189530.500,185887.200,209472.600,206884.800,170368.400,162251.400,181055.500,0.000
203375.000,189679.700,185959.100,209449.200,207370.900,170321.500,162159.700,181009.400,0.000
202227.800,189195.800,185332.800,208801.900,206564.900,170114.400,161755.600,180201.900,0.000
200396.500,188517.800,184603.900,208173.100,205172.000,169966.100,161461.200,179450.400,0.000
201022.900,188823.800,185076.300,208714.400,205491.000,170174.000,161855.600,180134.400,0.000
202864.500,189534.300,185881.000,209462.000,206876.200,170375.800,162256.400,181053.900,0.000
203398.400,189704.200,185963.900,209455.200,207391.900,170344.300,162179.900,181022.300,0.000
202245.600,189219.900,185334.100,208811.700,206593.400,170136.800,161769.000,180215.700,0.000
200390.600,188525.900,184586.900,208174.400,205190.300,169981.400,161464.800,179454.900,0.000
201011.400,188830.600,185057.200,208714.900,205508.400,170191.600,161864.900,180143.500,0.000
202854.300,189539.400,185860.200,209455.900,206897.900,170385.400,162260.900,181058.400,0.000
203375.800,189694.200,185929.400,209434.300,207403.800,170335.900,162171.600,181015.900,0.000
202231.700,189213.700,185302.600,208791.500,206611.300,170128.400,161768.800,180214.300,0.000
200386.200,188524.600,184559.500,208154.200,205210.800,169971.100,161461.100,179451.300,0.000
200999.200,188824.300,185027.600,208691.900,205521.000,170179.800,161853.600,180132.500,0.000
202832.900,189525.200,185831.400,209434.300,206894.700,170371.600,162250.500,181046.500,0.000
203373.000,189691.800,185915.000,209421.700,207409.500,170329.300,162167.000,181011.400,0.000
202241.500,189219.900,185297.400,208783.700,206628.500,170120.800,161763.900,180213.500,0.000
200393.600,188531.700,184559.200,208150.900,205227.700,169967.400,161463.000,179453.800,0.000
200994.800,188824.700,185024.500,208684.700,205525.500,170176.900,161856.400,180128.000,0.000
202838.200,189531.800,185833.400,209427.200,206900.800,170371.500,162250.400,181043.100,0.000
203372.400,189689.700,185911.000,209407.600,207400.800,170322.200,162157.900,181000.300,0.000
202245.900,189216.800,185296.900,208770.800,206611.200,170120.800,161758.100,180203.600,0.000
200390.400,188521.700,184553.300,208129.000,205197.300,169963.800,161451.700,179437.400,0.000
200990.300,188821.600,185021.300,208666.600,205497.300,170174.800,161852.200,180120.900,0.000
202834.600,189534.200,185835.000,209416.700,206881.800,170377.200,162257.400,181048.300,0.000
203365.200,189696.500,185917.400,209404.700,207389.000,170334.500,162173.000,181016.800,0.000
202233.300,189219.200,185296.300,208763.300,206600.800,170129.400,161771.000,180217.800,0.000
200386.800,188532.900,184557.600,208128.400,205196.500,169981.400,161473.600,179455.700,0.000
200971.900,188823.300,185012.200,208657.300,205484.300,170183.300,161858.800,180125.800,0.000
202802.800,189525.900,185813.200,209402.200,206857.000,170374.800,162252.800,181044.800,0.000
203337.200,189686.600,185887.900,209384.500,207371.100,170322.500,162166.100,181010.900,0.000
202219.000,189223.600,185276.600,208756.200,206600.800,170130.500,161774.400,180223.800,0.000
200355.300,188527.000,184526.400,208112.700,205187.500,169973.600,161464.800,179449.700,0.000
200940.200,188818.300,184975.100,208637.100,205472.400,170176.600,161850.000,180115.800,0.000
202782.400,189522.500,185776.300,209383.400,206853.300,170367.000,162244.000,181036.500,0.000
203331.800,189690.800,185860.400,209376.300,207377.500,170321.300,162161.000,181008.700,0.000
202223.700,189227.000,185248.700,208745.500,206608.000,170119.800,161766.600,180216.200,0.000
200371.400,188536.700,184501.200,208104.800,205201.000,169968.100,161463.000,179446.200,0.000
200941.400,188819.000,184946.700,208623.200,205480.300,170170.900,161847.700,180107.300,0.000
202791.000,189527.900,185754.100,209371.800,206869.000,170366.300,162251.000,181035.700,0.000
203341.700,189696.100,185838.000,209367.600,207394.100,170321.300,162171.100,181012.400,0.000
202233.700,189234.200,185231.500,208741.300,206625.300,170125.500,161781.900,180226.600,0.000
