EEG 1, EEG 2, EEG 3, EEG 4, EEG 5, EEG 6, EEG 7, EEG 8, TRIG
750000.100,750000.100,750000.100,750000.100,750000.100,662398.800,750000.100,750000.100,0.000
713213.600,750000.100,750000.100,750000.100,750000.100,567517.400,750000.100,750000.100,0.000
629266.800,703506.300,750000.100,750000.100,750000.100,504763.700,750000.100,750000.100,0.000
593169.200,663171.600,750000.100,750000.100,750000.100,478638.000,750000.100,750000.100,0.000
565928.400,636408.800,750000.100,750000.100,750000.100,460065.300,750000.100,750000.100,0.000
537932.400,610336.700,750000.100,750000.100,750000.100,441380.200,750000.100,750000.100,0.000
518571.700,591602.300,750000.100,750000.100,750000.100,428971.300,750000.100,750000.100,0.000
510888.400,581362.600,750000.100,750000.100,750000.100,423813.100,750000.100,750000.100,0.000
500656.800,569112.200,750000.100,750000.100,750000.100,416231.900,750000.100,750000.100,0.000
482787.500,551546.800,750000.100,750000.100,750000.100,403367.700,750000.100,750000.100,0.000
463138.700,533470.900,750000.100,750000.100,750000.100,389802.700,750000.100,750000.100,0.000
450343.600,521133.000,750000.100,750000.100,750000.100,381385.100,750000.100,750000.100,0.000
447379.800,515796.700,750000.100,750000.100,750000.100,379119.100,750000.100,750000.100,0.000
441744.500,508268.800,750000.100,750000.100,750000.100,374505.500,750000.100,750000.100,0.000
428822.300,495564.600,750000.100,750000.100,750000.100,364910.500,750000.100,750000.100,0.000
413797.100,481939.700,750000.100,750000.100,750000.100,354403.900,750000.100,750000.100,0.000
404682.700,473223.500,750000.100,750000.100,750000.100,348405.700,750000.100,750000.100,0.000
404366.900,470703.200,750000.100,750000.100,750000.100,347926.400,750000.100,750000.100,0.000
401380.800,465945.800,750000.100,750000.100,750000.100,345158.600,750000.100,750000.100,0.000
391423.700,456187.800,750000.100,750000.100,750000.100,337642.400,750000.100,750000.100,0.000
379298.100,445382.600,750000.100,750000.100,750000.100,329140.900,750000.100,750000.100,0.000
372495.900,438975.500,750000.100,750000.100,750000.100,324723.100,750000.100,740593.200,0.000
373836.000,438255.600,750000.100,750000.100,750000.100,325410.800,750000.100,738826.800,0.000
372517.000,435278.200,750000.100,750000.100,750000.100,323841.400,750000.100,735440.400,0.000
364497.500,427468.100,750000.100,750000.100,750000.100,317716.800,750000.100,726083.300,0.000
354256.900,418512.900,750000.100,750000.100,750000.100,310555.000,750000.100,714365.400,0.000
349008.200,413665.300,750000.100,750000.100,750000.100,307231.700,750000.100,707007.800,0.000
351423.400,414128.600,750000.100,750000.100,750000.100,308697.200,750000.100,707012.800,0.000
351226.800,412366.000,750000.100,750000.100,750000.100,307959.400,750000.100,705358.100,0.000
344500.700,405870.000,750000.100,750000.100,750000.100,302787.600,750000.100,697854.500,0.000
335562.700,398204.400,750000.100,750000.100,750000.100,296569.800,750000.100,687976.100,0.000
331336.700,394399.700,750000.100,750000.100,750000.100,293975.800,750000.100,682170.700,0.000
334461.100,395662.600,750000.100,750000.100,750000.100,295964.800,750000.100,683385.200,0.000
335039.300,394753.700,750000.100,750000.100,750000.100,295810.400,750000.100,682940.600,0.000
329228.000,389199.200,750000.100,750000.100,750000.100,291327.700,750000.100,676753.000,0.000
321250.300,382483.100,750000.100,750000.100,750000.100,285822.800,750000.100,668217.900,0.000
317785.000,379452.700,750000.100,750000.100,750000.100,283791.200,750000.100,663552.400,0.000
321431.900,381306.800,750000.100,750000.100,750000.100,286168.600,750000.100,665639.900,0.000
322565.100,381003.900,750000.100,750000.100,750000.100,286443.100,750000.100,666067.700,0.000
317442.400,376152.800,750000.100,750000.100,750000.100,282476.200,750000.100,660847.900,0.000
310133.700,370112.100,750000.100,750000.100,750000.100,277471.500,750000.100,653268.800,0.000
307230.800,367665.900,750000.100,750000.100,750000.100,275854.900,750000.100,649445.700,0.000
311251.800,369949.200,750000.100,750000.100,750000.100,278521.300,750000.100,652180.800,0.000
312796.300,370101.000,750000.100,750000.100,750000.100,279108.500,750000.100,653250.100,0.000
308155.800,365748.500,750000.100,750000.100,750000.100,275520.200,748679.600,648741.400,0.000
301345.700,360215.300,750000.100,750000.100,750000.100,270897.100,741912.200,641874.900,0.000
298820.800,358165.300,748267.600,748766.300,748163.600,269569.700,738768.200,638649.100,0.000
303132.400,360771.600,746636.100,747134.000,746540.300,272456.100,740800.300,641863.400,0.000
304985.300,361260.800,744751.900,745248.800,744661.000,273276.200,741000.300,643401.900,0.000
300726.800,357303.000,742554.600,743050.500,742460.100,269976.700,736375.900,639425.100,0.000
294300.900,352157.600,740450.500,740945.900,740349.400,265650.500,730318.100,633102.900,0.000
292095.900,350436.400,738853.300,739347.900,738751.200,264562.300,727751.000,630349.300,0.000
296616.400,353280.500,737706.200,738200.200,737612.200,267592.300,730118.200,633902.500,0.000
298701.700,354022.500,736291.400,736784.700,736202.100,268585.400,730693.500,635797.600,0.000
294738.300,350371.800,734544.700,735036.600,734451.400,265513.700,726602.600,632232.100,0.000
288606.500,345528.800,732863.700,733354.800,732763.300,261413.400,721105.900,626322.600,0.000
286638.700,344056.800,731662.600,732153.300,731561.400,260497.300,718959.200,623924.100,0.000
291322.500,347081.500,730891.300,731381.200,730797.800,263649.800,721592.400,627753.800,0.000
293597.700,348035.900,729838.400,730327.400,729749.200,264787.600,722451.100,629929.300,0.000
289868.000,344631.000,728441.400,728929.600,728348.700,261900.600,718796.400,626686.000,0.000
283961.000,340017.900,727086.900,727574.600,726987.500,257977.500,713721.400,621092.400,0.000
282169.300,338728.900,726187.600,726674.600,726086.800,257196.700,711886.900,618957.500,0.000
286982.700,341897.500,725700.800,726187.500,725607.500,260439.300,714725.800,622987.700,0.000
289383.500,342982.300,724919.300,725405.900,724830.600,261674.600,715785.900,625361.300,0.000
285817.700,339749.900,723782.000,724268.200,723689.800,258916.900,712438.300,622348.100,0.000
280097.200,335335.900,722680.900,723165.900,722581.300,255141.700,707685.100,617006.700,0.000
278453.500,334206.300,722017.800,722503.000,721917.100,254477.200,706105.300,615090.000,0.000
283365.700,337483.800,721751.400,722236.600,721658.600,257792.300,709111.900,619274.900,0.000
285895.600,338708.700,721186.100,721671.100,721098.300,259124.000,710357.100,621818.500,0.000
282455.300,335609.600,720251.500,720735.400,720160.100,256468.600,707237.100,618980.400,0.000
276856.800,331323.800,719340.300,719823.400,719241.000,252796.700,702704.800,613821.300,0.000
275343.800,330331.600,718862.700,719345.900,718761.800,252237.800,701328.300,612082.100,0.000
280344.500,333704.100,718767.300,719250.800,718674.600,255613.000,704478.800,616392.000,0.000
282949.900,335009.400,718361.300,718844.600,718273.600,256990.700,705847.900,619043.300,0.000
279620.300,332027.300,717585.600,718068.400,717493.900,254419.300,702908.800,616351.300,0.000
274143.400,327871.700,716828.000,717310.400,716729.200,250844.500,698566.400,611349.800,0.000
272707.600,326965.200,716486.400,716968.600,716386.300,250342.800,697325.800,609728.700,0.000
277773.700,330405.400,716520.900,717003.300,716429.100,253756.500,700572.400,614128.400,0.000
280465.500,331798.400,716242.900,716724.800,716155.400,255191.900,702052.100,616879.800,0.000
277233.200,328921.000,715588.800,716070.400,715497.400,252698.800,699253.800,614305.400,0.000
271838.600,324858.100,714947.900,715429.200,714849.100,249200.400,695048.300,609419.300,0.000
270471.600,324024.000,714711.200,715192.600,714610.900,248756.000,693919.000,607896.300,0.000
275598.600,327522.900,714844.500,715326.100,714751.900,252209.800,697252.900,612373.800,0.000
278339.600,328968.000,714658.100,715139.600,714570.100,253677.800,698806.700,615189.900,0.000
275171.100,326159.700,714095.700,714576.800,714004.000,251231.300,696099.900,612694.100,0.000
269845.300,322168.700,713539.300,714019.900,713440.600,247781.400,691994.700,607893.700,0.000
268549.600,321410.400,713388.600,713869.500,713288.600,247386.300,690971.100,606462.600,0.000
273727.400,324959.800,713598.800,714080.000,713507.300,250865.200,694378.400,611001.600,0.000
276527.500,326461.200,713485.900,713967.300,713398.500,252371.100,696006.400,613883.400,0.000
273414.300,323710.600,712990.400,713471.200,712898.800,249967.000,693374.600,611451.500,0.000
268150.700,319787.200,712500.300,712980.100,712400.900,246572.500,689350.100,606725.800,0.000
266899.500,319076.800,712407.900,712887.800,712307.200,246219.600,688383.900,605350.400,0.000
272112.400,322665.900,712673.800,713154.000,712581.200,249724.300,691829.300,609924.100,0.000
274946.400,324205.200,712614.400,713095.000,712527.000,251251.600,693499.500,612840.900,0.000
271873.600,321498.000,712171.700,712651.800,712079.900,248880.800,690924.300,610455.100,0.000
266635.800,317608.100,711726.700,712206.600,711628.100,245511.000,686985.600,605766.900,0.000
265428.300,316946.900,711679.800,712159.900,711580.300,245190.300,686143.600,604435.800,0.000
270684.200,320573.200,711988.600,712469.400,711896.800,248718.700,689588.800,609048.600,0.000
273540.900,322131.900,711966.900,712447.600,711879.300,250255.200,691277.700,611982.500,0.000
270499.600,319464.000,711563.600,712043.800,711471.900,247908.200,688749.200,609627.700,0.000
265287.900,315610.800,711153.900,711633.900,711054.900,244561.900,685107.600,604968.400,0.000
264097.900,314968.600,711138.500,711618.300,711037.900,244250.800,684579.800,603647.800,0.000
269376.600,318617.200,711480.300,711960.600,711387.800,247793.800,687916.200,608275.800,0.000
272272.300,320215.400,711491.800,711971.800,711403.700,249361.800,689603.800,611242.600,0.000
269264.000,317585.700,711115.300,711594.600,711023.100,247043.900,687133.100,608914.400,0.000
264081.800,313767.700,710731.300,711209.800,710631.600,243720.000,683637.900,604274.800,0.000
262919.200,313155.700,710741.200,711220.400,710640.500,243430.700,683187.600,602979.900,0.000
268201.800,316809.400,711103.200,711583.000,711010.400,246975.300,686562.400,607612.200,0.000
271112.200,318430.100,711135.700,711615.400,711047.500,248547.800,688215.700,610582.900,0.000
268092.800,315796.900,710778.600,711257.800,710686.200,246222.400,685812.700,608241.100,0.000
262972.500,312034.400,710420.400,710899.400,710320.700,242957.100,682487.600,603660.400,0.000
261838.300,311449.300,710448.200,710927.300,710347.100,242693.300,682029.700,602381.000,0.000
267152.900,315128.800,710824.800,711304.200,710731.300,246242.600,685465.000,607017.900,0.000
270097.800,316771.800,710874.300,711353.600,710785.400,247835.000,687106.900,610014.300,0.000
267114.300,314169.300,710526.600,711005.700,710434.300,245522.400,684808.900,607691.600,0.000
261978.400,310401.500,710178.400,710657.300,710078.600,242238.800,681495.600,603091.100,0.000
260868.200,309845.300,710222.100,710701.400,710120.800,241994.200,681047.100,601837.800,0.000
266205.600,313550.800,710614.800,711094.300,710521.100,245573.300,684571.200,606499.700,0.000
269168.000,315219.500,710675.700,711155.100,710586.800,247187.200,686200.400,609510.800,0.000
266220.000,312657.100,710346.200,710825.300,710253.300,244910.800,684004.400,607227.600,0.000
261097.400,308904.000,710006.600,710485.400,709906.000,241632.900,680691.400,602632.600,0.000
260003.700,308365.100,710059.900,710538.800,709957.900,241397.400,680257.100,601396.300,0.000
265351.600,312083.800,710460.600,710940.000,710366.800,244983.200,683844.400,606063.000,0.000
268330.400,313769.900,710527.900,711007.500,710438.900,246600.000,685465.300,609076.800,0.000
265385.000,311213.500,710205.200,710684.600,710112.600,244327.600,683343.400,606797.100,0.000
260261.800,307465.700,709872.900,710351.800,709772.600,241051.300,680015.000,602204.700,0.000
259175.400,306942.300,709934.600,710413.900,709832.800,240822.500,679582.300,600970.300,0.000
264559.200,310699.500,710343.500,710822.800,710249.300,244432.100,683237.200,605660.100,0.000
267550.000,312395.300,710416.700,710896.200,710327.500,246059.000,684868.700,608682.400,0.000
264608.500,309839.300,710099.900,710579.100,710006.700,243787.100,682796.500,606400.600,0.000
259492.500,306099.200,709775.500,710254.300,709674.400,240521.400,679445.500,601809.900,0.000
258425.300,305596.600,709844.600,710323.600,709742.100,240311.500,679020.400,600584.700,0.000
263815.500,309362.200,710258.300,710738.100,710164.500,243923.900,682720.800,605272.800,0.000
266821.300,311076.000,710336.300,710816.400,710247.400,245556.500,684368.800,608300.100,0.000
263883.700,308529.000,710022.900,710502.600,709929.700,243294.000,682346.800,606022.200,0.000
258773.800,304796.100,709704.700,710183.600,709603.400,240036.400,678973.100,601439.300,0.000
257733.200,304319.100,709776.600,710255.900,709674.000,239838.300,678553.200,600229.100,0.000
263146.900,308107.300,710192.900,710672.500,710099.100,243465.700,682303.400,604931.100,0.000
266162.900,309834.300,710276.100,710755.800,710186.800,245110.200,683999.000,607967.000,0.000
263224.300,307291.300,709967.700,710446.600,709873.600,242844.200,682011.800,605686.400,0.000
258137.300,303589.700,709652.300,710130.900,709550.300,239596.000,678615.700,601113.200,0.000
257080.000,303097.700,709720.100,710199.300,709616.600,239383.300,678182.200,599885.600,0.000
262499.100,306888.700,710136.500,710615.600,710041.400,243012.400,681982.900,604586.600,0.000
265518.700,308621.600,710217.400,710696.800,710127.800,244652.900,683727.400,607614.500,0.000
262583.800,306083.600,709909.100,710388.300,709814.800,242382.300,681742.900,605325.100,0.000
257490.000,302374.300,709592.900,710071.900,709490.900,239130.900,678316.600,600747.300,0.000
256458.900,301913.000,709671.800,710150.200,709568.100,238945.400,677907.300,599546.700,0.000
261891.300,305727.200,710093.900,710573.000,709998.400,242589.500,681747.800,604258.100,0.000
264918.800,307470.900,710179.500,710658.900,710089.200,244242.700,683555.200,607291.400,0.000
261983.500,304935.400,709872.700,710351.400,709777.600,241976.400,681555.400,604996.300,0.000
256898.200,301237.900,709559.600,710038.500,709456.900,238729.700,678113.900,600417.600,0.000
255878.700,300787.300,709641.000,710120.300,709536.700,238553.500,677709.400,599224.800,0.000
261326.200,304614.900,710065.700,710545.100,709970.300,242207.500,681589.800,603943.600,0.000
264362.200,306367.600,710152.300,710631.100,710062.100,243859.800,683464.000,606972.800,0.000
261434.800,303842.300,709846.600,710325.000,709751.300,241595.700,681445.200,604676.300,0.000
256347.300,300141.600,709533.600,710011.900,709430.600,238348.300,677989.800,600092.800,0.000
255342.700,299705.200,709613.800,710092.700,709509.700,238171.800,677585.000,598896.700,0.000
260792.900,303536.200,710036.600,710515.800,709940.900,241822.300,681483.800,603608.500,0.000
263837.000,305298.600,710123.600,710603.100,710033.300,243480.000,683427.300,606640.100,0.000
260930.100,302795.500,709821.800,710300.800,709726.800,241232.500,681399.100,604361.600,0.000
255855.800,299115.300,709510.600,709989.000,709407.200,238000.300,677950.200,599792.100,0.000
254833.500,298669.700,709591.800,710070.300,709486.900,237826.700,677535.900,598589.500,0.000
260291.700,302509.000,710017.300,710496.200,709921.100,241488.200,681431.100,603305.400,0.000
263346.700,304280.100,710108.300,710587.200,710016.900,243157.600,683390.300,606345.100,0.000
260426.400,301768.300,709805.900,710284.500,709709.400,240898.500,681341.800,604049.300,0.000
255353.400,298093.000,709497.100,709975.700,709393.200,237666.000,677888.900,599473.400,0.000
254348.300,297668.600,709578.400,710056.800,709472.900,237502.600,677483.800,598281.100,0.000
259810.100,301515.800,710002.800,710481.400,709905.800,241164.700,681381.000,602999.100,0.000
262850.500,303279.300,710091.400,710570.300,709999.500,242817.800,683335.400,606019.700,0.000
259921.600,300757.800,709788.100,710266.800,709691.700,240554.900,681277.300,603714.500,0.000
254852.700,297086.500,709480.100,709958.400,709375.100,237327.100,677814.400,599141.900,0.000
253863.300,296677.500,709563.700,710041.800,709457.300,237177.100,677417.200,597963.600,0.000
259320.800,300525.400,709989.500,710467.900,709892.100,240840.100,681318.800,602675.600,0.000
262364.000,302291.300,710078.400,710557.000,709986.000,242499.100,683277.300,605692.400,0.000
259448.300,299785.500,709774.500,710252.900,709677.400,240243.200,681218.900,603392.400,0.000
254370.500,296111.800,709466.900,709944.800,709361.500,237007.500,677747.700,598807.400,0.000
253364.000,295690.300,709551.900,710029.900,709445.400,236839.200,677331.800,597606.000,0.000
258826.000,299541.500,709980.700,710459.400,709882.900,240496.600,681239.400,602313.000,0.000
261868.000,301310.400,710069.600,710548.500,709976.800,242148.600,683216.300,605321.100,0.000
258947.500,298806.400,709768.600,710246.600,709670.800,239887.100,681144.500,603005.600,0.000
253937.900,295188.100,709465.500,709943.100,709359.800,236697.800,677715.100,598472.800,0.000
252969.000,294793.400,709546.900,710024.300,709439.800,236552.200,677323.400,597298.600,0.000
258447.200,298656.800,709973.900,710451.500,709875.200,240216.500,681234.100,602017.600,0.000
261526.200,300459.600,710068.100,710546.200,709974.400,241898.500,683225.400,605065.000,0.000
258643.000,297986.000,709767.900,710245.300,709669.400,239665.700,681180.500,602789.800,0.000
253609.500,294348.000,709459.700,709936.600,709353.500,236457.900,677731.100,598238.600,0.000
252648.400,293965.500,709546.100,710023.300,709438.600,236316.200,677341.300,597071.400,0.000
258143.200,297846.800,709972.500,710450.500,709873.800,239991.500,681256.300,601806.200,0.000
261225.800,299656.500,710061.900,710539.400,709968.300,241671.500,683237.300,604855.900,0.000
258332.600,297179.700,709759.500,710236.800,709661.700,239428.300,681190.600,602571.900,0.000
253291.000,293544.000,709453.500,709930.600,709347.700,236216.300,677741.300,598014.500,0.000
252299.400,293141.700,709537.300,710014.400,709429.800,236058.300,677330.500,596825.800,0.000
257771.600,297010.300,709964.300,710441.600,709865.300,239724.700,681235.000,601543.100,0.000
260851.500,298820.900,710058.400,710535.400,709964.500,241407.000,683222.800,604586.800,0.000
257963.300,296351.800,709754.800,710231.400,709656.400,239168.600,681171.300,602299.100,0.000
252905.800,292705.500,709445.100,709921.100,709338.400,235947.700,677705.600,597725.400,0.000
251931.300,292321.600,709531.900,710007.800,709423.700,235804.500,677306.400,596548.300,0.000
257428.500,296214.700,709963.100,710439.900,709864.400,239490.100,681232.500,601289.100,0.000
260485.200,298006.500,710052.400,710528.800,709958.400,241156.800,683203.100,604312.900,0.000
257604.000,295545.100,709752.500,710228.300,709653.500,238921.200,681150.500,602026.800,0.000
252565.400,291913.200,709445.400,709920.400,709338.400,235707.500,677688.600,597461.800,0.000
251594.100,291530.600,709530.300,710004.800,709421.500,235563.100,677288.300,596282.100,0.000
257086.300,295421.200,709957.600,710433.100,709857.900,239240.900,681202.200,601007.300,0.000
260159.700,297229.300,710048.700,710524.300,709954.200,240917.800,683181.400,604042.100,0.000
257251.700,294745.600,709743.800,710218.500,709644.400,238667.000,681114.000,601740.100,0.000
252215.000,291122.800,709438.400,709911.800,709330.700,235465.500,677660.100,597185.100,0.000
251254.800,290758.500,709525.400,709998.600,709416.000,235333.800,677264.900,596015.300,0.000
256765.800,294669.000,709956.500,710429.900,709855.900,239025.200,681190.800,600755.400,0.000
259840.700,296483.900,710047.800,710521.100,709952.100,240703.800,683171.100,603788.100,0.000
256942.800,294014.300,709744.000,710216.900,709644.300,238462.800,681109.200,601491.000,0.000
251900.000,290388.400,709434.700,709906.400,709326.500,235255.300,677645.800,596921.100,0.000
250939.700,290026.100,709520.400,709991.600,709410.700,235123.500,677251.100,595748.600,0.000
256439.200,293926.300,709949.100,710420.600,709848.300,238804.300,681168.900,600478.900,0.000
259513.900,295741.800,710039.800,710511.600,709944.100,240475.500,683150.900,603507.100,0.000
256630.300,293286.600,709740.800,710211.400,709640.800,238248.200,681097.500,601223.900,0.000
251609.500,289681.100,709436.800,709906.100,709328.300,235056.300,677646.600,596674.200,0.000
250654.800,289323.100,709521.000,709989.700,709410.800,234924.700,677247.700,595500.900,0.000
256150.000,293220.300,709950.700,710420.300,709849.600,238606.600,681161.100,600226.900,0.000
259235.100,295046.700,710043.800,710513.800,709947.700,240291.500,683152.300,603262.700,0.000
256357.800,292601.800,709743.600,710212.500,709642.800,238063.900,681094.800,600976.500,0.000
251328.200,288993.200,709439.100,709905.100,709330.500,234868.600,677637.000,596419.900,0.000
250367.400,288631.100,709524.100,709987.600,709415.200,234739.500,677237.300,595246.100,0.000
255854.900,292523.400,709952.100,710418.300,709850.900,238414.900,681148.500,599966.900,0.000
258934.200,294348.300,710041.600,710507.400,709945.400,240094.100,683145.900,602998.100,0.000
256065.700,291908.600,709738.600,710198.100,709640.200,237871.800,681088.400,600712.900,0.000
251062.300,288323.600,709430.000,709880.600,709326.900,234689.700,677639.600,596165.800,0.000
250102.700,287965.400,709511.400,709958.300,709409.600,234557.700,677239.300,594990.400,0.000
255599.500,291866.800,709941.600,710391.500,709847.600,238237.500,681154.800,599715.900,0.000
258673.400,293683.000,710030.800,710480.800,709941.600,239912.300,683145.300,602742.400,0.000
255800.300,291242.900,709728.100,710170.600,709636.600,237689.000,681087.300,600460.800,0.000
250792.700,287657.300,709418.600,709850.500,709322.600,234502.000,677631.300,595910.100,0.000
249855.700,287320.000,709503.800,709930.600,709408.600,234386.500,677241.300,594748.300,0.000
255352.900,291225.100,709932.800,710363.400,709845.400,238068.700,681154.700,599475.300,0.000
258431.200,293051.500,710023.600,710454.400,709940.600,239747.600,683147.900,602505.300,0.000
255560.700,290617.100,709718.000,710140.900,709633.400,237520.700,681082.600,600215.100,0.000
250552.300,287030.300,709409.200,709819.600,709320.400,234332.400,677626.900,595662.900,0.000
249607.400,286688.700,709493.500,709897.300,709405.100,234208.600,677232.100,594492.300,0.000
255102.100,290593.800,709922.600,710331.300,709842.200,237890.600,681141.800,599216.300,0.000
258186.200,292426.600,710016.000,710424.800,709940.500,239574.300,683140.900,602249.900,0.000
255320.100,289997.800,709711.100,710109.300,709633.900,237354.800,681085.300,599962.800,0.000
250310.000,286408.800,709399.200,709779.800,709318.200,234169.700,677625.900,595405.000,0.000
249365.100,286067.000,709484.200,709854.500,709403.400,234049.500,677227.300,594234.200,0.000
254857.000,289971.800,709915.400,710293.800,709842.400,237730.000,681133.900,598955.300,0.000
257934.900,291801.700,710007.900,710387.300,709939.800,239415.000,683130.800,601988.300,0.000
255074.500,289378.800,709701.300,709913.300,709633.300,237200.600,681076.200,599707.500,0.000
250083.000,285809.800,709377.300,707064.600,709319.300,234019.500,677623.100,595158.600,0.000
249134.100,285468.100,709451.900,704440.200,709402.200,233890.800,677218.200,593980.800,0.000
254633.400,289385.700,709882.900,707089.500,709838.900,237579.200,681132.300,598706.600,0.000
257709.300,291217.000,709973.700,707652.300,709934.300,239259.200,683118.000,601732.500,0.000
254826.000,288777.200,709666.600,702930.800,709628.300,237027.300,681041.500,599433.800,0.000
249828.200,285200.900,709353.900,696624.900,709313.700,233852.000,677591.800,594891.900,0.000
248899.700,284876.200,709435.800,693899.600,709396.700,233735.700,677196.800,593732.400,0.000
254403.800,288799.600,709867.600,696444.200,709836.000,237425.700,681112.700,598466.000,0.000
257477.600,290635.100,709959.200,696990.300,709932.600,239105.900,683113.400,601491.800,0.000
254600.100,288199.200,709654.300,692640.000,709625.800,236876.600,681034.800,599193.400,0.000
249610.200,284628.400,709345.000,686601.400,709310.600,233700.400,677575.600,594648.900,0.000
248671.600,284295.600,709430.600,683964.700,709395.500,233582.500,677178.400,593484.300,0.000
254199.200,288247.800,709865.800,686582.700,709838.900,237293.100,681115.900,598233.200,0.000
257289.900,290098.700,709955.100,687199.300,709933.600,238983.000,683114.600,601269.300,0.000
254411.500,287658.100,709647.400,683145.100,709623.300,236743.800,681035.600,598971.700,0.000
249398.100,284064.100,709338.800,677646.100,709305.400,233542.500,677559.600,594407.800,0.000
248450.800,283725.500,709422.300,675391.100,709387.000,233414.200,677147.000,593226.900,0.000
253947.300,287648.400,709849.300,678347.300,709822.900,237106.300,681059.500,597949.800,0.000
257034.500,289495.000,709938.600,679312.100,709917.800,238792.400,683063.000,600981.100,0.000
254172.500,287067.800,709636.400,675397.000,709610.800,236565.400,680989.400,598694.100,0.000
249168.700,283480.700,709330.500,669755.600,709295.900,233370.500,677515.800,594135.100,0.000
248234.100,283157.200,709417.100,667514.800,709380.600,233255.100,677112.900,592962.500,0.000
253749.300,287104.000,709847.000,670513.800,709820.400,236965.300,681045.500,597700.100,0.000
256833.600,288953.000,709939.000,671509.900,709917.600,238659.300,683065.700,600735.300,0.000
253963.600,286518.300,709637.000,667615.000,709610.500,236426.400,680977.900,598443.500,0.000
248959.200,282934.400,709331.100,662001.600,709294.800,233227.300,677496.700,593883.300,0.000
248018.600,282605.900,709417.400,659787.800,709378.600,233108.900,677088.100,592707.600,0.000
253541.800,286561.800,709847.600,662825.600,709819.200,236829.300,681029.600,597454.300,0.000
256646.700,288431.300,709937.600,663866.100,709915.100,238534.900,683064.100,600505.900,0.000
253782.900,286006.000,709635.800,660010.300,709607.100,236305.900,680980.300,598219.400,0.000
248763.800,282404.400,709330.100,654419.600,709291.600,233099.100,677487.900,593650.600,0.000
247825.400,282079.800,709416.800,652235.900,709376.000,232979.300,677076.700,592473.300,0.000
253341.000,286033.700,709842.200,655293.600,709811.600,236689.400,681008.100,597207.000,0.000
256431.600,287892.700,709932.500,656355.300,709907.400,238387.000,683043.100,600245.700,0.000
253575.700,285473.300,709632.000,652541.100,709600.900,236166.200,680963.600,597966.900,0.000
248582.500,281897.800,709330.500,647002.500,709289.400,232976.500,677488.000,593416.100,0.000
247647.600,281577.400,709416.600,644853.300,709373.500,232855.000,677077.900,592238.400,0.000
253169.500,285541.100,709846.400,647955.600,709813.400,236572.600,681021.100,596983.100,0.000
256267.500,287413.000,709937.600,649060.600,709910.100,238279.300,683051.600,600028.500,0.000
253406.300,284987.700,709636.400,645272.600,709602.900,236049.900,680964.600,597741.400,0.000
248405.100,281401.600,709331.900,639762.200,709288.800,232849.800,677482.800,593180.800,0.000
247477.300,281088.500,709418.900,637657.400,709373.700,232739.300,677081.300,592010.900,0.000
252994.300,285052.100,709847.300,640791.100,709811.900,236459.100,681022.400,596750.800,0.000
256087.900,286922.800,709937.800,641926.300,709907.900,238160.300,683049.300,599793.400,0.000
253228.600,284499.500,709637.900,638176.700,709602.000,235931.100,680962.000,597510.400,0.000
248230.400,280917.900,709335.300,632702.400,709288.800,232733.200,677476.400,592951.500,0.000
247310.400,280614.800,709425.000,630638.300,709376.300,232628.000,677075.600,591787.800,0.000
252831.700,284586.500,709853.000,633811.100,709814.600,236355.000,681020.100,596532.100,0.000
255920.900,286455.100,709941.300,634981.000,709908.300,238056.500,683059.000,599571.800,0.000
253062.600,284032.200,709640.200,631267.600,709601.500,235825.500,680971.600,597288.300,0.000
248061.500,280450.200,709333.200,625828.600,709284.300,232622.100,677483.600,592726.300,0.000
247126.100,280136.600,709419.100,623790.600,709368.300,232510.700,677077.400,591551.300,0.000
252645.400,284107.700,709851.000,626999.800,709810.600,236239.700,681020.400,596295.300,0.000
255753.000,285994.400,709944.100,628220.700,709909.300,237954.000,683058.900,599348.900,0.000
252899.200,283576.700,709641.600,624545.600,709601.300,235725.900,680976.400,597066.100,0.000
247900.200,279994.800,709335.600,619140.500,709284.600,232523.800,677487.500,592503.300,0.000
246976.000,279693.700,709424.100,617141.000,709370.600,232414.300,677084.800,591333.100,0.000
252489.300,283661.900,709853.300,620380.000,709809.900,236136.500,681024.300,596074.000,0.000
255588.700,285541.200,709944.800,621627.600,709907.700,237844.800,683053.900,599121.800,0.000
252737.700,283123.800,709643.700,617990.600,709600.400,235617.900,680968.600,596843.100,0.000
247745.800,279549.600,709338.800,612621.100,709285.400,232417.600,677483.800,592283.400,0.000
246809.500,279239.700,709426.400,610644.100,709371.000,232300.500,677070.900,591102.100,0.000
252326.900,283213.900,709854.700,613917.800,709809.900,236024.200,681009.900,595842.400,0.000
255427.100,285096.300,709945.700,615201.400,709906.300,237735.000,683041.600,598892.600,0.000
252569.600,282676.500,709643.600,611594.600,709598.200,235506.900,680954.600,596610.600,0.000
247570.900,279097.200,709337.900,606254.200,709282.200,232307.000,677461.500,592045.700,0.000
246656.900,278805.800,709426.400,604327.400,709368.800,232207.200,677060.600,590883.300,0.000
252188.400,282796.400,709858.200,607647.300,709810.600,235943.900,681013.300,595641.300,0.000
255274.700,284666.800,709946.300,608951.300,709904.500,237642.900,683046.100,598680.300,0.000
252433.600,282260.800,709644.900,605381.400,709597.200,235416.500,680958.800,596402.400,0.000
247449.000,278690.300,709340.600,600087.900,709282.600,232223.900,677476.900,591852.600,0.000
246515.000,278380.500,709426.800,598179.600,709366.600,232110.600,677063.900,590674.900,0.000
252048.800,282377.100,709858.400,601534.400,709808.600,235851.700,681018.400,595433.300,0.000
255157.800,284270.800,709951.700,602889.300,709908.100,237568.100,683069.200,598489.800,0.000
252313.100,281858.900,709652.200,599352.900,709602.800,235344.900,680983.100,596213.800,0.000
247329.000,278291.300,709346.300,594084.400,709286.100,232149.600,677494.200,591657.800,0.000
246394.900,277984.400,709431.300,592209.400,709368.500,232037.300,677082.800,590482.800,0.000
251910.000,281964.200,709859.100,595579.300,709806.900,235760.000,681019.500,595224.800,0.000
254998.500,283842.600,709950.000,596951.400,709904.300,237465.000,683041.900,598267.800,0.000
252140.200,281424.900,709650.300,593432.300,709598.300,235230.500,680943.800,595974.500,0.000
247181.000,277877.300,709347.500,588214.200,709285.400,232049.200,677471.900,591436.600,0.000
246252.000,277572.300,709432.000,586369.400,709367.900,231937.500,677061.800,590263.800,0.000
251776.800,281560.300,709863.200,589780.700,709809.600,235674.800,681014.800,595016.300,0.000
254882.600,283452.800,709953.800,591194.100,709906.000,237390.600,683064.900,598072.000,0.000
252041.400,281048.700,709651.800,587717.800,709598.000,235167.200,680978.600,595798.600,0.000
247067.300,277491.200,709348.800,582514.900,709284.300,231977.300,677495.000,591251.300,0.000
246137.400,277193.300,709434.800,580698.900,709367.900,231865.900,677081.300,590077.500,0.000
251652.800,281178.300,709865.900,584138.000,709809.800,235598.600,681028.300,594826.700,0.000
254753.500,283067.900,709959.300,585581.100,709909.400,237312.500,683061.500,597880.700,0.000
251928.100,280679.100,709659.100,582143.900,709603.200,235097.200,680984.600,595616.300,0.000
246952.000,277121.400,709353.800,576968.300,709287.300,231906.000,677504.500,591066.300,0.000
246006.700,276813.700,709438.100,575169.100,709369.100,231785.400,677083.100,589879.000,0.000
251513.500,280793.700,709869.600,578628.500,709811.000,235511.400,681019.000,594619.800,0.000
254625.100,282692.200,709964.100,580107.900,709911.300,237235.700,683059.900,597683.900,0.000
251789.200,280292.100,709663.100,576692.400,709604.700,235017.400,680979.800,595414.200,0.000
246814.100,276739.500,709357.100,571541.800,709288.600,231827.700,677494.800,590860.600,0.000
245879.000,276439.900,709443.800,569775.900,709372.300,231716.200,677078.100,589679.800,0.000
251392.000,280424.700,709871.300,573263.600,709811.100,235444.200,681017.800,594425.000,0.000
254501.500,282323.000,709962.600,574767.000,709908.700,237161.200,683062.600,597484.000,0.000
251673.500,279931.700,709663.300,571384.800,709602.500,234946.300,680979.400,595217.900,0.000
246695.500,276374.500,709358.500,566268.800,709287.600,231756.700,677493.400,590668.100,0.000
245759.300,276072.600,709445.200,564530.700,709372.100,231640.800,677074.100,589487.900,0.000
251286.700,280069.300,709877.900,568060.400,709815.500,235384.500,681024.300,594249.900,0.000
254397.600,281970.200,709968.900,569592.400,709912.700,237109.000,683062.600,597314.600,0.000
251559.500,279572.900,709665.800,566225.900,709603.800,234888.100,680978.800,595041.000,0.000
246577.100,276016.800,709360.700,561125.800,709287.600,231692.700,677489.300,590484.300,0.000
245645.100,275722.100,709445.600,559416.000,709370.600,231580.100,677073.100,589306.000,0.000
251174.300,279720.500,709877.400,562969.300,709813.200,235321.800,681024.900,594063.600,0.000
254287.500,281626.300,709969.100,564525.700,709910.900,237048.100,683064.100,597128.700,0.000
251452.500,279236.000,709668.600,561185.600,709604.700,234829.700,680976.100,594857.600,0.000
246471.200,275678.600,709362.500,556107.300,709288.000,231632.200,677481.100,590299.400,0.000
245533.800,275375.600,709446.400,554420.800,709369.100,231517.500,677059.800,589121.200,0.000
251058.500,279373.700,709877.100,557999.100,709811.000,235260.900,681009.900,593880.300,0.000
254171.300,281278.700,709971.000,559582.800,709911.400,236985.600,683061.100,596948.800,0.000
251340.100,278885.800,709667.500,556265.800,709601.400,234762.300,680969.600,594677.900,0.000
246371.600,275340.300,709364.900,551222.900,709287.900,231574.900,677484.800,590132.500,0.000
245435.700,275043.300,709453.200,549563.000,709373.400,231464.000,677069.000,588959.400,0.000
250950.000,279033.000,709881.300,553155.000,709813.300,235193.400,681009.900,593708.700,0.000
254069.700,280946.300,709974.100,554768.000,709912.600,236917.400,683066.100,596779.800,0.000
251233.200,278552.400,709672.800,551474.000,709604.700,234691.700,680971.800,594506.600,0.000
246247.900,274993.600,709365.600,546436.600,709286.500,231486.500,677466.300,589941.900,0.000
245313.600,274700.600,709449.800,544796.800,709368.500,231370.700,677043.700,588763.200,0.000
250848.600,278712.300,709881.900,548437.100,709811.900,235121.700,681006.900,593536.400,0.000
253962.400,280619.200,709973.600,550067.500,709909.900,236843.400,683058.900,596602.900,0.000
251123.600,278223.000,709670.700,546792.400,709601.300,234616.300,680963.100,594323.300,0.000
246138.900,274665.300,709363.300,541781.400,709283.100,231412.800,677462.400,589756.500,0.000
245216.900,274382.200,709450.800,540171.800,709368.300,231300.100,677047.500,588582.200,0.000
250738.400,278380.900,709883.700,543822.100,709811.900,235039.700,681005.800,593345.800,0.000
253838.200,280277.800,709976.600,545470.800,709911.400,236758.000,683065.100,596406.600,0.000
251011.400,277894.400,709674.400,542224.400,709602.800,234538.000,680967.300,594131.600,0.000
246038.000,274348.500,709366.400,537238.000,709284.200,231343.000,677469.400,589571.400,0.000
245105.800,274057.600,709455.300,535652.300,709370.800,231236.900,677057.400,588400.100,0.000
250622.000,278051.300,709884.900,539320.700,709811.500,234970.300,681007.600,593154.000,0.000
253744.200,279967.600,709974.900,541001.500,709907.900,236693.900,683073.800,596221.100,0.000
250922.000,277589.000,709675.000,537786.400,709601.900,234483.600,680984.400,593957.100,0.000
245940.000,274036.200,709367.800,532818.500,709283.800,231285.800,677482.800,589394.900,0.000
245017.900,273753.100,709454.700,531253.100,709367.900,231180.300,677067.800,588225.400,0.000
250545.500,277754.500,709887.100,534954.200,709811.700,234925.700,681019.000,592995.800,0.000
253651.700,279656.500,709977.600,536645.800,709908.700,236641.100,683051.600,596059.600,0.000
250825.800,277276.500,709676.900,533441.100,709601.700,234423.200,680965.900,593786.900,0.000
245845.900,273722.600,709370.200,528497.300,709283.800,231225.600,677471.100,589228.900,0.000
244918.200,273436.700,709458.000,526953.500,709369.400,231117.600,677058.600,588060.000,0.000
250449.400,277447.100,709888.300,530675.100,709811.100,234862.800,681015.100,592831.300,0.000
253560.300,279359.200,709979.900,532392.900,709908.900,236584.100,683064.100,595899.100,0.000
250734.700,276981.300,709678.900,529210.900,709601.600,234366.100,680972.100,593628.800,0.000
245765.400,273443.000,709375.000,524292.200,709286.900,231176.000,677482.800,589073.400,0.000
244845.700,273164.100,709462.600,522773.600,709372.400,231073.800,677073.900,587907.700,0.000
250367.900,277164.600,709890.800,526506.600,709812.100,234807.800,681025.700,592668.500,0.000
253472.900,279072.300,709982.300,528236.000,709909.600,236524.200,683084.200,595730.800,0.000
250638.100,276686.500,709679.400,525066.800,709600.600,234305.400,680982.700,593455.200,0.000
245662.900,273144.900,709373.100,520165.000,709283.500,231111.600,677485.400,588898.100,0.000
244725.800,272850.200,709458.000,518656.000,709366.100,230996.400,677064.500,587722.500,0.000
250264.200,276865.800,709890.900,522424.100,709810.400,234745.000,681022.300,592497.400,0.000
253362.800,278766.800,709979.700,524170.000,709905.800,236454.500,683048.300,595551.000,0.000
250510.900,276370.700,709675.900,521003.400,709595.600,234215.400,680940.200,593252.500,0.000
245571.800,272854.900,709373.900,516144.500,709282.200,231043.400,677467.600,588720.100,0.000
244655.400,272580.100,709459.300,514664.900,709365.400,230942.200,677058.600,587558.800,0.000
250179.000,276582.600,709888.600,518442.800,709806.400,234682.500,681009.900,592324.200,0.000
253287.800,278492.300,709980.200,520218.400,709904.700,236402.400,683061.200,595391.500,0.000
250480.000,276134.200,709682.500,517108.200,709600.300,234198.800,680984.400,593133.600,0.000
245503.200,272591.600,709375.400,512241.700,709282.300,231004.300,677486.400,588573.300,0.000
244560.800,272293.100,709459.900,510767.000,709364.500,230886.900,677067.100,587395.000,0.000
250088.100,276300.500,709889.900,514563.600,709805.900,234623.600,681016.000,592161.200,0.000
253208.800,278221.900,709979.800,516364.200,709902.700,236348.300,683056.400,595234.300,0.000
250377.800,275841.600,709678.300,513253.800,709594.600,234128.200,680965.900,592957.100,0.000
245403.300,272302.200,709374.600,508404.800,709280.200,230935.500,677468.600,588395.800,0.000
244470.000,272015.800,709457.800,506952.600,709360.900,230823.300,677046.100,587219.600,0.000
249987.800,276015.800,709886.300,510764.300,709800.700,234557.300,680995.200,591980.200,0.000
253101.000,277934.000,709979.600,512582.700,709900.400,236278.600,683061.800,595050.600,0.000
250288.000,275573.200,709680.500,509498.400,709594.800,234064.900,680967.600,592779.900,0.000
245311.800,272029.300,709372.300,504661.500,709276.100,230865.300,677462.600,588213.400,0.000
244392.500,271753.300,709459.500,503232.400,709361.100,230755.800,677048.900,587044.300,0.000
249928.700,275771.100,709893.800,507078.500,709806.600,234504.400,681013.300,591823.400,0.000
253043.500,277687.800,709986.500,508912.900,709905.600,236227.500,683063.800,594890.400,0.000
250225.900,275322.600,709685.600,505848.300,709598.400,234020.400,680977.400,592623.100,0.000
245256.000,271787.900,709382.200,501038.800,709283.600,230833.500,677482.200,588068.100,0.000
244319.400,271496.900,709465.600,499616.800,709365.100,230721.100,677055.800,586890.600,0.000
249845.500,275503.700,709896.300,503474.900,709807.300,234467.800,681007.900,591663.900,0.000
252970.400,277434.500,709988.700,505333.300,709906.600,236196.800,683063.400,594738.600,0.000
250137.700,275060.000,709683.000,502272.500,709594.600,233974.900,680963.400,592455.800,0.000
245160.200,271517.800,709376.400,497472.600,709276.700,230778.900,677460.400,587887.500,0.000
244247.000,271250.200,709465.100,496091.800,709362.900,230685.700,677058.800,586731.700,0.000
249772.700,275260.000,709895.400,499966.900,709805.100,234429.800,681018.900,591504.100,0.000
252882.100,277175.600,709989.300,501834.900,709905.600,236153.300,683079.100,594573.100,0.000
250057.000,274809.000,709686.600,498792.900,709596.800,233933.700,680971.900,592293.800,0.000
245087.300,271276.600,709379.900,494015.400,709278.800,230744.700,677471.900,587735.200,0.000
244170.300,271003.400,709467.000,492644.200,709363.500,230645.300,677063.300,586574.100,0.000
249690.500,275005.300,709895.600,496526.900,709803.800,234379.300,681009.900,591340.800,0.000
252800.800,276925.600,709988.600,498410.800,709903.300,236102.300,683058.300,594409.900,0.000
249983.100,274566.400,709687.900,495398.100,709596.300,233897.000,680974.600,592145.800,0.000
245007.900,271030.400,709379.900,490627.800,709277.100,230699.800,677468.400,587581.300,0.000
244076.900,270745.700,709465.300,489257.600,709360.200,230587.000,677043.400,586405.400,0.000
249608.300,274757.000,709897.200,493168.200,709803.800,234333.600,680997.300,591180.800,0.000
252718.000,276673.400,709987.800,495066.200,709900.800,236056.300,683043.800,594246.000,0.000
249894.600,274309.200,709686.900,492059.700,709593.600,233845.500,680951.600,591971.600,0.000
244925.000,270774.600,709381.800,487314.000,709277.100,230658.000,677456.900,587415.900,0.000
243997.600,270493.700,709468.600,485966.900,709361.800,230550.800,677042.100,586248.200,0.000
249512.500,274495.800,709897.900,489878.800,709803.400,234283.500,680991.600,591010.000,0.000
252631.700,276422.100,709989.300,491800.200,709901.400,236010.700,683058.000,594084.400,0.000
249812.600,274060.200,709687.600,488814.100,709593.600,233796.800,680963.300,591813.800,0.000
244834.500,270521.700,709378.800,484074.800,709273.300,230597.700,677456.400,587244.800,0.000
243914.000,270247.600,709466.100,482745.400,709358.100,230496.000,677044.900,586081.600,0.000
249447.200,274261.800,709897.700,486684.600,709801.900,234242.400,681002.400,590860.100,0.000
252563.200,276184.800,709988.900,488613.900,709899.900,235963.600,683051.300,593927.800,0.000
249741.600,273822.800,709686.600,485633.500,709591.100,233744.200,680956.200,591649.800,0.000
244778.300,270299.600,709383.700,480921.100,709276.500,230559.700,677463.400,587096.400,0.000
243836.500,270008.800,709469.100,479592.800,709359.400,230442.900,677036.900,585916.100,0.000
249355.300,274013.400,709897.900,483538.600,709800.100,234182.100,680991.600,590682.600,0.000
252473.100,275939.100,709989.300,485486.400,709898.500,235910.500,683057.000,593754.200,0.000
249658.800,273581.300,709687.100,482528.100,709589.600,233701.500,680960.500,591483.700,0.000
244695.700,270057.600,709379.900,477829.100,709271.300,230515.000,677464.100,586927.800,0.000
243753.700,269767.400,709463.600,476510.300,709352.500,230392.800,677031.000,585744.100,0.000
249277.000,273776.500,709895.100,480471.500,709796.100,234132.100,680983.800,590513.400,0.000
252408.500,275714.900,709988.400,482443.500,709896.100,235867.900,683057.600,593595.100,0.000
249594.900,273362.400,709686.200,479502.400,709587.400,233661.700,680964.600,591327.800,0.000
244620.500,269831.800,709379.700,474807.300,709269.300,230468.800,677458.900,586761.400,0.000
243695.600,269557.200,709466.900,473518.700,709354.400,230365.600,677046.400,585594.800,0.000
249226.700,273575.200,709899.400,477504.000,709799.000,234115.100,681007.700,590374.700,0.000
252338.300,275497.200,709991.800,479474.300,709897.800,235836.600,683052.600,593441.000,0.000
249521.400,273138.000,709690.000,476542.100,709589.900,233624.800,680958.300,591166.500,0.000
244556.100,269616.100,709383.000,471863.900,709271.300,230437.600,677458.100,586603.400,0.000
243627.200,269340.600,709468.000,470582.800,709353.500,230330.700,677038.100,585430.300,0.000
249151.100,273351.700,709899.800,474571.900,709797.300,234070.600,680996.200,590201.100,0.000
252257.200,275270.900,709989.600,476550.200,709894.600,235787.000,683047.000,593260.500,0.000
249425.400,272905.200,709686.900,473618.500,709585.100,233567.800,680935.800,590975.300,0.000
244476.600,269395.400,709382.800,468969.900,709269.100,230392.900,677453.300,586433.400,0.000
243553.700,269123.400,709467.300,467705.000,709351.900,230283.400,677036.000,585265.500,0.000
249077.100,273138.000,709897.800,471706.000,709795.100,234023.000,680982.600,590032.500,0.000
252193.200,275066.500,709990.100,473706.800,709894.000,235748.200,683028.100,593101.100,0.000
249357.700,272694.300,709689.600,470790.200,709586.800,233528.000,680924.800,590815.300,0.000
244407.900,269182.500,709384.800,466149.200,709270.100,230348.000,677433.400,586265.100,0.000
243494.300,268920.300,709468.800,464901.900,709351.500,230245.100,677021.700,585101.200,0.000
249004.500,272922.800,709898.500,468906.900,709793.600,233977.700,680970.500,589861.100,0.000
252122.400,274853.200,709991.100,470922.900,709893.300,235706.200,683049.900,592934.900,0.000
249316.600,272503.700,709690.400,468041.400,709586.000,233505.500,680958.400,590676.100,0.000
244365.300,268993.300,709386.100,463410.000,709270.100,230322.300,677464.000,586122.400,0.000
243432.700,268717.300,709473.800,462164.000,709355.400,230213.700,677041.400,584946.200,0.000
248946.400,272720.700,709902.300,466184.000,709797.000,233950.900,680983.800,589707.000,0.000
252068.300,274651.100,709993.400,468213.300,709894.600,235677.300,683032.900,592780.400,0.000
249249.300,272296.900,709692.900,465335.500,709587.600,233469.300,680943.800,590514.400,0.000
244280.300,268775.900,709384.300,460700.600,709267.300,230274.300,677437.100,585948.100,0.000
243339.100,268491.000,709468.600,459460.000,709348.600,230154.100,677007.000,584765.100,0.000
248872.200,272514.600,709900.200,463507.600,709792.600,233901.500,680971.500,589541.300,0.000
252007.800,274458.300,709995.500,465559.700,709894.800,235640.000,683061.100,592627.100,0.000
249192.700,272105.100,709693.800,462698.000,709586.800,233437.300,680965.300,590362.200,0.000
244217.300,268578.300,709385.800,458070.300,709267.400,230239.000,677451.400,585789.600,0.000
243285.400,268304.700,709471.800,456846.100,709350.600,230127.300,677026.100,584611.800,0.000
248802.500,272312.100,709901.600,460891.500,709793.100,233866.000,680977.400,589376.900,0.000
251930.300,274251.100,709995.000,462948.600,709893.800,235601.000,683057.200,592457.100,0.000
249131.600,271917.700,709696.400,460102.500,709588.300,233402.700,680963.600,590198.800,0.000
244163.200,268396.400,709392.800,455497.100,709272.600,230217.000,677464.300,585642.400,0.000
243219.300,268110.900,709476.100,454275.700,709354.000,230099.100,677031.100,584460.100,0.000
248741.900,272123.700,709904.300,458331.400,709794.400,233833.000,680977.900,589222.400,0.000
251863.500,274056.100,709995.900,460394.600,709893.600,235561.400,683041.300,592294.200,0.000
249060.700,271716.000,709697.300,457557.300,709588.400,233364.400,680948.100,590031.800,0.000
244093.000,268196.600,709389.500,452955.900,709268.300,230168.700,677441.700,585464.200,0.000
243157.000,267919.100,709476.300,451753.900,709352.400,230052.900,677017.200,584285.100,0.000
248686.900,271940.100,709908.700,455836.600,709797.300,233801.800,680980.100,589061.900,0.000
251814.000,273879.800,709999.500,457916.700,709895.300,235535.500,683049.100,592143.500,0.000
248991.100,271523.100,709694.000,455068.600,709583.400,233315.800,680937.700,589859.800,0.000
244018.600,267999.300,709387.600,450478.500,709264.900,230123.100,677434.600,585290.600,0.000
243097.900,267735.800,709474.700,449299.100,709349.900,230020.800,677020.000,584125.500,0.000
248631.100,271760.200,709905.200,453393.200,709792.900,233769.400,680980.200,588904.900,0.000
251747.900,273691.600,709996.100,455476.200,709890.900,235495.800,683043.900,591976.900,0.000
248928.300,271337.300,709695.100,452650.800,709583.800,233288.800,680948.000,589707.200,0.000
243962.300,267820.200,709388.800,448069.400,709265.300,230098.600,677441.300,585139.600,0.000
243032.100,267548.400,709474.600,446882.800,709348.100,229987.300,677014.400,583958.600,0.000
248571.800,271576.500,709907.000,450988.000,709793.100,233738.500,680980.800,588739.300,0.000
251702.600,273520.700,709999.900,453091.300,709893.700,235474.200,683064.000,591819.900,0.000
248890.400,271172.800,709698.100,450275.800,709585.300,233267.200,680963.000,589547.500,0.000
243919.100,267648.300,709390.700,445707.200,709265.900,230078.300,677456.000,584980.600,0.000
242984.300,267368.600,709477.100,444534.300,709349.400,229967.500,677030.600,583802.100,0.000
248523.200,271401.400,709910.400,448649.100,709795.300,233719.300,680992.500,588582.800,0.000
251651.900,273343.000,710002.100,450758.300,709894.000,235451.800,683046.400,591663.900,0.000
248847.300,271004.000,709700.800,447958.300,709586.500,233251.200,680958.400,589402.600,0.000
243873.900,267480.100,709392.800,443394.200,709266.500,230056.600,677450.600,584834.300,0.000
242936.500,267200.300,709478.000,442225.900,709348.800,229939.800,677019.700,583652.300,0.000
248462.700,271218.100,709908.400,446340.800,709792.100,233682.800,680974.000,588423.600,0.000
251602.900,273168.900,710000.800,448465.500,709892.300,235420.000,683045.300,591511.100,0.000
248802.500,270831.000,709700.100,445676.700,709584.700,233216.800,680951.400,589252.600,0.000
243832.600,267311.600,709394.300,441125.900,709266.600,230023.000,677447.700,584688.900,0.000
242893.700,267032.600,709478.300,439966.400,709348.200,229904.500,677017.400,583504.600,0.000
248425.700,271055.500,709909.900,444095.300,709792.800,233648.500,680976.500,588279.400,0.000
251560.800,273000.700,710002.400,446231.200,709892.900,235385.900,683050.000,591367.600,0.000
248756.200,270660.700,709700.800,443449.300,709583.900,233180.900,680954.900,589107.100,0.000
243788.300,267140.800,709392.900,438906.600,709264.100,229986.900,677448.100,584542.300,0.000
242856.000,266870.400,709478.400,437762.600,709346.900,229877.700,677025.700,583368.100,0.000
248381.300,270891.700,709909.600,441894.100,709790.700,233622.100,680980.800,588138.400,0.000
251525.600,272847.500,710003.400,444045.600,709892.100,235369.800,683060.500,591234.900,0.000
248723.200,270510.400,709703.300,441276.700,709585.400,233171.300,680969.500,588978.600,0.000
243734.700,266974.200,709395.300,436731.100,709265.300,229968.500,677452.400,584405.500,0.000
242791.700,266696.700,709479.100,435588.500,709346.500,229852.800,677020.700,583221.900,0.000
248340.700,270741.600,709911.800,439751.200,709792.600,233616.400,680989.600,588012.600,0.000
251481.600,272696.400,710003.800,441905.700,709892.000,235356.800,683049.400,591100.500,0.000
248644.800,270327.900,709700.300,439115.600,709581.900,233130.000,680935.300,588809.300,0.000
243678.700,266803.800,709390.900,434591.900,709259.400,229937.000,677425.900,584246.800,0.000
242762.100,266546.400,709478.000,433476.500,709344.100,229839.300,677011.700,583085.300,0.000
248306.000,270585.700,709911.000,437640.100,709790.300,233596.400,680972.600,587871.600,0.000
251460.300,272551.200,710004.600,439817.400,709891.100,235348.000,683045.100,590977.600,0.000
248665.900,270221.300,709707.800,437073.900,709587.900,233152.700,680969.300,588727.800,0.000
243687.500,266694.000,709399.200,432550.200,709266.700,229950.300,677457.100,584157.100,0.000
242733.900,266405.500,709480.500,431410.400,709345.300,229822.100,677012.800,582963.100,0.000
248283.300,270448.900,709913.600,435588.700,709791.400,233585.900,680980.500,587755.900,0.000
251433.200,272410.900,710006.300,437770.000,709891.800,235336.100,683049.400,590855.700,0.000
248630.500,270073.900,709702.300,435023.700,709581.100,233133.700,680961.400,588599.100,0.000
243660.800,266556.500,709397.400,430517.300,709263.400,229944.600,677462.100,584042.300,0.000
242720.200,266285.200,709484.800,429404.100,709348.300,229832.500,677037.100,582867.800,0.000
248256.800,270319.000,709915.300,433582.100,709792.600,233585.000,680997.200,587651.900,0.000
251407.800,272282.100,710009.300,435775.300,709893.400,235336.500,683066.600,590757.200,0.000
248594.200,269936.600,709707.600,433030.400,709585.100,233129.400,680968.800,588494.800,0.000
243613.300,266412.200,709398.400,428521.500,709263.200,229930.700,677458.700,583926.900,0.000
242677.600,266144.700,709482.900,427418.800,709345.100,229823.200,677035.700,582755.900,0.000
248220.100,270179.200,709914.600,431607.700,709790.300,233578.800,680993.100,587547.600,0.000
251380.100,272148.700,710008.200,433809.300,709891.500,235329.300,683051.100,590658.600,0.000
248574.300,269810.900,709707.100,431075.500,709584.300,233125.000,680968.400,588403.600,0.000
243589.000,266280.900,709397.800,426569.900,709262.600,229922.200,677452.000,583834.300,0.000
242649.500,266005.000,709482.300,425467.600,709344.100,229807.100,677019.100,582658.800,0.000
248199.400,270050.300,709918.600,429672.200,709793.800,233569.800,680990.000,587457.500,0.000
251343.900,272007.500,710009.100,431873.700,709892.300,235313.600,683056.900,590561.100,0.000
248539.400,269670.600,709708.000,429149.800,709583.900,233111.500,680970.300,588308.600,0.000
243567.300,266153.800,709399.900,424661.600,709263.100,229917.300,677463.800,583748.200,0.000
242631.600,265884.100,709486.300,423574.800,709346.500,229805.300,677037.400,582577.100,0.000
248153.400,269903.100,709916.600,427763.100,709790.700,233544.700,680982.300,587351.400,0.000
251301.600,271862.500,710011.100,429972.300,709892.400,235288.400,683048.700,590453.400,0.000
248500.500,269527.500,709710.500,427261.800,709584.600,233088.700,680967.900,588204.000,0.000
243517.600,265999.000,709399.200,422771.700,709260.400,229885.600,677452.700,583633.500,0.000
242569.100,265720.800,709483.600,421677.900,709342.500,229765.700,677018.400,582448.400,0.000
248121.200,269770.200,709915.800,425897.000,709788.200,233528.600,680989.800,587247.500,0.000
251266.700,271728.100,710008.500,428115.200,709888.400,235273.400,683058.300,590349.300,0.000
248468.100,269397.400,709708.100,425410.300,709581.000,233071.800,680975.500,588096.600,0.000
243494.000,265877.600,709398.600,420931.100,709258.600,229869.900,677462.400,583529.300,0.000
242541.400,265594.800,709482.400,419843.800,709340.100,229750.500,677028.600,582344.300,0.000
248082.300,269634.300,709916.100,424062.100,709788.000,233509.000,680994.000,587134.700,0.000
251247.800,271612.300,710011.300,426297.300,709890.400,235260.400,683074.100,590250.100,0.000
248444.700,269275.900,709708.100,423593.800,709580.400,233050.800,680990.400,587997.000,0.000
243457.400,265744.500,709399.100,419116.300,709258.600,229846.000,677474.300,583427.300,0.000
242508.300,265465.300,709483.800,418038.700,709340.300,229730.400,677040.800,582246.100,0.000
248049.600,269509.400,709915.900,422264.400,709786.600,233487.300,680999.600,587034.400,0.000
251205.500,271476.300,710007.800,424502.500,709885.900,235235.300,683059.100,590143.700,0.000
248410.100,269144.500,709708.100,421815.200,709579.700,233036.700,680987.500,587899.000,0.000
243433.400,265623.100,709401.600,417349.400,709259.900,229838.400,677481.400,583336.700,0.000
242481.200,265342.400,709488.100,416278.500,709343.900,229721.500,677050.800,582157.800,0.000
248016.800,269379.000,709920.100,420502.100,709789.800,233469.800,681003.600,586941.300,0.000
251182.600,271353.600,710013.300,422752.200,709890.800,235223.800,683067.400,590059.100,0.000
248377.800,269014.300,709707.900,420060.800,709578.900,233017.100,680979.900,587804.500,0.000
243398.400,265492.600,709400.300,415602.900,709257.800,229821.300,677473.600,583242.100,0.000
242446.600,265215.400,709483.600,414532.100,709338.800,229701.200,677038.300,582056.200,0.000
247970.600,269241.900,709915.300,418759.600,709784.000,233445.800,680989.400,586832.800,0.000
251131.800,271213.200,710010.400,421014.900,709887.100,235197.000,683067.900,589949.400,0.000
248339.900,268886.400,709711.800,418339.400,709581.800,232998.300,680990.900,587706.300,0.000
243357.400,265360.000,709402.400,413879.600,709258.600,229795.500,677474.600,583136.000,0.000
242404.000,265079.000,709485.600,412809.400,709339.000,229670.100,677035.200,581945.200,0.000
247946.800,269121.800,709918.700,417055.800,709786.500,233429.300,681001.400,586740.000,0.000
251101.600,271090.700,710011.600,419316.900,709887.300,235181.300,683063.900,589855.400,0.000
248291.100,268751.400,709708.100,416635.700,709576.100,232969.800,680973.000,587595.600,0.000
243312.400,265227.500,709399.500,412186.100,709254.700,229767.300,677461.300,583029.000,0.000
242367.000,264957.100,709484.800,411130.700,709337.200,229649.700,677027.100,581845.400,0.000
247911.300,269002.800,709917.000,415382.000,709783.500,233407.300,680986.900,586636.600,0.000
251080.700,270984.900,710011.700,417656.700,709886.300,235167.300,683056.600,589762.700,0.000
248267.200,268644.800,709710.600,414980.100,709577.700,232958.200,680970.300,587504.300,0.000
243281.900,265119.200,709402.300,410533.100,709256.200,229755.000,677457.100,582932.900,0.000
242340.900,264849.000,709486.100,409486.000,709337.300,229638.500,677028.000,581754.300,0.000
247870.900,268877.200,709915.500,413732.300,709781.000,233385.300,680990.200,586538.900,0.000
251008.800,270831.500,710007.900,415987.700,709881.400,235121.000,683065.700,589638.300,0.000
248183.900,268482.400,709704.300,413300.900,709570.400,232896.300,680951.400,587361.100,0.000
243242.100,264989.300,709400.700,408897.200,709253.400,229724.400,677466.900,582827.900,0.000
242307.000,264724.200,709487.400,407865.200,709337.500,229614.000,677044.800,581658.500,0.000
247836.000,268756.700,709915.900,412116.800,709780.100,233358.500,680993.300,586441.100,0.000
251004.500,270735.500,710012.100,414404.700,709884.400,235115.500,683065.100,589567.900,0.000
248207.500,268406.100,709710.800,411751.600,709576.100,232916.600,680992.100,587325.600,0.000
243228.800,264883.900,709403.200,407317.600,709254.900,229711.800,677477.900,582757.100,0.000
242272.200,264601.800,709486.700,406274.200,709335.700,229586.100,677037.900,581568.800,0.000
247809.700,268643.700,709918.200,410541.500,709781.800,233339.100,680996.600,586357.800,0.000
250972.400,270618.900,710011.100,412830.900,709882.700,235092.200,683065.900,589476.900,0.000
248175.800,268291.200,709709.900,410183.800,709574.100,232892.900,680994.900,587234.700,0.000
243190.600,264762.300,709400.800,405752.200,709251.400,229686.000,677479.700,582664.700,0.000
242231.800,264478.100,709483.200,404712.500,709331.100,229557.600,677034.600,581469.900,0.000
247766.700,268517.300,709916.300,408985.900,709778.800,233310.900,680994.600,586258.200,0.000
250928.700,270492.200,710012.400,411281.100,709882.800,235066.500,683073.900,589376.800,0.000
248138.300,268170.000,709710.600,408643.500,709574.300,232868.500,680993.700,587132.900,0.000
243160.800,264649.700,709402.800,404227.700,709252.700,229668.300,677481.900,582569.900,0.000
242198.200,264362.600,709484.100,403190.900,709331.400,229537.900,677039.000,581374.400,0.000
247718.900,268389.400,709912.600,407455.900,709774.100,233279.400,680982.500,586147.800,0.000
250884.200,270365.300,710007.100,409759.300,709876.900,235035.800,683048.100,589270.500,0.000
248089.800,268038.700,709708.300,407128.800,709570.400,232838.400,680975.500,587030.900,0.000
243108.200,264516.100,709399.100,402714.900,709247.200,229634.200,677462.400,582465.400,0.000
242149.100,264233.900,709482.700,401688.800,709328.100,229510.900,677023.300,581273.500,0.000
247686.000,268278.500,709915.300,405972.300,709775.800,233268.900,680986.000,586060.200,0.000
250847.500,270254.800,710008.800,408280.000,709877.300,235023.600,683065.700,589178.100,0.000
248051.200,267927.100,709707.200,405651.000,709568.300,232823.000,680985.600,586932.500,0.000
243076.900,264408.500,709401.300,401245.100,709248.700,229625.700,677473.700,582370.100,0.000
242107.900,264120.800,709483.800,400211.900,709328.100,229494.100,677021.500,581166.800,0.000
247639.200,268159.800,709916.200,404498.000,709775.600,233246.200,680978.400,585947.500,0.000
250807.200,270137.700,710010.400,406815.500,709877.900,235003.200,683060.100,589070.300,0.000
248021.000,267817.000,709708.600,404193.700,709568.500,232807.000,680982.800,586830.300,0.000
243039.300,264292.500,709399.900,399784.800,709245.600,229602.100,677467.800,582260.400,0.000
242069.700,264002.100,709480.200,398756.300,709323.200,229466.200,677017.800,581056.900,0.000
247607.200,268045.500,709913.500,403052.900,709771.600,233224.900,680978.500,585847.800,0.000
250780.200,270030.900,710010.600,405381.400,709877.100,234988.700,683053.200,588978.300,0.000
247985.500,267705.800,709708.300,402763.800,709567.300,232790.100,680978.800,586733.700,0.000
243005.300,264184.700,709398.400,398363.900,709243.300,229589.900,677465.100,582166.900,0.000
242031.000,263890.500,709480.600,397338.200,709322.400,229454.600,677013.900,580960.400,0.000
247567.600,267935.000,709915.700,401640.300,709772.900,233213.400,680977.600,585749.200,0.000
250749.200,269927.100,710013.500,403982.800,709879.300,234986.000,683062.400,588889.200,0.000
247946.900,267590.900,709710.600,401362.700,709568.800,232778.600,680977.500,586636.700,0.000
242964.500,264063.800,709402.500,396964.400,709246.300,229572.400,677458.900,582065.000,0.000
242008.600,263788.500,709488.100,395958.800,709328.900,229450.800,677018.200,580872.500,0.000
247546.800,267836.000,709921.900,400268.300,709778.000,233211.400,680985.600,585663.500,0.000
250717.700,269817.200,710013.400,402601.200,709878.000,234969.200,683064.700,588788.800,0.000
247925.900,267491.200,709710.300,399992.000,709567.200,232768.500,680979.000,586546.100,0.000
242946.800,263968.200,709400.900,395597.200,709243.100,229560.100,677463.600,581975.800,0.000
241975.000,263676.500,709482.900,394580.500,709322.300,229420.400,677007.900,580766.400,0.000
247506.800,267715.400,709914.100,398889.800,709768.700,233174.800,680967.200,585550.300,0.000
250692.100,269712.400,710011.000,401243.100,709874.600,234947.300,683066.300,588687.900,0.000
247910.800,267396.800,709713.200,398650.200,709569.800,232758.500,680998.300,586454.400,0.000
242927.100,263870.200,709404.400,394262.000,709246.300,229554.900,677481.100,581885.100,0.000
241949.700,263572.800,709486.700,393251.100,709325.100,229417.500,677027.100,580677.000,0.000
247479.500,267613.400,709919.300,397561.200,709773.400,233169.800,680979.300,585454.000,0.000
250664.400,269612.300,710015.600,399915.300,709878.400,234939.400,683061.100,588587.400,0.000
247881.300,267295.400,709714.500,397325.000,709570.100,232746.300,680990.800,586351.400,0.000
242901.400,263770.800,709404.700,392939.200,709245.200,229540.200,677471.700,581781.900,0.000
241927.200,263480.900,709486.800,391929.300,709324.000,229402.800,677017.400,580573.600,0.000
247453.800,267521.200,709920.100,396244.100,709773.100,233155.900,680975.300,585356.400,0.000
250635.300,269512.800,710015.600,398601.600,709877.300,234925.200,683070.100,588492.500,0.000
247848.000,267188.700,709713.000,396010.000,709566.900,232725.300,680991.000,586250.000,0.000
242874.800,263669.000,709404.900,391633.800,709244.500,229520.400,677472.800,581683.400,0.000
241901.100,263376.800,709487.600,390629.000,709323.800,229381.700,677015.400,580474.300,0.000
247422.800,267411.700,709918.800,394944.800,709771.000,233130.300,680968.400,585250.600,0.000
250606.700,269410.200,710013.800,397308.400,709875.000,234899.400,683061.800,588386.600,0.000
247830.300,267101.800,709714.600,394733.300,709568.100,232712.200,680994.000,586157.100,0.000
242847.600,263575.900,709405.900,390359.900,709244.500,229512.200,677479.500,581592.400,0.000
241871.200,263282.600,709487.400,389358.500,709323.100,229374.200,677023.400,580383.600,0.000
247384.700,267311.500,709916.800,393664.700,709768.300,233108.900,680963.800,585145.400,0.000
250551.400,269295.000,710011.100,396020.400,709871.100,234866.500,683044.300,588268.400,0.000
247743.300,266958.000,709710.400,393425.200,709562.700,232657.900,680949.400,586011.600,0.000
242795.700,263459.900,709405.100,389085.300,709242.900,229483.000,677458.900,581472.500,0.000
241831.800,263175.300,709487.400,388100.100,709321.800,229357.300,677012.600,580274.000,0.000
247362.000,267223.200,709918.500,392429.900,709769.100,233111.400,680965.300,585057.300,0.000
250550.700,269228.200,710014.600,394808.300,709873.900,234885.900,683051.400,588203.100,0.000
247760.000,266903.300,709713.300,392231.200,709564.800,232687.800,680974.800,585963.600,0.000
242766.200,263365.800,709400.800,387853.800,709237.400,229470.000,677444.100,581379.900,0.000
241793.500,263076.900,709484.900,386865.800,709318.000,229337.000,676994.300,580174.100,0.000
247315.200,267112.000,709917.100,391193.800,709766.700,233089.700,680952.600,584952.300,0.000
250510.600,269118.300,710015.400,393577.900,709873.000,234867.500,683054.900,588097.800,0.000
247737.100,266812.400,709714.800,391015.400,709564.500,232679.400,680986.700,585870.400,0.000
242755.500,263286.400,709402.100,386650.700,709237.100,229469.300,677465.900,581299.200,0.000
241764.600,262979.800,709481.800,385648.900,709313.700,229319.500,676995.800,580074.400,0.000
247291.600,267019.100,709913.700,389980.300,709762.900,233068.100,680947.000,584848.500,0.000
250483.300,269020.200,710011.800,392372.200,709869.700,234846.100,683050.900,587997.400,0.000
247713.900,266715.000,709714.900,389819.400,709564.900,232662.000,680985.400,585775.400,0.000
242741.800,263199.300,709405.900,385462.800,709240.400,229459.900,677469.000,581208.100,0.000
241766.000,262911.600,709487.300,384478.700,709317.800,229326.000,677013.900,579998.400,0.000
247286.700,266948.300,709919.900,388814.700,709767.300,233079.200,680967.900,584778.300,0.000
250473.900,268951.400,710017.600,391206.300,709874.100,234858.500,683057.600,587926.600,0.000
247685.300,266627.900,709714.500,388638.700,709563.400,232659.700,680980.000,585690.200,0.000
242699.400,263096.100,709404.000,384277.200,709237.100,229447.700,677455.700,581116.100,0.000
241721.400,262806.300,709488.100,383293.900,709318.000,229310.800,676997.600,579903.900,0.000
247242.800,266843.400,709921.200,387635.800,709767.700,233062.700,680954.700,584682.600,0.000
250433.100,268842.800,710018.100,390033.300,709873.600,234837.300,683053.500,587828.600,0.000
247657.100,266532.000,709717.400,387479.400,709564.900,232648.500,680978.900,585601.200,0.000
242674.800,263006.600,709406.500,383124.900,709238.100,229440.100,677454.300,581031.900,0.000
241676.800,262696.800,709486.300,382133.400,709314.700,229289.800,676984.600,579808.100,0.000
247204.100,266741.500,709918.800,386481.600,709764.700,233042.200,680948.000,584591.200,0.000
250404.300,268750.900,710017.300,388888.800,709872.300,234823.100,683055.700,587748.800,0.000
247630.400,266438.000,709717.000,386338.900,709564.100,232631.500,680981.100,585523.300,0.000
242654.700,262914.300,709407.400,381990.600,709238.300,229421.600,677462.300,580954.300,0.000
241672.800,262616.700,709490.100,381010.900,709317.600,229277.600,676999.100,579736.000,0.000
247185.100,266647.200,709922.600,385355.200,709767.700,233022.600,680952.400,584508.000,0.000
250377.900,268654.400,710019.200,387763.700,709873.400,234803.600,683058.400,587658.900,0.000
247599.900,266341.400,709716.800,385218.100,709562.600,232613.800,680983.700,585430.100,0.000
242612.900,262813.300,709405.800,380869.100,709235.300,229401.600,677456.600,580854.400,0.000
241626.400,262514.600,709486.000,379890.600,709312.400,229255.100,676991.300,579634.600,0.000
247146.600,266550.700,709917.800,384245.100,709761.700,233002.900,680953.200,584413.800,0.000
250344.300,268560.300,710015.900,386656.200,709869.000,234782.100,683070.900,587565.700,0.000
247577.700,266256.100,709716.300,384118.000,709561.400,232597.500,680996.400,585342.400,0.000
242600.800,262732.400,709405.900,379776.400,709234.600,229388.900,677474.700,580772.600,0.000
241608.900,262429.500,709487.100,378798.100,709311.600,229239.000,677005.100,579551.200,0.000
247121.000,266463.100,709917.900,383149.100,709760.300,232987.300,680958.600,584324.800,0.000
250317.300,268471.200,710016.300,385570.700,709868.300,234774.600,683070.800,587483.300,0.000
247551.800,266170.300,709717.400,383041.700,709561.400,232592.900,681007.200,585265.200,0.000
242570.900,262647.400,709405.300,378698.400,709232.100,229376.800,677479.100,580690.600,0.000
241571.900,262338.800,709485.400,377713.400,709309.100,229220.800,676999.500,579458.400,0.000
247085.900,266372.500,709917.000,382066.500,709758.600,232970.000,680947.800,584229.900,0.000
250277.000,268373.800,710011.300,384486.200,709862.900,234753.100,683052.200,587382.800,0.000
247508.100,266066.100,709712.300,381959.900,709555.200,232571.400,680987.100,585163.400,0.000
242528.100,262541.900,709403.900,377621.900,709229.600,229361.300,677461.500,580589.400,0.000
241524.800,262229.500,709482.300,376633.800,709304.200,229200.200,676978.500,579350.600,0.000
247042.800,266270.200,709917.400,380995.700,709758.100,232955.600,680934.400,584128.400,0.000
250243.300,268284.100,710015.600,383425.800,709866.500,234743.900,683048.100,587291.800,0.000
247474.300,265972.900,709711.200,380896.600,709553.500,232549.100,680977.300,585069.100,0.000
242493.900,262441.900,709400.100,376555.800,709224.800,229328.500,677444.500,580488.300,0.000
241501.000,262139.000,709484.300,375579.700,709305.100,229175.800,676970.000,579256.800,0.000
247021.000,266182.100,709916.800,379945.300,709756.700,232933.700,680934.200,584036.200,0.000
250223.800,268194.900,710014.200,382376.800,709864.000,234721.800,683055.300,587195.400,0.000
247461.500,265890.800,709714.300,379857.300,709555.600,232539.600,680982.100,584979.900,0.000
242486.800,262363.300,709405.100,375529.400,709228.900,229325.900,677454.900,580409.800,0.000
241492.500,262056.300,709487.300,374561.000,709306.600,229171.200,676979.500,579180.100,0.000
247010.800,266102.900,709921.800,378934.600,709760.600,232931.100,680943.300,583962.700,0.000
250213.800,268122.300,710018.300,381375.700,709866.900,234723.800,683059.900,587130.400,0.000
247445.400,265814.900,709716.600,378856.800,709556.900,232535.500,680987.300,584911.500,0.000
242475.100,262291.800,709407.100,374534.600,709229.400,229325.700,677460.200,580345.600,0.000
241455.500,261962.300,709484.300,373545.800,709302.000,229152.000,676962.100,579093.900,0.000
246965.600,266000.800,709915.300,377909.300,709752.300,232900.500,680915.400,583863.100,0.000
250181.600,268028.400,710016.700,380363.900,709864.500,234702.200,683042.800,587039.000,0.000
247421.100,265724.700,709716.800,377850.800,709555.800,232514.800,680973.600,584820.800,0.000
242445.200,262194.800,709403.800,373517.500,709224.600,229289.900,677435.600,580240.100,0.000
241443.400,261879.900,709485.900,372551.100,709302.500,229133.800,676956.100,579008.800,0.000
246954.900,265922.800,709916.600,376920.300,709752.800,232885.400,680915.700,583780.000,0.000
250145.500,267931.300,710011.100,379352.800,709858.400,234667.800,683034.000,586932.400,0.000
247358.100,265604.600,709709.400,376821.100,709547.800,232463.000,680938.000,584690.200,0.000
242418.400,262100.200,709401.900,372523.900,709221.700,229268.400,677429.200,580145.300,0.000
241423.900,261794.700,709483.100,371559.600,709298.100,229115.000,676951.500,578912.900,0.000
246937.200,265845.200,709915.900,375938.500,709751.400,232876.800,680913.600,583688.500,0.000
250156.400,267883.300,710014.300,378399.500,709860.700,234681.900,683043.800,586869.800,0.000
247404.400,265587.300,709714.300,375898.700,709551.300,232502.400,680983.000,584664.900,0.000
242422.600,262048.000,709403.000,371572.400,709220.800,229277.900,677443.800,580087.300,0.000
241401.800,261719.200,709483.400,370591.000,709296.800,229105.700,676947.400,578833.700,0.000
246907.100,265759.700,709914.300,374961.300,709748.600,232858.900,680907.200,583600.100,0.000
250126.000,267795.500,710013.800,377423.700,709858.600,234664.200,683052.000,586777.700,0.000
247373.700,265497.500,709714.900,374930.200,709551.300,232488.800,680987.300,584573.900,0.000
242400.300,261963.900,709404.400,370613.200,709221.500,229267.900,677450.600,580000.400,0.000
241384.400,261642.900,709483.200,369635.800,709295.300,229094.000,676952.800,578747.700,0.000
246885.800,265684.500,709917.300,374015.100,709750.400,232850.600,680910.100,583520.100,0.000
250105.800,267724.800,710019.600,376486.900,709863.800,234658.700,683045.600,586702.100,0.000
247356.800,265429.600,709719.300,373994.900,709554.800,232479.900,680989.300,584498.900,0.000
242372.000,261887.200,709406.700,369669.300,709221.900,229254.100,677448.800,579918.400,0.000
241345.500,261554.600,709482.300,368680.500,709292.500,229073.600,676941.300,578652.000,0.000
246840.200,265588.600,709913.400,373053.800,709746.400,232827.500,680897.100,583414.600,0.000
250069.200,267632.000,710015.100,375532.200,709858.700,234646.300,683049.900,586604.500,0.000
247319.600,265338.300,709714.300,373042.400,709548.600,232469.400,680984.400,584399.600,0.000
242343.700,261810.600,709404.600,368726.000,709219.000,229247.900,677448.100,579822.500,0.000
241322.500,261484.000,709484.900,367751.600,709293.600,229077.100,676948.400,578567.600,0.000
246820.900,265519.500,709917.400,372134.700,709748.600,232834.700,680908.100,583338.400,0.000
250046.800,267562.500,710016.600,374611.800,709859.500,234646.300,683057.600,586525.900,0.000
247296.800,265267.800,709718.400,372124.300,709552.300,232469.200,680990.800,584325.100,0.000
242314.200,261725.500,709407.200,367805.700,709220.100,229240.500,677445.300,579748.300,0.000
241293.500,261400.000,709486.500,366832.300,709294.000,229066.400,676943.100,578493.300,0.000
246792.700,265439.400,709916.600,371213.800,709747.100,232815.800,680896.900,583257.800,0.000
250005.300,267468.400,710014.800,373691.200,709856.800,234624.000,683041.700,586439.700,0.000
247258.400,265176.900,709715.400,371208.800,709548.100,232450.900,680978.400,584241.400,0.000
242266.500,261627.600,709400.400,366887.000,709211.900,229218.300,677428.900,579658.000,0.000
241256.600,261314.600,709480.100,365922.800,709286.000,229048.100,676932.000,578410.800,0.000
246765.200,265362.100,709915.400,370314.300,709745.000,232805.100,680892.600,583183.300,0.000
249982.300,267394.900,710016.300,372793.100,709857.400,234611.300,683036.600,586364.800,0.000
247231.900,265097.600,709715.100,370309.300,709546.700,232431.000,680968.800,584163.100,0.000
242259.100,261567.200,709403.400,366003.800,709212.800,229208.800,677433.300,579593.000,0.000
241229.100,261231.500,709481.600,365027.000,709284.800,229026.500,676925.100,578326.500,0.000
246737.400,265273.100,709916.100,369421.000,709744.800,232784.600,680888.500,583099.000,0.000
249972.700,267324.000,710017.800,371916.000,709858.300,234601.200,683045.300,586293.400,0.000
247225.300,265031.700,709719.800,369442.900,709550.600,232424.000,680983.800,584094.200,0.000
242247.400,261493.300,709408.200,365134.800,709215.800,229196.400,677444.800,579515.100,0.000
241212.000,261151.700,709482.400,364152.500,709283.800,229004.700,676929.800,578240.200,0.000
246699.300,265178.900,709912.100,368532.900,709739.100,232746.600,680877.900,582995.200,0.000
249917.900,267213.800,710012.400,371028.800,709851.800,234564.000,683032.800,586187.900,0.000
247187.600,264936.900,709713.400,368565.500,709543.200,232398.500,680977.800,583997.600,0.000
242215.900,261406.700,709402.400,364263.200,709208.600,229174.300,677439.300,579422.000,0.000
241189.500,261076.500,709480.900,363294.800,709280.300,228995.600,676934.600,578158.300,0.000
246691.200,265116.900,709913.700,367689.300,709739.900,232751.100,680893.000,582924.600,0.000
249911.300,267153.100,710012.800,370182.500,709851.600,234561.700,683040.600,586110.500,0.000
247165.400,264859.800,709714.900,367719.300,709543.800,232389.100,680983.100,583918.400,0.000
242194.000,261331.500,709405.100,363419.000,709208.800,229164.800,677445.000,579342.900,0.000
241175.100,261008.600,709487.100,362456.600,709283.600,228989.900,676943.600,578083.400,0.000
246667.900,265043.000,709918.400,366845.800,709743.300,232738.100,680895.500,582841.800,0.000
249884.600,267076.400,710017.100,369336.000,709854.400,234542.100,683038.100,586021.800,0.000
247139.900,264786.200,709716.400,366868.300,709544.400,232365.000,680975.100,583821.900,0.000
242160.500,261249.300,709405.000,362569.500,709207.100,229141.300,677437.500,579247.600,0.000
241128.100,260915.800,709485.400,361604.600,709279.700,228963.300,676933.600,577984.500,0.000
246633.100,264962.100,709919.100,366008.600,709743.300,232722.200,680897.200,582755.900,0.000
249856.100,266999.400,710018.100,368505.700,709854.700,234531.100,683043.600,585943.300,0.000
247103.700,264700.500,709717.400,366034.300,709543.800,232347.100,680971.800,583739.400,0.000
242127.300,261167.300,709406.300,361737.200,709204.900,229120.100,677431.200,579163.100,0.000
241104.100,260842.000,709484.800,360777.500,709274.900,228944.300,676929.300,577902.500,0.000
246604.900,264883.800,709917.900,365177.300,709740.700,232699.600,680888.200,582670.100,0.000
249834.000,266929.000,710018.500,367681.500,709854.100,234514.100,683043.900,585863.300,0.000
247093.500,264640.400,709718.800,365224.200,709544.400,232339.800,680986.900,583668.600,0.000
242103.900,261092.300,709404.000,360916.500,709199.800,229098.100,677433.700,579077.100,0.000
241073.100,260757.000,709480.500,359951.500,709265.900,228912.400,676922.100,577807.800,0.000
246579.900,264804.900,709916.300,364363.100,709737.100,232674.800,680889.100,582581.200,0.000
249792.800,266836.800,710017.300,366859.600,709851.500,234479.700,683032.700,585759.300,0.000
247011.500,264513.200,709713.600,364370.300,709538.100,232274.500,680939.800,583525.700,0.000
242064.100,261002.100,709402.600,360103.200,709193.500,229069.200,677420.700,578974.100,0.000
241054.000,260686.400,709482.700,359158.800,709260.600,228902.400,676927.800,577726.100,0.000
246550.900,264722.800,709914.900,363556.500,709734.900,232652.000,680879.500,582485.800,0.000
249786.200,266771.900,710016.300,366071.000,709850.300,234471.200,683050.700,585685.800,0.000
247053.400,264493.200,709717.400,363628.100,709540.600,232306.400,680996.600,583501.500,0.000
242074.900,260956.600,709406.700,359336.400,709188.300,229079.500,677453.100,578924.400,0.000
241041.200,260622.000,709481.300,358367.900,709243.300,228889.000,676936.600,577648.800,0.000
246536.300,264660.700,709914.600,362770.500,709732.200,232638.600,680891.400,582411.900,0.000
249759.600,266698.300,710015.400,365279.000,709848.300,234450.100,683042.300,585602.300,0.000
247022.000,264413.500,709716.000,362832.400,709538.300,232280.600,680986.200,583414.600,0.000
242053.000,260888.500,709404.600,358548.500,709167.100,229056.700,677449.900,578845.600,0.000
241015.700,260553.000,709479.600,357587.200,709204.900,228870.700,676937.600,577572.900,0.000
246507.400,264586.600,709911.900,361993.600,709726.800,232621.300,680892.600,582333.300,0.000
249736.400,266627.200,710015.300,364514.600,709847.400,234440.400,683051.600,585532.900,0.000
247005.800,264347.600,709716.100,362071.000,709537.100,232269.600,680999.800,583345.400,0.000
242032.700,260817.200,709404.400,357786.700,709136.600,229041.300,677462.300,578771.600,0.000
240990.900,260477.000,709482.100,356821.200,709151.100,228848.900,676942.800,577495.000,0.000
246476.500,264503.100,709913.300,361225.300,709724.300,232594.900,680889.700,582252.000,0.000
249723.400,266561.800,710015.600,363759.900,709846.600,234424.100,683056.200,585459.900,0.000
246999.500,264292.900,709718.100,361328.200,709537.500,232261.200,681011.400,583283.800,0.000
242004.000,260741.200,709403.400,357031.200,709096.000,229022.100,677461.600,578698.300,0.000
240956.800,260395.100,709479.900,356065.800,709079.600,228829.200,676942.400,577419.000,0.000
246462.200,264442.800,709914.100,360480.000,709719.600,232582.200,680899.100,582184.600,0.000
249695.900,266486.900,710016.700,363004.500,709846.800,234399.000,683054.900,585382.800,0.000
246958.200,264202.200,709716.800,360560.600,709535.100,232225.300,680994.900,583193.200,0.000
241989.500,260676.600,709405.300,356286.100,709063.400,229006.200,677463.900,578628.400,0.000
240955.300,260339.600,709483.200,355333.800,709016.100,228823.500,676955.600,577362.200,0.000
246446.100,264371.600,709914.500,359741.200,709712.700,232567.600,680900.100,582117.500,0.000
249683.500,266421.400,710017.300,362271.800,709846.600,234391.000,683046.900,585318.800,0.000
246958.500,264148.900,709719.900,359844.200,709536.900,232233.100,681004.900,583141.800,0.000
241983.400,260619.700,709408.000,355563.800,709019.200,229007.000,677465.700,578569.500,0.000
240933.400,260272.100,709482.700,354598.600,708934.100,228810.300,676939.900,577285.700,0.000
246410.500,264292.800,709913.500,358997.500,709702.700,232549.200,680879.500,582030.600,0.000
249663.900,266355.800,710013.200,361534.500,709841.300,234374.100,683042.300,585234.300,0.000
246938.700,264080.300,709715.100,359108.600,709530.300,232211.800,680995.400,583053.900,0.000
241950.400,260535.600,709402.100,354820.800,708954.600,228975.800,677445.800,578468.300,0.000
240900.500,260189.300,709479.600,353859.600,708830.100,228781.500,676922.400,577186.700,0.000
246398.300,264230.500,709912.100,358276.200,709690.900,232532.400,680874.300,581946.000,0.000
249648.800,266291.200,710015.600,360824.100,709843.400,234364.200,683045.200,585161.600,0.000
246915.200,264012.300,709717.400,358394.700,709530.100,232197.900,680993.900,582980.400,0.000
241930.500,260472.600,709404.100,354114.100,708894.800,228966.100,677447.900,578402.300,0.000
240886.000,260133.200,709479.900,353157.100,708726.800,228772.900,676928.800,577123.100,0.000
246395.900,264187.500,709917.600,357593.000,709683.500,232539.300,680894.900,581902.100,0.000
249638.200,266239.500,710018.500,360134.600,709845.100,234365.500,683045.200,585110.400,0.000
246892.500,263946.000,709714.900,357689.900,709524.900,232184.500,680984.600,582913.100,0.000
241919.700,260418.300,709402.000,353410.700,708826.900,228954.600,677441.000,578336.300,0.000
240872.200,260072.000,709475.800,352453.700,708617.200,228759.300,676918.300,577058.100,0.000
246360.400,264107.200,709908.700,356867.900,709661.600,232504.900,680867.300,581814.100,0.000
249608.900,266172.000,710015.200,359417.800,709841.200,234338.200,683042.800,585029.100,0.000
246879.600,263897.000,709716.600,356994.700,709523.900,232174.900,680994.500,582848.500,0.000
241895.700,260357.200,709402.000,352717.100,708751.300,228943.200,677446.800,578268.900,0.000
240850.300,260015.900,709478.900,351762.400,708501.000,228751.200,676922.600,576986.700,0.000
246343.100,264054.800,709913.400,356188.500,709649.500,232506.100,680873.300,581750.900,0.000
249589.600,266112.600,710013.300,358734.000,709838.100,234330.300,683021.100,584957.300,0.000
246853.000,263828.200,709712.300,356307.200,709515.700,232156.900,680969.300,582771.700,0.000
241880.100,260299.300,709401.100,352043.500,708676.500,228934.700,677434.900,578204.500,0.000
240826.800,259950.400,709476.500,351087.200,708378.400,228736.900,676909.000,576918.400,0.000
246322.800,263992.800,709911.400,355515.100,709629.400,232491.100,680864.900,581680.700,0.000
249575.800,266060.000,710016.100,358070.700,709840.300,234323.000,683035.400,584895.900,0.000
246836.700,263771.800,709715.700,355642.700,709515.100,232151.300,680975.800,582709.900,0.000
241850.300,260229.000,709400.300,351360.400,708587.500,228913.500,677420.900,578125.500,0.000
240808.200,259889.600,709477.400,350410.700,708252.800,228724.800,676903.100,576847.100,0.000
246305.900,263932.300,709912.800,354841.700,709610.100,232481.900,680862.100,581611.900,0.000
249548.300,265987.800,710013.500,357390.300,709836.300,234306.400,683024.600,584818.800,0.000
246816.600,263706.100,709713.200,354969.100,709507.400,232138.800,680968.600,582638.500,0.000
241834.700,260166.300,709402.400,350702.700,708506.000,228912.900,677426.900,578067.200,0.000
240775.900,259816.000,709477.400,349743.000,708122.200,228712.300,676897.400,576774.600,0.000
246269.800,263860.400,709908.500,354166.800,709583.300,232462.300,680846.500,581527.100,0.000
249520.000,265920.800,710010.900,356723.600,709832.900,234293.500,683015.200,584738.600,0.000
246772.700,263625.700,709711.800,354292.400,709500.400,232114.300,680950.800,582542.000,0.000
241813.400,260106.100,709402.000,350041.200,708415.100,228900.500,677422.300,577983.700,0.000
240765.800,259764.900,709478.000,349095.300,707987.000,228710.700,676901.100,576703.300,0.000
246251.500,263795.600,709911.400,353520.000,709560.400,232458.100,680847.900,581456.000,0.000
249490.700,265847.200,710010.300,356064.000,709830.900,234274.800,683016.400,584652.800,0.000
246742.500,263554.700,709710.400,353630.000,709492.400,232095.400,680946.800,582452.600,0.000
241797.100,260048.600,709401.400,349390.900,708312.300,228893.300,677426.300,577905.900,0.000
240752.300,259708.600,709477.600,348446.700,707839.800,228701.900,676906.200,576627.000,0.000
246230.000,263735.100,709907.900,352864.600,709529.000,232439.700,680846.100,581372.300,0.000
249481.500,265798.200,710010.500,355424.900,709830.300,234271.900,683017.100,584587.000,0.000
246771.000,263536.500,709712.700,353021.800,709487.700,232118.200,680978.900,582421.400,0.000
241799.300,260009.800,709401.300,348764.600,708208.600,228895.200,677442.600,577855.600,0.000
240720.600,259643.200,709472.300,347793.000,707679.700,228678.400,676895.200,576544.800,0.000
246209.300,263682.900,709906.000,352222.500,709494.200,232429.800,680843.800,581296.400,0.000
249480.300,265761.700,710012.300,354800.900,709831.400,234277.500,683025.800,584524.500,0.000
246753.800,263482.300,709711.200,352389.200,709477.800,232114.300,680975.800,582345.900,0.000
241783.800,259954.000,709398.700,348129.600,708095.800,228886.200,677436.100,577774.600,0.000
240706.300,259588.100,709474.800,347163.600,707533.900,228673.800,676895.000,576469.600,0.000
246181.500,263612.800,709907.000,351582.800,709463.000,232413.500,680835.000,581212.400,0.000
249454.200,265691.200,710011.400,354163.700,709829.700,234258.200,683018.900,584441.100,0.000
246743.000,263428.900,709713.500,351767.000,709469.400,232103.800,680980.700,582277.000,0.000
241769.500,259899.200,709402.500,347513.100,707984.500,228882.000,677442.900,577711.100,0.000
240688.000,259531.800,709475.600,346543.800,707376.300,228665.800,676893.900,576400.200,0.000
246165.400,263562.700,709907.900,350964.700,709427.700,232407.500,680836.500,581140.600,0.000
249436.300,265641.400,710011.500,353545.600,709828.300,234251.600,683034.200,584368.600,0.000
246731.300,263382.500,709713.900,351157.600,709457.400,232105.000,680994.600,582211.500,0.000
241755.000,259848.100,709400.300,346900.000,707858.700,228877.000,677449.400,577640.100,0.000
240674.600,259485.000,709475.500,345935.100,707217.200,228665.700,676905.000,576332.300,0.000
246143.400,263511.500,709907.600,350355.800,709389.400,232404.400,680845.900,581069.800,0.000
249412.700,265586.900,710010.700,352935.000,709825.900,234245.600,683039.400,584296.400,0.000
246723.400,263340.600,709718.500,350561.800,709446.400,232111.600,681016.100,582155.800,0.000
241740.100,259799.300,709402.200,346297.200,707729.700,228874.800,677465.900,577577.400,0.000
240647.400,259425.100,709475.100,345321.900,707044.600,228648.900,676910.900,576257.100,0.000
246112.300,263445.200,709908.300,349739.500,709345.300,232384.800,680844.700,580994.400,0.000
249391.300,265526.800,710012.700,352333.100,709826.900,234238.200,683033.600,584233.600,0.000
246690.100,263266.600,709713.800,349950.200,709425.900,232090.500,681000.000,582080.700,0.000
241712.100,259729.300,709399.900,345692.100,707589.600,228856.500,677453.900,577508.600,0.000
240614.500,259354.800,709471.100,344708.700,706863.800,228623.400,676890.300,576179.400,0.000
246086.500,263385.300,709905.000,349133.200,709293.600,232364.500,680829.200,580918.800,0.000
249381.900,265483.800,710014.800,351743.900,709828.100,234231.000,683033.500,584176.000,0.000
246679.500,263222.900,709716.600,349357.200,709410.300,232081.900,680998.100,582021.200,0.000
241709.200,259694.100,709401.300,345098.800,707456.500,228848.900,677451.400,577447.100,0.000
240602.500,259308.600,709472.500,344115.500,706700.300,228618.300,676886.900,576117.100,0.000
246067.800,263331.200,709907.800,348541.800,709250.100,232363.100,680829.500,580859.600,0.000
249372.700,265440.900,710017.300,351156.600,709829.200,234232.200,683037.100,584118.700,0.000
246684.000,263193.200,709719.300,348784.100,709391.800,232090.500,681009.500,581975.500,0.000
241696.800,259645.500,709401.300,344517.100,707315.400,228843.300,677450.800,577394.500,0.000
240580.500,259251.300,709472.600,343528.200,706532.900,228605.400,676881.100,576058.700,0.000
246038.200,263267.200,709906.000,347946.100,709197.600,232341.500,680815.300,580785.900,0.000
249351.000,265382.300,710015.600,350566.900,709825.400,234213.900,683027.100,584047.300,0.000
246669.700,263141.200,709720.100,348203.900,709367.900,232079.900,681007.400,581913.800,0.000
241693.500,259604.700,709404.000,343951.500,707177.300,228846.500,677462.400,577342.200,0.000
240581.200,259215.100,709475.200,342966.200,706373.200,228609.800,676892.900,576002.900,0.000
246027.200,263220.100,709908.900,347378.700,709149.900,232338.300,680819.700,580723.600,0.000
249326.200,265318.300,710014.600,349991.300,709823.300,234202.400,683036.200,583976.600,0.000
246654.300,263086.700,709716.400,347632.500,709338.100,232072.000,681017.400,581845.300,0.000
241674.900,259549.500,709401.500,343378.100,707024.300,228837.100,677464.300,577270.400,0.000
240547.500,259145.500,709471.100,342381.300,706186.900,228590.800,676880.700,575918.200,0.000
246006.700,263167.200,709904.800,346802.400,709086.000,232330.900,680812.300,580645.700,0.000
249311.500,265273.100,710012.300,349424.200,709819.100,234199.900,683033.100,583904.900,0.000
246641.800,263041.100,709717.400,347076.300,709309.800,232071.100,681019.100,581779.100,0.000
241665.200,259503.200,709403.600,342824.200,706873.500,228833.700,677466.800,577205.900,0.000
240543.900,259106.300,709474.100,341831.900,706021.300,228590.000,676890.000,575859.800,0.000
245994.500,263119.100,709906.600,346254.400,709030.000,232327.000,680822.800,580585.600,0.000
249306.700,265228.100,710014.800,348883.500,709819.800,234203.300,683034.600,583851.400,0.000
246629.000,262987.300,709718.100,346524.100,709279.600,232067.700,681013.300,581717.900,0.000
241652.000,259446.200,709400.400,342268.600,706723.500,228830.500,677461.600,577140.800,0.000
240522.600,259044.100,709471.500,341271.300,705849.800,228583.500,676878.300,575784.400,0.000
245980.500,263068.400,709906.400,345695.900,708970.600,232322.700,680814.800,580509.900,0.000
249295.600,265180.100,710014.400,348329.300,709817.400,234201.700,683033.300,583780.400,0.000
246617.200,262937.300,709719.100,345978.900,709244.100,232072.300,681016.900,581653.100,0.000
241618.100,259380.000,709404.000,341722.400,706567.800,228829.000,677460.400,577072.300,0.000
240503.800,258991.000,709475.400,340740.800,705697.300,228590.300,676889.600,575733.100,0.000
245955.800,263008.300,709905.800,345155.100,708912.900,232317.700,680813.900,580448.600,0.000
249250.000,265102.700,710012.900,347771.600,709813.600,234178.900,683025.900,583698.600,0.000
246547.400,262844.500,709714.400,345400.300,709192.600,232026.400,680985.200,581543.500,0.000
241609.700,259340.000,709404.400,341190.200,706414.100,228820.500,677465.800,577008.700,0.000
240495.700,258953.700,709475.800,340211.300,705525.100,228584.300,676896.800,575672.300,0.000
245949.500,262973.800,709908.900,344634.100,708846.600,232320.400,680826.600,580396.500,0.000
249270.600,265090.600,710017.600,347273.500,709816.300,234204.500,683048.300,583673.300,0.000
246578.800,262831.000,709717.400,344907.800,709159.900,232060.200,681018.900,581533.900,0.000
241599.500,259289.200,709399.700,340659.900,706253.900,228824.300,677465.600,576961.900,0.000
240472.700,258894.500,709471.700,339668.300,705344.800,228579.400,676883.300,575609.200,0.000
245927.000,262915.500,709907.800,344091.600,708773.900,232315.100,680814.400,580330.500,0.000
249248.200,265034.400,710015.600,346736.000,709811.500,234197.000,683034.300,583606.600,0.000
246577.600,262796.500,709720.100,344393.500,709116.600,232068.400,681019.000,581485.100,0.000
241590.100,259248.100,709404.000,340142.400,706091.800,228825.500,677464.300,576908.900,0.000
240456.400,258846.400,709475.500,339152.200,705173.700,228575.600,676883.200,575556.900,0.000
245908.900,262868.300,709906.600,343573.900,708697.100,232306.000,680811.200,580274.100,0.000
249236.800,264992.600,710016.100,346226.200,709808.000,234194.400,683038.900,583556.500,0.000
246564.700,262754.700,709719.900,343885.000,709065.400,232065.800,681024.800,581435.300,0.000
241578.700,259208.500,709402.800,339636.400,705930.400,228821.100,677468.700,576859.500,0.000
240430.500,258795.800,709471.100,338633.800,704992.200,228558.500,676871.800,575491.000,0.000
245871.300,262805.800,709904.500,343054.300,708614.900,232286.800,680797.800,580204.900,0.000
249213.100,264939.300,710016.200,345712.800,709803.100,234181.600,683031.900,583493.100,0.000
246558.300,262713.800,709720.100,343380.000,709012.300,232061.700,681027.300,581382.400,0.000
241570.100,259166.100,709401.900,339129.100,705763.300,228817.300,677470.800,576805.800,0.000
240406.000,258738.300,709468.400,338110.900,704805.900,228544.300,676860.300,575420.800,0.000
245853.200,262749.600,709902.500,342530.700,708524.300,232275.100,680782.600,580131.300,0.000
249200.600,264889.000,710018.300,345202.400,709800.300,234181.300,683028.200,583431.600,0.000
246529.700,262651.600,709721.600,342864.500,708945.800,232052.100,681018.500,581311.900,0.000
241534.100,259092.800,709403.800,338610.800,705578.400,228800.700,677459.800,576727.900,0.000
240389.900,258682.700,709471.900,337611.900,704633.100,228541.500,676867.200,575360.400,0.000
245831.600,262695.500,709903.300,342029.400,708444.500,232264.700,680787.100,580068.800,0.000
249158.800,264816.500,710012.400,344680.900,709789.300,234148.000,683022.800,583347.900,0.000
246503.200,262590.000,709716.600,342353.700,708881.300,232031.300,681018.700,581239.700,0.000
241532.900,259058.700,709403.600,338121.400,705425.200,228803.000,677475.400,576681.100,0.000
240370.000,258636.200,709470.600,337109.100,704463.100,228534.400,676869.900,575298.800,0.000
245812.600,262652.200,709904.100,341532.000,708359.300,232263.900,680793.600,580010.400,0.000
249154.900,264787.500,710016.300,344199.900,709786.800,234160.700,683030.400,583306.300,0.000
246497.000,262556.700,709720.100,341872.400,708822.100,232038.200,681025.900,581196.300,0.000
241509.500,259008.300,709402.600,337625.900,705267.700,228791.400,677468.700,576618.900,0.000
240352.300,258590.100,709471.800,336618.300,704312.100,228527.300,676868.200,575242.300,0.000
245793.000,262601.300,709905.300,341037.500,708282.800,232255.700,680789.400,579952.300,0.000
249136.000,264733.600,710013.800,343702.200,709778.200,234150.900,683035.900,583244.900,0.000
246478.900,262505.500,709716.300,341371.900,708752.200,232029.500,681026.500,581133.900,0.000
241496.500,258960.000,709400.300,337127.200,705105.200,228787.600,677466.800,576559.900,0.000
240328.700,258528.600,709469.600,336111.900,704137.600,228515.400,676855.100,575175.100,0.000
245768.000,262537.000,709901.600,340531.100,708185.400,232240.500,680773.600,579884.100,0.000
249129.700,264688.600,710014.800,343211.800,709770.800,234148.400,683021.600,583194.500,0.000
246481.500,262471.400,709718.600,340890.800,708684.700,232030.700,681021.500,581094.500,0.000
241487.600,258912.300,709400.700,336640.800,704937.300,228779.300,677461.300,576518.300,0.000
240321.100,258485.700,709470.000,335626.000,703968.900,228505.600,676853.100,575133.300,0.000
245749.000,262485.300,709899.800,340033.400,708088.400,232219.400,680760.300,579826.400,0.000
249100.500,264624.500,710010.600,342709.300,709756.400,234118.800,683013.800,583126.900,0.000
246460.500,262412.500,709715.100,340399.800,708599.100,232009.300,681021.900,581034.600,0.000
241482.900,258872.600,709400.100,336165.300,704769.900,228770.700,677470.600,576468.300,0.000
240305.100,258441.600,709465.300,335139.900,703784.600,228487.000,676848.400,575068.300,0.000
245730.400,262442.900,709895.800,339549.300,707978.400,232203.600,680758.000,579762.300,0.000
249083.700,264583.800,710011.000,342235.500,709745.700,234111.100,683021.500,583071.000,0.000
246451.900,262376.300,709718.300,339931.100,708513.100,232003.600,681030.100,580982.100,0.000
241471.900,258834.800,709401.800,335688.500,704587.800,228758.100,677471.900,576408.400,0.000
240281.600,258389.800,709466.700,334661.300,703606.100,228470.000,676849.600,575007.400,0.000
245710.000,262393.800,709900.000,339079.500,707876.800,232192.500,680768.600,579708.500,0.000
249077.700,264548.400,710012.800,341771.900,709733.800,234105.800,683035.400,583021.500,0.000
246431.900,262331.000,709716.400,339461.700,708422.600,231992.700,681037.100,580921.300,0.000
241444.500,258781.300,709399.900,335219.800,704415.200,228745.300,677475.900,576344.800,0.000
240266.000,258346.000,709468.000,334196.900,703441.100,228461.400,676854.400,574946.800,0.000
245710.700,262368.000,709905.300,338628.400,707787.500,232195.600,680782.600,579657.100,0.000
249079.300,264522.300,710019.300,341324.600,709726.800,234108.400,683037.800,582972.300,0.000
246422.000,262286.200,709717.000,339002.600,708328.100,231981.200,681030.800,580865.000,0.000
241435.500,258733.900,709399.500,334761.400,704248.300,228732.500,677472.800,576289.300,0.000
240247.600,258294.600,709467.900,333734.100,703271.100,228446.900,676847.400,574883.300,0.000
245683.200,262308.300,709899.800,338151.400,707670.400,232168.100,680760.300,579579.500,0.000
249037.700,264451.400,710010.000,340831.800,709698.800,234067.800,683015.700,582878.200,0.000
246369.300,262214.800,709712.400,338504.000,708199.500,231935.400,681000.600,580756.800,0.000
241420.600,258695.600,709400.100,334297.400,704067.300,228718.300,677471.400,576214.100,0.000
240252.800,258269.200,709468.000,333290.400,703116.400,228447.800,676865.300,574831.800,0.000
245674.700,262269.300,709901.400,337705.500,707566.800,232165.000,680773.900,579523.000,0.000
249044.100,264423.200,710015.200,340402.700,709687.500,234079.400,683028.700,582839.600,0.000
246408.000,262211.800,709720.100,338102.000,708135.400,231971.700,681039.800,580752.400,0.000
241424.000,258664.400,709403.200,333870.300,703919.900,228729.500,677489.100,576183.800,0.000
240208.800,258199.900,709467.300,332829.800,702931.600,228428.500,676851.300,574764.900,0.000
245635.800,262204.700,709899.400,337244.100,707439.400,232146.400,680762.300,579457.600,0.000
249013.500,264365.100,710012.500,339946.900,709662.600,234064.400,683037.000,582781.900,0.000
246379.500,262156.400,709718.300,337652.200,708021.600,231959.300,681048.900,580699.600,0.000
241390.800,258605.500,709400.700,333411.100,703734.900,228708.100,677481.900,576122.600,0.000
240191.700,258156.500,709466.800,332376.500,702759.100,228411.700,676847.600,574709.400,0.000
245611.300,262154.800,709898.900,336789.100,707317.400,232125.600,680754.300,579398.000,0.000
248990.000,264313.000,710010.400,339493.700,709633.900,234041.800,683013.100,582720.600,0.000
246371.000,262117.700,709716.100,337206.800,707905.200,231941.400,681034.500,580642.300,0.000
241394.200,258578.500,709402.300,332976.500,703565.700,228696.000,677480.000,576073.500,0.000
240194.600,258127.400,709468.800,331941.900,702594.100,228397.400,676846.100,574661.100,0.000
245612.300,262123.900,709901.600,336357.600,707201.800,232112.200,680755.100,579351.700,0.000
248974.800,264267.900,710014.100,339055.600,709608.100,234022.000,683022.300,582665.600,0.000
246364.600,262078.100,709720.700,336772.700,707788.900,231927.200,681046.600,580592.300,0.000
241376.900,258525.300,709399.900,332531.200,703384.400,228672.800,677481.100,576012.900,0.000
240151.700,258054.700,709461.100,331478.700,702394.100,228359.100,676829.800,574578.800,0.000
245583.500,262068.900,709896.000,335904.800,707055.300,232087.500,680746.000,579277.500,0.000
248973.700,264237.900,710011.300,338623.000,709568.800,234015.400,683013.100,582609.400,0.000
246350.600,262035.200,709715.600,336336.800,707654.600,231913.700,681031.800,580528.800,0.000
241369.200,258490.200,709399.100,332108.100,703215.400,228667.900,677478.000,575958.400,0.000
240155.600,258034.200,709464.900,331072.100,702241.900,228366.500,676839.300,574537.600,0.000
245561.100,262024.400,709896.400,335481.200,706918.500,232075.100,680740.600,579214.300,0.000
248961.300,264202.500,710011.300,338205.700,709525.300,234003.200,683026.300,582549.600,0.000
246341.000,262001.300,709714.900,335922.900,707516.200,231901.500,681043.500,580475.400,0.000
241356.900,258455.600,709399.900,331694.400,703031.300,228655.800,677485.000,575907.800,0.000
240135.900,257989.400,709463.700,330647.900,702054.800,228344.200,676836.300,574477.500,0.000
245547.600,261983.600,709894.900,335060.200,706771.900,232053.200,680741.800,579159.600,0.000
248939.300,264155.500,710011.900,337790.100,709476.400,233988.100,683033.400,582501.300,0.000
246323.000,261958.100,709716.400,335513.000,707379.200,231891.700,681055.400,580429.900,0.000
241333.000,258402.000,709396.100,331272.300,702848.800,228634.800,677484.000,575849.400,0.000
240113.900,257936.700,709460.400,330225.200,701877.700,228324.100,676833.800,574417.300,0.000
245532.700,261940.500,709897.400,334645.700,706628.600,232041.000,680742.000,579100.900,0.000
248932.000,264121.200,710013.400,337377.500,709417.300,233976.700,683017.800,582442.600,0.000
246319.000,261925.900,709719.400,335105.300,707239.100,231882.300,681045.000,580377.400,0.000
241338.600,258380.500,709403.600,330877.900,702692.200,228636.100,677489.800,575810.400,0.000
240113.600,257913.800,709465.500,329831.100,701728.100,228326.400,676837.800,574376.900,0.000
245523.500,261911.200,709897.600,334245.200,706498.100,232038.800,680739.200,579055.500,0.000
248921.600,264085.800,710011.500,336970.800,709351.400,233969.000,683008.800,582390.800,0.000
246319.300,261899.500,709719.900,334704.800,707106.800,231884.400,681044.600,580332.500,0.000
241337.400,258356.400,709406.700,330482.500,702543.400,228645.800,677496.500,575771.800,0.000
240092.500,257871.900,709467.300,329419.600,701561.100,228320.700,676830.400,574322.200,0.000
245492.100,261860.200,709897.500,333824.900,706333.200,232022.800,680722.400,578987.900,0.000
248894.600,264038.100,710010.900,336557.600,709259.400,233957.700,683012.100,582328.500,0.000
246298.500,261855.200,709719.300,334298.900,706947.200,231877.400,681050.400,580276.600,0.000
241313.100,258304.000,709402.500,330070.000,702357.800,228628.900,677491.300,575707.300,0.000
240077.400,257828.800,709464.000,329014.500,701389.100,228310.500,676835.100,574265.900,0.000
245483.000,261821.900,709897.300,333427.200,706179.700,232022.300,680736.200,578943.000,0.000
248896.600,264012.800,710012.700,336170.200,709152.900,233966.100,683020.900,582294.400,0.000
246301.500,261833.700,709721.200,333912.100,706789.100,231884.300,681058.300,580240.300,0.000
241308.100,258272.200,709401.800,329677.400,702184.600,228626.200,677489.300,575662.300,0.000
240066.800,257794.400,709464.600,328617.000,701215.900,228302.800,676824.600,574213.100,0.000
245461.200,261781.500,709895.800,333020.200,706000.400,232005.100,680716.600,578878.800,0.000
248873.800,263971.000,710011.500,335767.400,709002.400,233951.400,683018.600,582233.300,0.000
246273.300,261786.300,709719.100,333508.300,706606.400,231867.400,681049.800,580178.300,0.000
241295.900,258243.000,709401.400,329287.300,702011.300,228622.300,677492.500,575612.300,0.000
240044.100,257756.600,709462.200,328218.900,701036.400,228290.000,676821.300,574153.900,0.000
245436.300,261741.700,709895.800,332622.800,705824.700,231995.400,680714.400,578817.800,0.000
248853.900,263928.900,710012.800,335374.200,708844.600,233946.100,683018.600,582175.600,0.000
246261.200,261746.900,709718.500,333117.900,706431.600,231866.800,681054.400,580125.700,0.000
241281.200,258200.800,709399.900,328888.400,701834.000,228614.400,677492.800,575556.200,0.000
240016.000,257699.400,709458.200,327811.300,700855.300,228274.200,676812.900,574088.100,0.000
245409.900,261685.700,709890.600,332216.500,705643.600,231976.500,680706.500,578752.100,0.000
248834.700,263883.000,710009.400,334972.100,708682.100,233929.400,683014.300,582114.400,0.000
246235.500,261699.700,709717.400,332714.000,706245.900,231844.700,681047.100,580060.400,0.000
241262.400,258159.000,709403.200,328501.000,701666.000,228605.700,677497.900,575504.900,0.000
240018.700,257679.100,709464.900,327437.300,700709.700,228281.600,676829.800,574052.200,0.000
245403.500,261657.000,709895.400,331830.400,705486.900,231976.700,680710.400,578702.600,0.000
248811.000,263837.400,710010.100,334572.500,708517.900,233915.700,683006.100,582049.400,0.000
246195.500,261636.400,709714.700,332297.500,706034.000,231812.500,681022.800,579972.900,0.000
241242.000,258109.700,709401.100,328100.800,701473.600,228584.200,677484.100,575429.300,0.000
240001.500,257631.800,709462.800,327047.900,700530.400,228265.000,676826.700,573984.900,0.000
245397.000,261620.100,709895.300,331453.100,705316.900,231969.400,680719.800,578649.400,0.000
248826.400,263821.600,710013.000,334215.500,708376.400,233924.300,683016.300,582014.900,0.000
246240.200,261645.500,709719.600,331974.400,705916.300,231849.400,681063.800,579974.300,0.000
241267.500,258105.000,709401.100,327759.200,701337.600,228604.300,677511.300,575411.100,0.000
239992.100,257599.200,709460.700,326674.900,700361.600,228256.600,676822.600,573932.000,0.000
245371.300,261573.800,709891.400,331072.300,705137.900,231951.800,680704.900,578584.600,0.000
248806.300,263780.000,710007.600,333837.600,708207.300,233906.700,683015.500,581950.400,0.000
246231.700,261613.500,709717.200,331605.800,705742.900,231840.000,681068.300,579922.800,0.000
241245.900,258059.300,709400.400,327383.200,701164.400,228585.800,677506.900,575354.600,0.000
239977.400,257561.000,709461.800,326304.400,700198.800,228243.400,676825.000,573882.300,0.000
245354.500,261537.100,709892.900,330700.200,704968.700,231937.800,680707.800,578532.300,0.000
248793.500,263745.200,710009.800,333469.600,708049.100,233898.900,683023.600,581903.000,0.000
246222.900,261581.600,709719.900,331240.900,705578.300,231834.900,681081.300,579876.300,0.000
241234.100,258026.600,709400.900,327015.300,701003.800,228577.500,677513.100,575305.300,0.000
239950.800,257515.800,709458.600,325923.600,700022.100,228221.600,676816.100,573816.200,0.000
245338.000,261501.100,709891.400,330329.800,704794.200,231924.700,680706.500,578474.600,0.000
248789.200,263721.400,710011.100,333112.900,707892.300,233897.100,683021.900,581861.400,0.000
246219.800,261559.300,709720.100,330880.200,705408.800,231831.000,681077.700,579833.600,0.000
241215.000,257987.300,709398.700,326643.000,700832.200,228563.200,677501.400,575251.500,0.000
239933.100,257474.300,709458.200,325556.700,699860.900,228210.200,676807.100,573769.100,0.000
245330.200,261470.000,709890.900,329968.200,704631.000,231918.700,680701.100,578433.500,0.000
248771.400,263681.600,710011.300,332749.400,707722.900,233887.100,683013.600,581814.300,0.000
246198.000,261510.900,709720.100,330522.300,705226.300,231820.300,681071.600,579787.200,0.000
241225.800,257966.100,709402.600,326313.800,700681.900,228577.200,677520.800,575231.000,0.000
239942.200,257457.600,709459.300,325220.700,699704.800,228218.600,676819.400,573739.400,0.000
245318.700,261433.600,709890.100,329618.000,704454.000,231910.900,680697.000,578385.700,0.000
248771.300,263654.600,710011.800,332406.700,707555.900,233883.600,683025.600,581772.100,0.000
246213.400,261500.900,709723.200,330184.800,705063.400,231826.600,681086.400,579752.900,0.000
241233.500,257949.300,709404.400,325963.100,700519.100,228574.800,677524.800,575185.900,0.000
239934.300,257425.000,709461.500,324869.100,699541.600,228214.100,676822.400,573692.100,0.000
245304.800,261396.800,709890.000,329261.700,704275.500,231899.700,680694.500,578331.500,0.000
248756.200,263615.000,710009.300,332046.700,707375.100,233868.800,683020.900,581716.800,0.000
246181.100,261444.400,709717.800,329815.900,704866.300,231800.200,681072.400,579689.200,0.000
241206.400,257900.200,709401.800,325600.800,700335.000,228550.400,677515.200,575129.900,0.000
239920.000,257388.000,709461.100,324512.400,699366.800,228197.800,676820.100,573643.500,0.000
245293.800,261364.300,709891.600,328912.500,704100.900,231894.800,680701.700,578290.300,0.000
248747.000,263589.900,710009.900,331704.700,707198.900,233870.400,683017.900,581680.400,0.000
246180.600,261431.600,709719.300,329484.200,704695.800,231809.800,681077.000,579661.100,0.000
241198.800,257882.000,709402.500,325265.400,700175.900,228558.500,677516.600,575095.100,0.000
239911.400,257370.800,709461.500,324175.600,699209.700,228204.300,676819.400,573604.300,0.000
245285.900,261345.800,709893.800,328575.000,703934.800,231899.600,680701.800,578251.900,0.000
248730.800,263557.800,710011.900,331360.800,707027.400,233870.500,683030.800,581638.600,0.000
246174.800,261408.000,709722.100,329143.100,704529.100,231812.800,681094.000,579623.300,0.000
241187.200,257848.400,709401.500,324917.800,700009.200,228551.300,677521.300,575051.400,0.000
239894.900,257327.800,709458.400,323821.400,699039.300,228189.600,676815.600,573556.300,0.000
245273.600,261307.500,709891.500,328222.300,703758.200,231889.200,680699.100,578203.100,0.000
248724.500,263524.900,710011.100,331012.300,706846.300,233864.200,683028.100,581588.800,0.000
246161.900,261361.900,709723.400,328796.900,704347.300,231806.700,681090.300,579573.300,0.000
241193.700,257818.400,709405.100,324587.400,699853.900,228558.900,677533.400,575015.100,0.000
239889.600,257294.300,709459.700,323486.000,698878.800,228191.400,676822.100,573511.400,0.000
245247.200,261261.800,709889.000,327874.600,703575.100,231876.500,680689.800,578143.400,0.000
248710.000,263493.000,710010.300,330677.400,706673.100,233862.400,683015.000,581542.600,0.000
246160.000,261347.000,709722.600,328472.800,704185.600,231814.100,681089.400,579539.900,0.000
241178.800,257791.700,709404.100,324255.100,699693.800,228559.500,677527.100,574974.800,0.000
239878.300,257271.900,709459.900,323155.600,698721.900,228194.300,676819.200,573471.400,0.000
245233.000,261236.200,709888.900,327539.300,703400.100,231875.000,680684.100,578097.900,0.000
248691.300,263459.800,710008.900,330334.400,706480.500,233851.900,683013.600,581488.200,0.000
246150.900,261319.800,709721.900,328135.500,704002.600,231806.500,681086.600,579487.500,0.000
241176.900,257773.800,709403.200,323924.300,699527.800,228554.700,677529.100,574929.000,0.000
239854.300,257233.500,709456.100,322806.800,698537.400,228174.100,676804.700,573410.100,0.000
245206.500,261193.600,709885.000,327192.400,703206.300,231857.000,680670.800,578037.700,0.000
248688.000,263440.600,710007.300,330007.800,706296.100,233848.200,683006.600,581447.400,0.000
246141.300,261294.900,709719.000,327807.400,703819.000,231798.900,681082.300,579444.900,0.000
241161.500,257743.600,709401.300,323595.100,699355.900,228547.600,677523.400,574884.600,0.000
239835.000,257197.700,709456.000,322479.100,698368.900,228168.300,676799.700,573364.900,0.000
245191.900,261162.200,709887.800,326867.700,703032.700,231853.600,680670.000,577996.800,0.000
248654.900,263391.200,710010.000,329672.000,706098.600,233834.800,683008.600,581394.400,0.000
246078.500,261218.300,709717.900,327441.500,703588.100,231758.500,681052.300,579359.500,0.000
241129.800,257694.100,709401.300,323253.500,699161.400,228526.500,677513.300,574823.500,0.000
239818.800,257162.200,709454.600,322146.600,698189.700,228154.600,676797.400,573314.500,0.000
245170.800,261122.800,709886.700,326533.800,702840.600,231838.200,680664.800,577940.100,0.000
248655.300,263371.000,710011.500,329359.400,705917.400,233836.500,683019.100,581355.900,0.000
246112.000,261227.400,709720.300,327159.500,703450.800,231786.000,681091.300,579353.900,0.000
241129.500,257672.200,709397.200,322938.300,698999.500,228524.300,677520.200,574782.600,0.000
239818.400,257144.400,709454.300,321833.300,698027.900,228154.800,676805.700,573270.300,0.000
245178.700,261114.700,709886.400,326227.700,702677.600,231844.200,680679.300,577902.300,0.000
248650.500,263344.800,710007.100,329038.200,705736.200,233828.100,683018.300,581305.300,0.000
246104.600,261194.700,709719.700,326839.200,703284.000,231780.300,681089.300,579305.800,0.000
241126.700,257645.700,709399.300,322623.200,698854.100,228525.700,677523.000,574739.400,0.000
239801.600,257107.200,709454.600,321511.800,697878.000,228150.600,676800.700,573221.900,0.000
245161.400,261077.500,709886.800,325905.300,702518.600,231840.900,680673.800,577854.700,0.000
248639.700,263317.300,710007.800,328717.100,705563.600,233828.200,683015.600,581258.200,0.000
246110.100,261185.900,709720.700,326531.700,703124.900,231791.900,681101.300,579273.000,0.000
241129.600,257634.900,709400.900,322318.500,698705.400,228538.600,677539.200,574712.600,0.000
239798.400,257089.200,709455.300,321195.000,697719.200,228153.300,676807.200,573183.700,0.000
245156.300,261058.300,709886.300,325585.200,702348.500,231841.900,680676.300,577814.000,0.000
248630.000,263294.900,710006.700,328401.500,705389.700,233834.600,683008.800,581223.500,0.000
246096.500,261159.400,709717.200,326210.100,702955.100,231793.400,681092.000,579231.600,0.000
241129.600,257618.400,709401.600,322006.500,698559.300,228547.200,677541.100,574680.600,0.000
239800.200,257078.100,709457.000,320887.400,697583.600,228165.100,676812.800,573155.600,0.000
245137.800,261029.400,709883.800,325260.000,702189.900,231836.300,680664.100,577767.300,0.000
248619.300,263272.000,710007.500,328079.600,705229.600,233830.900,683014.900,581180.600,0.000
246084.700,261132.100,709719.500,325891.600,702803.300,231789.500,681096.300,579190.500,0.000
241111.800,257584.000,709402.100,321686.700,698403.900,228537.000,677538.400,574636.000,0.000
239774.000,257035.800,709455.900,320559.700,697411.400,228144.200,676802.300,573100.600,0.000
245118.200,260996.500,709885.900,324942.300,702012.400,231824.900,680662.600,577717.800,0.000
248612.500,263247.700,710010.600,327775.200,705050.500,233830.000,683021.600,581142.400,0.000
246077.200,261104.900,709719.300,325583.500,702625.000,231781.100,681094.500,579147.600,0.000
241096.800,257548.200,709397.300,321368.800,698226.300,228518.800,677524.600,574582.400,0.000
239752.500,256993.400,709451.000,320238.700,697231.300,228124.500,676782.500,573044.200,0.000
245091.200,260948.900,709882.500,324620.700,701822.800,231803.300,680643.400,577662.600,0.000
248593.100,263209.100,710007.600,327460.900,704854.900,233809.300,683008.400,581095.900,0.000
246071.000,261078.600,709718.400,325278.800,702444.600,231769.500,681091.500,579114.700,0.000
241093.200,257522.200,709398.200,321063.900,698053.300,228505.300,677520.100,574550.400,0.000
239756.600,256972.300,709451.900,319937.900,697061.400,228111.500,676781.600,573015.900,0.000
245101.900,260932.000,709886.800,324330.900,701656.400,231798.000,680651.900,577645.600,0.000
248612.800,263202.900,710012.900,327178.700,704685.800,233812.500,683024.900,581083.400,0.000
246084.700,261067.300,709721.600,324991.800,702279.600,231768.900,681103.400,579094.800,0.000
241102.800,257508.300,709400.100,320780.700,697899.800,228509.100,677536.700,574535.200,0.000
239739.700,256939.600,709451.800,319639.000,696894.200,228102.300,676784.900,572985.300,0.000
245080.000,260901.000,709884.600,324021.100,701475.600,231779.700,680646.100,577602.400,0.000
248575.700,263154.100,710009.400,326862.800,704491.100,233788.200,683013.100,581033.400,0.000
246061.300,261029.000,709720.900,324692.500,702107.900,231757.300,681105.700,579060.300,0.000
241088.800,257477.600,709402.400,320487.100,697741.600,228500.000,677541.700,574504.300,0.000
239726.900,256909.400,709454.800,319348.900,696739.300,228096.700,676793.100,572953.400,0.000
245067.900,260870.000,709886.900,323735.200,701316.100,231778.000,680656.900,577571.300,0.000
248580.700,263136.900,710012.100,326583.800,704331.500,233788.900,683027.600,581010.600,0.000
246056.200,261000.900,709721.200,324403.300,701946.800,231747.300,681109.200,579027.800,0.000
241082.800,257448.800,709402.400,320195.300,697588.500,228493.000,677544.600,574469.100,0.000
239723.700,256882.700,709453.300,319049.100,696582.400,228084.400,676787.900,572912.900,0.000
245055.900,260835.100,709882.100,323423.200,701140.600,231754.300,680639.300,577519.200,0.000
248553.500,263088.600,710006.900,326267.300,704141.100,233766.100,683008.400,580954.400,0.000
246042.000,260966.900,709720.900,324098.300,701775.900,231737.700,681103.200,578985.800,0.000
241075.500,257418.300,709401.100,319894.300,697428.600,228481.600,677540.300,574433.700,0.000
239713.600,256852.000,709453.300,318748.700,696421.400,228072.100,676786.600,572876.800,0.000
245046.900,260810.300,709887.100,323125.900,700975.300,231746.900,680644.400,577483.300,0.000
248564.700,263080.900,710013.500,325982.000,703975.300,233765.100,683020.500,580924.600,0.000
246054.000,260954.600,709723.400,323814.000,701613.100,231731.500,681114.100,578954.300,0.000
241072.000,257394.400,709402.400,319604.300,697260.800,228466.500,677544.500,574394.400,0.000
239708.300,256830.900,709453.900,318460.300,696253.400,228058.500,676789.100,572837.300,0.000
245029.500,260774.000,709882.300,322828.500,700795.000,231725.800,680637.000,577434.600,0.000
248547.000,263040.500,710006.900,325683.600,703791.600,233745.300,683015.800,580879.800,0.000
246047.000,260924.300,709719.700,323524.700,701448.800,231724.200,681120.600,578921.800,0.000
241067.200,257362.900,709399.100,319315.700,697103.400,228459.600,677551.100,574362.000,0.000
239675.700,256768.300,709447.400,318154.200,696078.100,228033.300,676777.100,572786.000,0.000
244999.800,260717.600,709875.600,322521.300,700611.100,231697.100,680620.600,577381.600,0.000
248524.400,262994.000,710001.900,325383.800,703603.400,233717.900,683001.900,580832.800,0.000
246028.600,260883.600,709717.200,323231.200,701270.600,231697.100,681110.600,578879.400,0.000
241050.000,257324.900,709396.700,319020.300,696930.600,228429.600,677541.300,574319.500,0.000
239666.600,256743.600,709447.400,317861.000,695910.300,228008.300,676775.100,572749.400,0.000
244992.700,260695.300,709882.100,322238.200,700449.300,231685.200,680630.300,577355.300,0.000
248511.100,262966.200,710007.700,325097.700,703429.200,233704.000,683004.200,580800.400,0.000
245969.700,260813.500,709714.900,322904.700,701055.400,231644.500,681067.200,578797.400,0.000
241015.000,257269.500,709392.600,318712.900,696740.600,228394.100,677511.100,574251.200,0.000
239653.700,256702.600,709444.900,317571.600,695740.900,227987.900,676758.900,572696.800,0.000
